Unit:(mV)
                     CH1         CH2
Frequency              ? 261.063 kHz
00001               0.00    -2800.00
00002              -6.00    -2800.00
00003              -4.00    -2800.00
00004              -2.00    -2600.00
00005              -2.00    -2600.00
00006              -2.00    -2400.00
00007               0.00    -2400.00
00008              -2.00    -2400.00
00009              -2.00    -2400.00
00010              -6.00    -2400.00
00011              -4.00    -2200.00
00012              -2.00    -2200.00
00013              -2.00    -2200.00
00014               0.00    -2200.00
00015              -2.00    -2200.00
00016              -6.00    -2000.00
00017              -8.00    -1800.00
00018              -6.00    -2000.00
00019              -2.00    -1600.00
00020               0.00    -1600.00
00021               0.00    -1600.00
00022               0.00    -1400.00
00023              -6.00    -1600.00
00024              -8.00    -1400.00
00025              -2.00    -1200.00
00026               0.00    -1400.00
00027               2.00    -1200.00
00028              -2.00    -1000.00
00029              -8.00    -1200.00
00030              -8.00    -1000.00
00031              -2.00     -800.00
00032              -2.00     -800.00
00033               0.00     -800.00
00034               0.00     -600.00
00035               0.00     -800.00
00036               0.00     -600.00
00037               0.00     -600.00
00038              -8.00     -600.00
00039             -10.00     -400.00
00040              -6.00     -200.00
00041               0.00     -400.00
00042               8.00     -200.00
00043               6.00        0.00
00044              -2.00     -200.00
00045             -10.00        0.00
00046             -18.00        0.00
00047             -12.00      200.00
00048               6.00      200.00
00049              16.00      200.00
00050              10.00      200.00
00051              -2.00      400.00
00052              -2.00      400.00
00053              -6.00      600.00
00054              -2.00      400.00
00055               0.00      400.00
00056               2.00      800.00
00057              38.00      800.00
00058             158.00      800.00
00059              48.00     1000.00
00060            -254.00      800.00
00061            -254.00     1000.00
00062             246.00     1200.00
00063             246.00     1400.00
00064            -254.00     1000.00
00065            -254.00     1000.00
00066             246.00     1600.00
00067             246.00     1400.00
00068            -254.00     1200.00
00069            -152.00     1600.00
00070             246.00     1800.00
00071             -42.00     1400.00
00072            -254.00     1600.00
00073             142.00     2000.00
00074              42.00     1800.00
00075            -130.00     1800.00
00076             126.00     2000.00
00077              26.00     2000.00
00078            -150.00     2000.00
00079              96.00     2400.00
00080              12.00     2200.00
00081            -108.00     2400.00
00082             110.00     2400.00
00083             -32.00     2400.00
00084            -106.00     2400.00
00085             162.00     2600.00
00086             -42.00     2600.00
00087            -170.00     2600.00
00088             154.00     2800.00
00089              46.00     2600.00
00090            -136.00     2800.00
00091              70.00     3000.00
00092              -2.00     2800.00
00093             -64.00     3000.00
00094              74.00     3000.00
00095             -32.00     3200.00
00096             -38.00     3200.00
00097              50.00     3200.00
00098             -42.00     3200.00
00099              -6.00     3200.00
00100              50.00     3400.00
00101             -46.00     3200.00
00102               0.00     3400.00
00103              30.00     3400.00
00104             -48.00     3600.00
00105              -2.00     3600.00
00106              26.00     3600.00
00107             -14.00     3600.00
00108              -6.00     3600.00
00109               6.00     3600.00
00110              -6.00     3600.00
00111             -10.00     3600.00
00112             -18.00     3600.00
00113               0.00     3800.00
00114              18.00     4000.00
00115              -2.00     4000.00
00116             -14.00     3800.00
00117               4.00     4000.00
00118             -10.00     4000.00
00119             -16.00     4000.00
00120              18.00     4000.00
00121              14.00     4000.00
00122             -24.00     4000.00
00123             -10.00     4200.00
00124              -2.00     4000.00
00125               0.00     4200.00
00126              10.00     4200.00
00127              -8.00     4200.00
00128             -10.00     4200.00
00129             -14.00     4200.00
00130             -16.00     4200.00
00131               6.00     4200.00
00132               6.00     4200.00
00133             -14.00     4200.00
00134              -6.00     4400.00
00135               2.00     4200.00
00136             -10.00     4200.00
00137              -8.00     4200.00
00138              -2.00     4400.00
00139              -6.00     4200.00
00140              -6.00     4400.00
00141              -6.00     4400.00
00142              -8.00     4400.00
00143              -4.00     4200.00
00144              -6.00     4400.00
00145              -6.00     4200.00
00146               0.00     4400.00
00147              -8.00     4200.00
00148             -10.00     4400.00
00149               2.00     4400.00
00150               0.00     4400.00
00151              -8.00     4200.00
00152              -2.00     4200.00
00153             -10.00     4200.00
00154             -14.00     4400.00
00155               0.00     4400.00
00156               6.00     4400.00
00157               0.00     4400.00
00158              -6.00     4400.00
00159             -10.00     4200.00
00160             -10.00     4200.00
00161              -6.00     4200.00
00162              -2.00     4200.00
00163               2.00     4200.00
00164               0.00     4200.00
00165              -6.00     4200.00
00166              -6.00     4000.00
00167              -6.00     4000.00
00168              -8.00     4000.00
00169              -2.00     4000.00
00170               2.00     4000.00
00171               0.00     4000.00
00172             -10.00     3800.00
00173              -8.00     3800.00
00174              -4.00     4000.00
00175               0.00     3800.00
00176              -2.00     3800.00
00177              -2.00     3800.00
00178              -2.00     3600.00
00179             -10.00     3600.00
00180              -8.00     3600.00
00181              -2.00     3600.00
00182              -6.00     3600.00
00183              -6.00     3400.00
00184               0.00     3600.00
00185               0.00     3400.00
00186              -2.00     3400.00
00187              -6.00     3400.00
00188              -8.00     3200.00
00189              -6.00     3200.00
00190              -2.00     3200.00
00191              -6.00     3200.00
00192              -2.00     3200.00
00193              -2.00     3200.00
00194              -6.00     3000.00
00195              -6.00     3000.00
00196              -8.00     2800.00
00197             -10.00     2800.00
00198              -2.00     2800.00
00199               0.00     2600.00
00200              -2.00     2800.00
00201              -6.00     2600.00
00202              -8.00     2600.00
00203              -8.00     2400.00
00204              -2.00     2600.00
00205               0.00     2400.00
00206               0.00     2400.00
00207              -6.00     2200.00
00208              -8.00     2200.00
00209              -6.00     2400.00
00210              -2.00     2000.00
00211              -6.00     2200.00
00212              -6.00     2000.00
00213              -6.00     1800.00
00214              -6.00     1800.00
00215              -4.00     1800.00
00216              -2.00     1800.00
00217              -2.00     1600.00
00218              -2.00     1600.00
00219              -6.00     1600.00
00220              -4.00     1600.00
00221              -2.00     1600.00
00222              -6.00     1400.00
00223              -8.00     1200.00
00224               0.00     1200.00
00225              -6.00     1000.00
00226              -6.00     1200.00
00227              -6.00     1000.00
00228               0.00     1000.00
00229              -2.00      800.00
00230              -2.00      800.00
00231              -2.00      800.00
00232               0.00      800.00
00233              -6.00      800.00
00234              -8.00      800.00
00235              -6.00      600.00
00236              -2.00      400.00
00237              -2.00      400.00
00238              -2.00      400.00
00239              -2.00      200.00
00240               0.00      200.00
00241              -2.00      200.00
00242               0.00        0.00
00243               6.00        0.00
00244               6.00        0.00
00245              -6.00        0.00
00246              -8.00        0.00
00247              -6.00     -200.00
00248               6.00     -200.00
00249              38.00     -400.00
00250             136.00     -400.00
00251              46.00     -800.00
00252            -254.00     -600.00
00253            -254.00     -600.00
00254             246.00     -600.00
00255             246.00     -800.00
00256            -254.00     -800.00
00257            -254.00     -800.00
00258             246.00    -1000.00
00259             246.00     -800.00
00260            -254.00    -1200.00
00261            -254.00    -1000.00
00262             246.00    -1400.00
00263             112.00    -1200.00
00264            -160.00    -1400.00
00265             -10.00    -1600.00
00266             -46.00    -1400.00
00267             -40.00    -1600.00
00268             184.00    -1800.00
00269              10.00    -1600.00
00270            -202.00    -1600.00
00271              18.00    -2000.00
00272             136.00    -2000.00
00273             -42.00    -2000.00
00274             -34.00    -2200.00
00275             -32.00    -2000.00
00276               0.00    -2000.00
00277              88.00    -2400.00
00278             -30.00    -2400.00
00279            -114.00    -2200.00
00280              52.00    -2400.00
00281              80.00    -2400.00
00282             -58.00    -2400.00
00283             -26.00    -2400.00
00284               8.00    -2600.00
00285               6.00    -2600.00
00286              14.00    -2800.00
00287             -10.00    -2800.00
00288             -32.00    -2800.00
00289              16.00    -2800.00
00290              22.00    -2800.00
00291             -10.00    -3000.00
00292             -16.00    -3000.00
00293              -2.00    -3000.00
00294               6.00    -3000.00
00295               6.00    -3000.00
00296              -8.00    -3200.00
00297             -16.00    -3200.00
00298              18.00    -3200.00
00299              10.00    -3200.00
00300             -24.00    -3200.00
00301             -10.00    -3200.00
00302              16.00    -3200.00
00303               2.00    -3200.00
00304              -4.00    -3400.00
00305              -4.00    -3600.00
00306              -6.00    -3600.00
00307               0.00    -3600.00
00308               0.00    -3400.00
00309               2.00    -3600.00
00310               0.00    -3800.00
00311              -6.00    -3800.00
00312               0.00    -3800.00
00313               0.00    -3800.00
00314             -10.00    -3600.00
00315              -2.00    -3800.00
00316              10.00    -3800.00
00317               2.00    -3800.00
00318              -6.00    -3800.00
00319              -6.00    -3800.00
00320              -2.00    -3800.00
00321              -2.00    -3800.00
00322              -2.00    -3800.00
00323               0.00    -4000.00
00324               0.00    -4000.00
00325              -6.00    -4000.00
00326              -8.00    -4000.00
00327               0.00    -4000.00
00328              -2.00    -3800.00
00329               0.00    -4000.00
00330               2.00    -3800.00
00331              -2.00    -4000.00
00332             -10.00    -3800.00
00333              -2.00    -4000.00
00334              -2.00    -4000.00
00335               0.00    -3800.00
00336               0.00    -4000.00
00337               0.00    -4000.00
00338              -2.00    -3800.00
00339              -2.00    -4000.00
00340              -6.00    -3800.00
00341              -2.00    -4000.00
00342               0.00    -4000.00
00343              -2.00    -4000.00
00344              -2.00    -3800.00
00345               0.00    -4000.00
00346              -6.00    -4000.00
00347              -6.00    -3800.00
00348               0.00    -4000.00
00349               0.00    -3800.00
00350               0.00    -3800.00
00351               0.00    -3800.00
00352              -2.00    -4000.00
00353              -4.00    -3800.00
00354              -2.00    -3800.00
00355              -2.00    -3800.00
00356               2.00    -3800.00
00357               0.00    -3800.00
00358              -2.00    -3600.00
00359              -2.00    -3600.00
00360              -6.00    -3600.00
00361              -2.00    -3600.00
00362               0.00    -3600.00
00363               6.00    -3600.00
00364              -2.00    -3600.00
00365              -2.00    -3400.00
00366              -4.00    -3400.00
00367              -4.00    -3600.00
00368               0.00    -3200.00
00369               0.00    -3200.00
00370               0.00    -3400.00
00371              -2.00    -3200.00
00372              -2.00    -3400.00
00373              -2.00    -3200.00
00374              -2.00    -3200.00
00375              -2.00    -3000.00
00376               2.00    -3000.00
00377               2.00    -3200.00
00378              -2.00    -3000.00
00379              -2.00    -3000.00
00380              -6.00    -2800.00
00381              -2.00    -3000.00
00382               0.00    -3000.00
00383               0.00    -2800.00
00384              -2.00    -2800.00
00385              -6.00    -2800.00
00386              -4.00    -2800.00
00387              -6.00    -2800.00
00388              -2.00    -2400.00
00389              -2.00    -2400.00
00390              -2.00    -2400.00
00391              -2.00    -2400.00
00392              -2.00    -2400.00
00393              -6.00    -2200.00
00394              -2.00    -2200.00
00395               0.00    -2200.00
00396              -2.00    -2000.00
00397              -2.00    -2200.00
00398              -2.00    -2000.00
00399              -2.00    -2000.00
00400              -2.00    -2000.00
00401              -2.00    -1600.00
00402              -2.00    -1800.00
00403              -2.00    -1600.00
00404              -8.00    -1600.00
00405              -6.00    -1400.00
00406              -6.00    -1600.00
00407              -4.00    -1400.00
00408              -2.00    -1400.00
00409               0.00    -1200.00
00410              -2.00    -1000.00
00411              -4.00    -1200.00
00412              -6.00    -1000.00
00413              -6.00    -1000.00
00414              -2.00    -1000.00
00415              -2.00     -800.00
00416              -2.00     -800.00
00417               0.00     -800.00
00418              -2.00     -600.00
00419              -6.00     -400.00
00420              -6.00     -600.00
00421              -2.00     -600.00
00422              -2.00     -400.00
00423               0.00     -400.00
00424               0.00     -200.00
00425              -2.00     -400.00
00426              -4.00     -200.00
00427              -2.00        0.00
00428              -2.00        0.00
00429              -2.00        0.00
00430              -6.00      200.00
00431               0.00      200.00
00432               0.00      200.00
00433               0.00      400.00
00434               0.00      400.00
00435               8.00      400.00
00436               0.00      400.00
00437              -6.00      600.00
00438              -6.00      600.00
00439               0.00      800.00
00440              32.00      800.00
00441             150.00     1000.00
00442              68.00     1200.00
00443            -254.00      800.00
00444            -254.00      800.00
00445             246.00     1200.00
00446             246.00     1200.00
00447            -254.00     1000.00
00448            -254.00     1000.00
00449             246.00     1600.00
00450             246.00     1600.00
00451            -254.00     1200.00
00452            -202.00     1600.00
00453             246.00     1800.00
00454             -12.00     1400.00
00455            -254.00     1600.00
00456             130.00     2000.00
00457              82.00     2000.00
00458            -128.00     1600.00
00459             108.00     2000.00
00460              26.00     2000.00
00461            -170.00     2000.00
00462              96.00     2200.00
00463              46.00     2200.00
00464            -114.00     2200.00
00465              88.00     2400.00
00466             -26.00     2400.00
00467            -112.00     2400.00
00468             166.00     2600.00
00469             -24.00     2400.00
00470            -186.00     2600.00
00471             144.00     2800.00
00472              58.00     2800.00
00473            -140.00     2600.00
00474              62.00     3000.00
00475              14.00     3000.00
00476             -70.00     3000.00
00477              66.00     3200.00
00478             -28.00     3200.00
00479             -38.00     3200.00
00480              50.00     3200.00
00481             -42.00     3200.00
00482             -10.00     3200.00
00483              52.00     3400.00
00484             -54.00     3400.00
00485              -6.00     3400.00
00486              34.00     3400.00
00487             -42.00     3200.00
00488              -2.00     3600.00
00489              32.00     3600.00
00490             -24.00     3400.00
00491             -16.00     3600.00
00492               2.00     3600.00
00493               2.00     3600.00
00494               6.00     3600.00
00495             -10.00     3800.00
00496             -10.00     3800.00
00497               8.00     4000.00
00498              -8.00     4000.00
00499             -12.00     4000.00
00500              14.00     4000.00
00501              -2.00     4000.00
00502             -22.00     4000.00
00503               6.00     4200.00
00504               2.00     4200.00
00505             -22.00     4000.00
00506               0.00     4200.00
00507               6.00     4200.00
00508              -2.00     4200.00
00509              -6.00     4400.00
00510              -8.00     4200.00
00511               0.00     4000.00
00512              -2.00     4200.00
00513             -10.00     4200.00
00514               6.00     4200.00
00515               6.00     4200.00
00516             -14.00     4200.00
00517             -10.00     4200.00
00518               0.00     4200.00
00519             -10.00     4200.00
00520              -4.00     4400.00
00521               4.00     4200.00
00522               0.00     4400.00
00523             -12.00     4400.00
00524             -10.00     4200.00
00525             -12.00     4200.00
00526               2.00     4400.00
00527              -8.00     4400.00
00528             -16.00     4400.00
00529              10.00     4400.00
00530              -2.00     4200.00
00531              -2.00     4400.00
00532              -2.00     4400.00
00533              -4.00     4200.00
00534              -8.00     4400.00
00535             -10.00     4200.00
00536             -16.00     4200.00
00537              -2.00     4200.00
00538               2.00     4400.00
00539              -2.00     4200.00
00540              -2.00     4200.00
00541              -6.00     4200.00
00542               0.00     4200.00
00543             -10.00     4200.00
00544             -10.00     4000.00
00545              -4.00     4200.00
00546               0.00     4200.00
00547              -8.00     4000.00
00548              -8.00     4200.00
00549               0.00     4000.00
00550               0.00     4200.00
00551              -6.00     4000.00
00552              -8.00     4000.00
00553               2.00     4000.00
00554               0.00     4000.00
00555             -10.00     4000.00
00556              -6.00     3800.00
00557              -2.00     3800.00
00558              -8.00     3800.00
00559             -10.00     4000.00
00560              -2.00     4000.00
00561               6.00     3600.00
00562              -2.00     3600.00
00563              -6.00     3600.00
00564              -6.00     3600.00
00565              -6.00     3600.00
00566              -6.00     3600.00
00567              -8.00     3400.00
00568              -2.00     3600.00
00569              -6.00     3400.00
00570               0.00     3400.00
00571              -2.00     3400.00
00572              -6.00     3200.00
00573             -10.00     3200.00
00574              -2.00     3200.00
00575               2.00     3200.00
00576               0.00     3200.00
00577              -2.00     3000.00
00578              -8.00     3200.00
00579              -8.00     3000.00
00580              -8.00     2800.00
00581              -2.00     2800.00
00582               0.00     2800.00
00583              -2.00     2800.00
00584              -6.00     2600.00
00585              -6.00     2400.00
00586              -6.00     2600.00
00587              -6.00     2600.00
00588              -6.00     2400.00
00589              -2.00     2400.00
00590              -6.00     2400.00
00591             -10.00     2200.00
00592              -4.00     2200.00
00593               0.00     2000.00
00594               0.00     2000.00
00595              -2.00     2000.00
00596             -10.00     1800.00
00597              -8.00     1800.00
00598              -8.00     1800.00
00599              -6.00     1600.00
00600              -2.00     1600.00
00601              -4.00     1800.00
00602              -6.00     1400.00
00603              -2.00     1600.00
00604              -8.00     1400.00
00605              -6.00     1200.00
00606              -4.00     1200.00
00607               0.00     1200.00
00608              -6.00     1200.00
00609              -6.00     1200.00
00610              -6.00     1000.00
00611              -2.00      800.00
00612              -4.00     1000.00
00613              -6.00      800.00
00614              -2.00      800.00
00615               0.00      800.00
00616              -8.00      800.00
00617              -6.00      600.00
00618              -6.00      400.00
00619              -2.00      400.00
00620               0.00      400.00
00621              -2.00      400.00
00622               0.00      200.00
00623               2.00      200.00
00624               0.00      200.00
00625               0.00        0.00
00626               4.00        0.00
00627               6.00        0.00
00628              -2.00        0.00
00629              -8.00        0.00
00630              -2.00     -200.00
00631               8.00     -400.00
00632              38.00     -400.00
00633             130.00     -400.00
00634              54.00     -800.00
00635            -254.00     -800.00
00636            -254.00     -600.00
00637             246.00     -600.00
00638             246.00     -800.00
00639            -254.00    -1200.00
00640            -254.00     -600.00
00641             246.00    -1000.00
00642             246.00    -1000.00
00643            -254.00    -1200.00
00644            -254.00    -1000.00
00645             246.00    -1200.00
00646             138.00    -1200.00
00647            -156.00    -1400.00
00648             -18.00    -1600.00
00649             -46.00    -1400.00
00650             -50.00    -1400.00
00651             182.00    -1600.00
00652              32.00    -1600.00
00653            -208.00    -1600.00
00654               2.00    -2000.00
00655             144.00    -1800.00
00656             -34.00    -2000.00
00657             -38.00    -2000.00
00658             -32.00    -2000.00
00659              -8.00    -2000.00
00660              90.00    -2400.00
00661             -14.00    -2400.00
00662            -120.00    -2200.00
00663              40.00    -2400.00
00664              86.00    -2400.00
00665             -56.00    -2400.00
00666             -32.00    -2600.00
00667              10.00    -2600.00
00668               6.00    -2800.00
00669              14.00    -2800.00
00670              -8.00    -2800.00
00671             -38.00    -2800.00
00672              14.00    -3000.00
00673              26.00    -2800.00
00674              -8.00    -3000.00
00675             -12.00    -3000.00
00676              -4.00    -3200.00
00677               0.00    -3000.00
00678               2.00    -3200.00
00679              -4.00    -3000.00
00680              -8.00    -3200.00
00681              22.00    -3200.00
00682               6.00    -3200.00
00683             -30.00    -3200.00
00684             -10.00    -3200.00
00685              16.00    -3200.00
00686               8.00    -3400.00
00687              -2.00    -3600.00
00688              -8.00    -3400.00
00689              -6.00    -3600.00
00690              -2.00    -3400.00
00691               4.00    -3600.00
00692               2.00    -3600.00
00693               0.00    -3600.00
00694              -8.00    -3600.00
00695              -2.00    -3600.00
00696               6.00    -3600.00
00697              -6.00    -3600.00
00698              -2.00    -3600.00
00699              10.00    -3800.00
00700               0.00    -3800.00
00701             -10.00    -3800.00
00702              -2.00    -4000.00
00703               0.00    -3800.00
00704               0.00    -3800.00
00705               0.00    -3800.00
00706               0.00    -3800.00
00707               0.00    -3800.00
00708               0.00    -4000.00
00709              -6.00    -3800.00
00710               0.00    -3800.00
00711               0.00    -4000.00
00712              -6.00    -4000.00
00713               0.00    -4000.00
00714              -2.00    -4000.00
00715              -6.00    -4000.00
00716              -2.00    -4000.00
00717               0.00    -4000.00
00718               0.00    -4000.00
00719               0.00    -4000.00
00720              -2.00    -4000.00
00721              -2.00    -4000.00
00722              -2.00    -4000.00
00723              -6.00    -4000.00
00724              -2.00    -4000.00
00725               0.00    -3800.00
00726               0.00    -4000.00
00727              -2.00    -4000.00
00728               0.00    -4000.00
00729              -6.00    -4000.00
00730              -4.00    -3800.00
00731               0.00    -3800.00
00732               0.00    -4000.00
00733               0.00    -3800.00
00734              -2.00    -4000.00
00735              -4.00    -3600.00
00736              -6.00    -3800.00
00737              -2.00    -3800.00
00738               0.00    -3800.00
00739               2.00    -3800.00
00740               0.00    -3800.00
00741              -6.00    -3600.00
00742              -6.00    -3800.00
00743              -2.00    -3600.00
00744              -4.00    -3600.00
00745               0.00    -3600.00
00746               2.00    -3600.00
00747              -2.00    -3600.00
00748              -6.00    -3600.00
00749              -2.00    -3400.00
00750              -2.00    -3600.00
00751               0.00    -3400.00
00752               0.00    -3400.00
00753               2.00    -3200.00
00754              -2.00    -3200.00
00755              -4.00    -3200.00
00756              -4.00    -3200.00
00757               0.00    -3200.00
00758               0.00    -3200.00
00759               0.00    -3200.00
00760               0.00    -3000.00
00761              -4.00    -3000.00
00762              -2.00    -3000.00
00763              -2.00    -2800.00
00764              -2.00    -2800.00
00765              -2.00    -2800.00
00766               0.00    -2800.00
00767               0.00    -2800.00
00768              -2.00    -2600.00
00769              -2.00    -2400.00
00770              -2.00    -2600.00
00771               0.00    -2600.00
00772               0.00    -2400.00
00773               0.00    -2400.00
00774              -2.00    -2400.00
00775              -2.00    -2400.00
00776              -6.00    -2200.00
00777               0.00    -2200.00
00778               0.00    -2200.00
00779               0.00    -2000.00
00780              -6.00    -2000.00
00781              -2.00    -2200.00
00782              -6.00    -2000.00
00783              -6.00    -2000.00
00784              -6.00    -2000.00
00785              -4.00    -1800.00
00786              -2.00    -1600.00
00787              -4.00    -1600.00
00788              -2.00    -1400.00
00789              -6.00    -1600.00
00790              -6.00    -1400.00
00791              -6.00    -1200.00
00792              -2.00    -1000.00
00793              -2.00    -1200.00
00794              -2.00    -1000.00
00795               0.00    -1200.00
00796              -2.00    -1200.00
00797              -6.00    -1000.00
00798              -6.00     -800.00
00799              -2.00     -800.00
00800               0.00     -800.00
00801              -2.00     -600.00
00802              -6.00     -600.00
00803              -2.00     -800.00
00804              -6.00     -600.00
00805              -4.00     -400.00
00806               0.00     -200.00
00807              -2.00     -400.00
00808              -4.00     -400.00
00809              -2.00     -200.00
00810              -6.00        0.00
00811               0.00        0.00
00812              -2.00        0.00
00813              -6.00        0.00
00814              -2.00      200.00
00815               0.00      200.00
00816               0.00      400.00
00817               2.00      400.00
00818               8.00      400.00
00819               0.00      400.00
00820              -2.00      600.00
00821              -6.00      600.00
00822               0.00      600.00
00823              30.00      800.00
00824             144.00     1000.00
00825              86.00     1000.00
00826            -254.00      800.00
00827            -254.00      800.00
00828             246.00     1200.00
00829             246.00     1200.00
00830            -254.00     1000.00
00831            -254.00     1200.00
00832             246.00     1600.00
00833             246.00     1600.00
00834            -254.00     1200.00
00835            -248.00     1600.00
00836             246.00     2000.00
00837              32.00     1400.00
00838            -254.00     1600.00
00839             114.00     2000.00
00840             104.00     1800.00
00841            -130.00     1800.00
00842              94.00     2000.00
00843              48.00     2000.00
00844            -176.00     1800.00
00845              88.00     2000.00
00846              62.00     2400.00
00847            -120.00     2200.00
00848              80.00     2600.00
00849             -10.00     2400.00
00850            -120.00     2400.00
00851             160.00     2800.00
00852              -2.00     2600.00
00853            -196.00     2600.00
00854             128.00     2800.00
00855              74.00     2600.00
00856            -146.00     2800.00
00857              56.00     3000.00
00858              24.00     3000.00
00859             -72.00     2800.00
00860              64.00     3200.00
00861             -22.00     3000.00
00862             -46.00     3200.00
00863              54.00     3200.00
00864             -34.00     3200.00
00865             -16.00     3200.00
00866              48.00     3400.00
00867             -50.00     3200.00
00868              -2.00     3400.00
00869              40.00     3600.00
00870             -42.00     3400.00
00871             -10.00     3400.00
00872              32.00     3600.00
00873             -14.00     3600.00
00874             -16.00     3600.00
00875              -2.00     3600.00
00876              -6.00     3600.00
00877               8.00     3600.00
00878              -2.00     3800.00
00879             -14.00     3800.00
00880              -6.00     3800.00
00881             -10.00     4000.00
00882               0.00     3800.00
00883              24.00     4000.00
00884              -6.00     4000.00
00885             -38.00     4000.00
00886               2.00     4000.00
00887              16.00     4000.00
00888             -10.00     4000.00
00889              -2.00     4000.00
00890               0.00     4000.00
00891             -14.00     4000.00
00892              -8.00     4200.00
00893               0.00     4400.00
00894               8.00     4200.00
00895               2.00     4200.00
00896             -16.00     4200.00
00897              -2.00     4200.00
00898               0.00     4400.00
00899             -16.00     4400.00
00900              -6.00     4400.00
00901              14.00     4400.00
00902              -2.00     4200.00
00903             -10.00     4200.00
00904              -6.00     4400.00
00905               0.00     4400.00
00906              -2.00     4400.00
00907              -6.00     4400.00
00908             -10.00     4400.00
00909              -6.00     4200.00
00910              -2.00     4400.00
00911               2.00     4200.00
00912               4.00     4400.00
00913              -8.00     4400.00
00914             -16.00     4200.00
00915             -10.00     4400.00
00916              -6.00     4200.00
00917              -2.00     4200.00
00918               6.00     4400.00
00919              -2.00     4400.00
00920             -10.00     4400.00
00921             -14.00     4200.00
00922              -6.00     4200.00
00923               0.00     4400.00
00924               0.00     4200.00
00925              -4.00     4200.00
00926              -8.00     4000.00
00927             -10.00     4200.00
00928             -10.00     4200.00
00929              -2.00     4200.00
00930              -2.00     4200.00
00931              -4.00     4000.00
00932              -2.00     4000.00
00933              -2.00     4000.00
00934              -6.00     4200.00
00935              -8.00     4000.00
00936              -8.00     4000.00
00937              -6.00     4000.00
00938              -6.00     3800.00
00939              -2.00     4000.00
00940              -2.00     4000.00
00941              -2.00     3600.00
00942              -6.00     3800.00
00943               0.00     3800.00
00944              -8.00     3600.00
00945             -10.00     3600.00
00946              -6.00     3600.00
00947               2.00     3600.00
00948               2.00     3600.00
00949              -6.00     3400.00
00950              -6.00     3400.00
00951              -6.00     3400.00
00952              -4.00     3400.00
00953              -6.00     3200.00
00954               0.00     3400.00
00955              -2.00     3200.00
00956              -8.00     3200.00
00957              -8.00     3200.00
00958               2.00     3200.00
00959               0.00     3000.00
00960              -4.00     3200.00
00961              -8.00     3200.00
00962              -8.00     2800.00
00963              -2.00     2800.00
00964               0.00     3000.00
00965              -6.00     2800.00
00966              -2.00     2800.00
00967              -2.00     2800.00
00968               0.00     2600.00
00969              -2.00     2600.00
00970              -4.00     2400.00
00971              -8.00     2400.00
00972              -6.00     2400.00
00973              -6.00     2400.00
00974              -6.00     2400.00
00975              -6.00     2200.00
00976              -6.00     2000.00
00977              -6.00     2000.00
00978              -4.00     2000.00
00979               0.00     1800.00
00980              -2.00     1800.00
00981              -8.00     1800.00
00982             -10.00     1600.00
00983              -6.00     1600.00
00984               0.00     1600.00
00985              -2.00     1600.00
00986              -2.00     1600.00
00987              -6.00     1400.00
00988              -8.00     1200.00
00989              -6.00     1200.00
00990              -2.00     1200.00
00991              -2.00     1200.00
00992              -2.00     1000.00
00993              -6.00     1000.00
00994              -2.00      800.00
00995              -8.00     1000.00
00996              -8.00      800.00
00997              -6.00      800.00
00998               0.00      600.00
00999              -2.00      800.00
01000              -6.00      800.00
01001              -8.00      600.00
01002              -4.00      400.00
01003              -2.00      400.00
01004              -2.00      400.00
01005               0.00      200.00
01006               0.00      200.00
01007              -2.00      200.00
01008              -2.00      200.00
01009               4.00        0.00
01010               6.00        0.00
01011               0.00        0.00
01012              -6.00        0.00
01013              -6.00     -200.00
01014               2.00     -400.00
01015              32.00     -400.00
01016             130.00     -600.00
01017              72.00     -600.00
01018            -254.00     -800.00
01019            -254.00     -400.00
01020             246.00     -400.00
01021             246.00     -800.00
01022            -224.00    -1200.00
01023            -254.00     -800.00
01024             240.00    -1000.00
01025             246.00    -1000.00
01026            -254.00    -1200.00
01027            -254.00    -1000.00
01028             246.00    -1400.00
01029             160.00    -1200.00
01030            -160.00    -1400.00
01031             -26.00    -1600.00
01032             -38.00    -1400.00
01033             -54.00    -1400.00
01034             176.00    -1600.00
01035              54.00    -1600.00
01036            -202.00    -1600.00
01037              -8.00    -2000.00
01038             146.00    -1800.00
01039             -32.00    -2000.00
01040             -38.00    -2000.00
01041             -30.00    -2200.00
01042             -10.00    -2000.00
01043              82.00    -2200.00
01044              -8.00    -2400.00
01045            -120.00    -2200.00
01046              40.00    -2400.00
01047              94.00    -2400.00
01048             -50.00    -2400.00
01049             -38.00    -2400.00
01050               8.00    -2800.00
01051               6.00    -2800.00
01052              14.00    -2800.00
01053              -2.00    -2800.00
01054             -38.00    -2800.00
01055               8.00    -2800.00
01056              26.00    -2800.00
01057             -10.00    -3000.00
01058             -16.00    -3000.00
01059              -2.00    -3000.00
01060               6.00    -3000.00
01061               6.00    -3200.00
01062             -12.00    -3200.00
01063             -18.00    -3200.00
01064              14.00    -3200.00
01065              14.00    -3200.00
01066             -24.00    -3200.00
01067             -10.00    -3400.00
01068              16.00    -3400.00
01069               6.00    -3400.00
01070              -4.00    -3600.00
01071              -6.00    -3600.00
01072              -6.00    -3600.00
01073              -2.00    -3400.00
01074               0.00    -3600.00
01075               2.00    -3600.00
01076               0.00    -3600.00
01077              -8.00    -3800.00
01078              -2.00    -3800.00
01079               0.00    -3600.00
01080              -8.00    -3600.00
01081              -6.00    -3800.00
01082              10.00    -3800.00
01083               2.00    -3800.00
01084              -8.00    -3800.00
01085              -6.00    -3800.00
01086               0.00    -3800.00
01087               0.00    -3800.00
01088              -2.00    -4000.00
01089               0.00    -3800.00
01090               2.00    -3800.00
01091               0.00    -4000.00
01092              -8.00    -3800.00
01093              -2.00    -3800.00
01094               0.00    -4000.00
01095              -2.00    -3800.00
01096               0.00    -4000.00
01097               0.00    -3800.00
01098              -6.00    -3800.00
01099              -2.00    -4000.00
01100               0.00    -4000.00
01101              -2.00    -4000.00
01102               0.00    -4000.00
01103               0.00    -4000.00
01104              -2.00    -4000.00
01105              -2.00    -4000.00
01106              -8.00    -3800.00
01107              -2.00    -4000.00
01108               2.00    -4000.00
01109              -2.00    -4000.00
01110              -2.00    -4000.00
01111              -2.00    -4000.00
01112              -6.00    -4000.00
01113              -8.00    -3800.00
01114              -2.00    -3800.00
01115               0.00    -3800.00
01116               0.00    -3800.00
01117               0.00    -3800.00
01118              -6.00    -3800.00
01119              -6.00    -3800.00
01120              -2.00    -3800.00
01121              -2.00    -3800.00
01122               0.00    -3800.00
01123              -2.00    -3600.00
01124               0.00    -3800.00
01125              -4.00    -3800.00
01126              -6.00    -3600.00
01127              -2.00    -3600.00
01128               0.00    -3600.00
01129               0.00    -3600.00
01130              -2.00    -3600.00
01131              -2.00    -3600.00
01132              -4.00    -3600.00
01133              -2.00    -3400.00
01134              -2.00    -3400.00
01135              -2.00    -3400.00
01136               0.00    -3200.00
01137              -2.00    -3400.00
01138              -2.00    -3200.00
01139              -2.00    -3200.00
01140              -2.00    -3200.00
01141              -2.00    -3200.00
01142               0.00    -3000.00
01143               0.00    -3000.00
01144               0.00    -3200.00
01145              -2.00    -3000.00
01146              -2.00    -3000.00
01147              -2.00    -3000.00
01148               0.00    -2800.00
01149               0.00    -2800.00
01150               0.00    -2800.00
01151              -2.00    -2600.00
01152              -6.00    -2800.00
01153              -2.00    -2800.00
01154               0.00    -2400.00
01155              -2.00    -2400.00
01156               0.00    -2400.00
01157               0.00    -2400.00
01158               0.00    -2400.00
01159              -2.00    -2200.00
01160              -2.00    -2200.00
01161              -2.00    -2200.00
01162               0.00    -2000.00
01163               0.00    -2000.00
01164               0.00    -2000.00
01165              -2.00    -1800.00
01166              -6.00    -2000.00
01167              -2.00    -1800.00
01168               0.00    -1800.00
01169               0.00    -1600.00
01170              -2.00    -1600.00
01171               0.00    -1600.00
01172              -6.00    -1600.00
01173              -6.00    -1400.00
01174              -2.00    -1400.00
01175               0.00    -1200.00
01176              -2.00    -1200.00
01177              -2.00    -1000.00
01178              -2.00    -1200.00
01179              -2.00    -1000.00
01180              -4.00    -1000.00
01181              -2.00     -800.00
01182              -2.00     -800.00
01183              -2.00     -800.00
01184              -2.00     -800.00
01185              -6.00     -400.00
01186              -2.00     -600.00
01187              -4.00     -600.00
01188              -2.00     -400.00
01189              -2.00     -400.00
01190               0.00     -400.00
01191              -2.00     -200.00
01192              -4.00     -400.00
01193              -2.00        0.00
01194               0.00        0.00
01195              -2.00        0.00
01196              -4.00        0.00
01197               0.00      200.00
01198               0.00      200.00
01199               0.00      400.00
01200               2.00      200.00
01201               8.00      400.00
01202               2.00      400.00
01203              -2.00      400.00
01204              -6.00      400.00
01205               0.00      600.00
01206              22.00      800.00
01207             142.00     1000.00
01208              98.00     1000.00
01209            -254.00      800.00
01210            -254.00      800.00
01211             246.00     1200.00
01212             246.00     1600.00
01213            -254.00     1000.00
01214            -254.00     1000.00
01215             246.00     1600.00
01216             246.00     1600.00
01217            -254.00     1200.00
01218            -254.00     1600.00
01219             246.00     1800.00
01220              78.00     1600.00
01221            -254.00     1600.00
01222              90.00     2000.00
01223             120.00     1800.00
01224            -134.00     1800.00
01225              86.00     2000.00
01226              64.00     2000.00
01227            -182.00     2000.00
01228              78.00     2200.00
01229              74.00     2400.00
01230            -116.00     2000.00
01231              74.00     2400.00
01232               2.00     2400.00
01233            -128.00     2400.00
01234             150.00     2800.00
01235              16.00     2600.00
01236            -202.00     2600.00
01237             118.00     2800.00
01238              88.00     2800.00
01239            -148.00     2600.00
01240              46.00     2800.00
01241              32.00     2800.00
01242             -74.00     2800.00
01243              62.00     3200.00
01244             -16.00     3200.00
01245             -50.00     3000.00
01246              50.00     3200.00
01247             -32.00     3200.00
01248             -18.00     3200.00
01249              52.00     3400.00
01250             -50.00     3200.00
01251             -14.00     3400.00
01252              40.00     3400.00
01253             -38.00     3400.00
01254             -10.00     3400.00
01255              32.00     3600.00
01256             -18.00     3400.00
01257             -24.00     3600.00
01258               0.00     3600.00
01259               2.00     3600.00
01260               6.00     3600.00
01261             -10.00     3800.00
01262             -14.00     3600.00
01263               6.00     3800.00
01264              -8.00     4000.00
01265             -14.00     3800.00
01266              14.00     4000.00
01267               2.00     4000.00
01268             -24.00     4000.00
01269               2.00     4000.00
01270               4.00     4000.00
01271             -22.00     4000.00
01272              -2.00     4200.00
01273               6.00     4000.00
01274              -4.00     4200.00
01275              -6.00     4200.00
01276             -10.00     4000.00
01277              -2.00     4200.00
01278               2.00     4200.00
01279             -14.00     4200.00
01280               0.00     4200.00
01281               8.00     4200.00
01282             -10.00     4200.00
01283              -8.00     4400.00
01284               2.00     4200.00
01285              -8.00     4200.00
01286              -6.00     4400.00
01287               2.00     4400.00
01288              -2.00     4200.00
01289              -6.00     4200.00
01290              -6.00     4200.00
01291              -6.00     4400.00
01292              -2.00     4200.00
01293              -2.00     4200.00
01294              -6.00     4200.00
01295              -2.00     4200.00
01296              -6.00     4200.00
01297             -10.00     4200.00
01298              -2.00     4400.00
01299              -2.00     4200.00
01300              -6.00     4200.00
01301               0.00     4400.00
01302              -4.00     4200.00
01303              -8.00     4200.00
01304              -6.00     4200.00
01305              -6.00     4400.00
01306              -4.00     4200.00
01307              -4.00     4200.00
01308              -2.00     4200.00
01309              -6.00     4000.00
01310             -10.00     4000.00
01311              -8.00     4200.00
01312              -2.00     4000.00
01313               0.00     4400.00
01314              -6.00     4000.00
01315              -8.00     4000.00
01316              -8.00     4000.00
01317             -10.00     4000.00
01318              -6.00     4000.00
01319               0.00     4000.00
01320               0.00     4000.00
01321              -8.00     4000.00
01322              -8.00     3800.00
01323              -6.00     4000.00
01324              -6.00     3800.00
01325              -6.00     3800.00
01326              -2.00     3600.00
01327              -4.00     3600.00
01328              -8.00     3600.00
01329              -8.00     3600.00
01330              -2.00     3600.00
01331               0.00     3600.00
01332              -2.00     3400.00
01333              -6.00     3600.00
01334              -8.00     3400.00
01335              -8.00     3400.00
01336              -2.00     3400.00
01337              -2.00     3400.00
01338              -6.00     3200.00
01339              -8.00     3400.00
01340              -8.00     3200.00
01341               0.00     3200.00
01342               2.00     3200.00
01343               2.00     3000.00
01344              -8.00     3000.00
01345             -14.00     2800.00
01346             -10.00     2800.00
01347               2.00     2800.00
01348               8.00     2800.00
01349               2.00     2800.00
01350             -10.00     2600.00
01351             -10.00     2600.00
01352              -6.00     2600.00
01353               6.00     2600.00
01354               6.00     2600.00
01355              -2.00     2400.00
01356             -10.00     2400.00
01357             -10.00     2200.00
01358              -2.00     2200.00
01359               2.00     2000.00
01360               0.00     2200.00
01361              -4.00     2000.00
01362              -4.00     2000.00
01363              -2.00     1800.00
01364              -2.00     1800.00
01365              -6.00     1600.00
01366              -2.00     1800.00
01367              -6.00     1600.00
01368              -6.00     1600.00
01369              -2.00     1600.00
01370              -2.00     1400.00
01371              -6.00     1200.00
01372              -6.00     1200.00
01373              -6.00     1200.00
01374              -8.00     1200.00
01375              -6.00     1200.00
01376               0.00     1000.00
01377              -2.00     1000.00
01378             -10.00     1000.00
01379              -8.00     1000.00
01380               0.00      800.00
01381               2.00      800.00
01382              -6.00      800.00
01383              -8.00      600.00
01384              -6.00      400.00
01385              -2.00      400.00
01386              -6.00      400.00
01387              -8.00      200.00
01388              -2.00      200.00
01389               6.00        0.00
01390               0.00      200.00
01391              -4.00        0.00
01392              -4.00        0.00
01393               0.00        0.00
01394               6.00        0.00
01395               6.00        0.00
01396               2.00     -400.00
01397              -6.00     -400.00
01398              16.00     -400.00
01399             120.00     -400.00
01400              86.00     -600.00
01401            -254.00     -600.00
01402            -254.00     -600.00
01403             246.00     -600.00
01404             246.00     -800.00
01405            -174.00    -1000.00
01406            -254.00     -800.00
01407             200.00    -1000.00
01408             246.00    -1000.00
01409            -254.00    -1000.00
01410            -254.00    -1200.00
01411             246.00    -1400.00
01412             184.00    -1200.00
01413            -160.00    -1400.00
01414             -30.00    -1400.00
01415             -24.00    -1600.00
01416             -58.00    -1400.00
01417             166.00    -1600.00
01418              66.00    -1600.00
01419            -210.00    -1600.00
01420             -26.00    -2000.00
01421             146.00    -2000.00
01422             -18.00    -2000.00
01423             -32.00    -2000.00
01424             -22.00    -2200.00
01425             -12.00    -2000.00
01426              78.00    -2400.00
01427               2.00    -2400.00
01428            -126.00    -2200.00
01429              30.00    -2400.00
01430              96.00    -2400.00
01431             -42.00    -2400.00
01432             -38.00    -2400.00
01433               6.00    -2800.00
01434               2.00    -2800.00
01435              12.00    -2800.00
01436              -2.00    -2800.00
01437             -36.00    -3000.00
01438               8.00    -2800.00
01439              26.00    -2800.00
01440             -10.00    -3000.00
01441             -22.00    -3000.00
01442              -8.00    -3000.00
01443               2.00    -3200.00
01444               8.00    -3200.00
01445              -6.00    -3200.00
01446             -16.00    -3200.00
01447              10.00    -3200.00
01448               8.00    -3200.00
01449             -20.00    -3200.00
01450             -16.00    -3200.00
01451              16.00    -3400.00
01452               8.00    -3200.00
01453              -8.00    -3400.00
01454              -6.00    -3600.00
01455             -10.00    -3600.00
01456              -4.00    -3600.00
01457               2.00    -3600.00
01458               2.00    -3600.00
01459               2.00    -3600.00
01460              -6.00    -3600.00
01461               0.00    -3600.00
01462               0.00    -3800.00
01463              -8.00    -3800.00
01464              -6.00    -3800.00
01465               6.00    -3800.00
01466               4.00    -3800.00
01467              -8.00    -3800.00
01468              -6.00    -3800.00
01469              -2.00    -3800.00
01470               0.00    -3800.00
01471               0.00    -3800.00
01472               2.00    -3800.00
01473               6.00    -3800.00
01474              -2.00    -4000.00
01475              -6.00    -3800.00
01476               0.00    -4000.00
01477              -2.00    -4000.00
01478               0.00    -4000.00
01479               2.00    -4000.00
01480               0.00    -4000.00
01481              -8.00    -3800.00
01482              -2.00    -4000.00
01483              -2.00    -3800.00
01484               0.00    -4000.00
01485               4.00    -3800.00
01486               0.00    -4000.00
01487               0.00    -4000.00
01488              -2.00    -4000.00
01489              -6.00    -4000.00
01490               0.00    -4000.00
01491               2.00    -4000.00
01492               0.00    -3800.00
01493               0.00    -4000.00
01494               0.00    -4000.00
01495              -8.00    -3800.00
01496              -6.00    -3800.00
01497               2.00    -3800.00
01498               0.00    -3800.00
01499              -2.00    -4000.00
01500               0.00    -3800.00
01501              -2.00    -3800.00
01502              -2.00    -3800.00
01503              -4.00    -3800.00
01504              -2.00    -3800.00
01505               0.00    -3800.00
01506              -2.00    -3600.00
01507              -4.00    -3800.00
01508              -2.00    -3600.00
01509              -6.00    -3800.00
01510              -2.00    -3600.00
01511               0.00    -3600.00
01512               0.00    -3600.00
01513              -2.00    -3600.00
01514               0.00    -3600.00
01515              -6.00    -3600.00
01516              -6.00    -3400.00
01517              -2.00    -3200.00
01518               0.00    -3400.00
01519               0.00    -3200.00
01520              -2.00    -3200.00
01521              -2.00    -3400.00
01522              -2.00    -3200.00
01523               0.00    -3200.00
01524              -2.00    -3200.00
01525               0.00    -3000.00
01526               0.00    -3000.00
01527               0.00    -3000.00
01528              -6.00    -3000.00
01529              -2.00    -2800.00
01530              -2.00    -2800.00
01531              -2.00    -2800.00
01532               0.00    -2800.00
01533               0.00    -2800.00
01534               0.00    -3000.00
01535              -2.00    -2600.00
01536              -2.00    -2400.00
01537              -2.00    -2600.00
01538              -2.00    -2600.00
01539               0.00    -2400.00
01540              -2.00    -2400.00
01541              -2.00    -2400.00
01542              -2.00    -2200.00
01543              -2.00    -2400.00
01544              -2.00    -2200.00
01545              -2.00    -2000.00
01546              -2.00    -2000.00
01547               2.00    -2000.00
01548               0.00    -2000.00
01549               0.00    -2000.00
01550               0.00    -2000.00
01551               2.00    -2000.00
01552              -2.00    -1600.00
01553              -8.00    -1600.00
01554              -8.00    -1600.00
01555              -8.00    -1600.00
01556              -2.00    -1600.00
01557               2.00    -1400.00
01558               8.00    -1400.00
01559               6.00    -1000.00
01560              -2.00    -1200.00
01561              -2.00    -1000.00
01562              -8.00    -1000.00
01563             -10.00    -1200.00
01564              -8.00     -800.00
01565              -2.00     -800.00
01566               2.00     -800.00
01567               2.00     -600.00
01568               0.00     -600.00
01569               0.00     -600.00
01570              -6.00     -600.00
01571              -8.00     -400.00
01572              -4.00     -400.00
01573              -2.00     -200.00
01574              -2.00     -400.00
01575              -4.00        0.00
01576              -2.00     -200.00
01577               0.00        0.00
01578               0.00        0.00
01579              -6.00      200.00
01580              -2.00        0.00
01581               2.00      200.00
01582               0.00      200.00
01583               0.00      200.00
01584               6.00      400.00
01585               0.00      400.00
01586              -6.00      600.00
01587              -8.00      600.00
01588              -2.00      600.00
01589              24.00      800.00
01590             134.00      800.00
01591             112.00     1000.00
01592            -254.00      800.00
01593            -254.00      800.00
01594             246.00     1200.00
01595             246.00     1400.00
01596            -254.00     1200.00
01597            -254.00     1000.00
01598             246.00     1600.00
01599             246.00     1600.00
01600            -254.00     1200.00
01601            -254.00     1600.00
01602             246.00     1800.00
01603             112.00     1600.00
01604            -254.00     1600.00
01605              66.00     2000.00
01606             142.00     1800.00
01607            -136.00     1800.00
01608              72.00     2000.00
01609              80.00     2000.00
01610            -184.00     1800.00
01611              64.00     2200.00
01612              86.00     2400.00
01613            -118.00     2000.00
01614              64.00     2400.00
01615              18.00     2400.00
01616            -136.00     2400.00
01617             142.00     2800.00
01618              38.00     2400.00
01619            -208.00     2600.00
01620             102.00     2800.00
01621             104.00     2800.00
01622            -146.00     2600.00
01623              38.00     3000.00
01624              40.00     3000.00
01625             -78.00     2800.00
01626              54.00     3000.00
01627              -8.00     2800.00
01628             -56.00     3200.00
01629              50.00     3200.00
01630             -26.00     3200.00
01631             -26.00     3200.00
01632              54.00     3400.00
01633             -46.00     3200.00
01634             -22.00     3400.00
01635              42.00     3200.00
01636             -34.00     3400.00
01637             -14.00     3400.00
01638              32.00     3600.00
01639             -18.00     3600.00
01640             -22.00     3400.00
01641               0.00     3600.00
01642               2.00     3600.00
01643               6.00     3600.00
01644             -10.00     4000.00
01645             -16.00     3800.00
01646               2.00     3800.00
01647              -8.00     4000.00
01648             -16.00     3800.00
01649              10.00     3800.00
01650              -2.00     4000.00
01651             -26.00     4000.00
01652               4.00     4000.00
01653              10.00     4000.00
01654             -14.00     4000.00
01655              -2.00     4200.00
01656               6.00     4200.00
01657              -8.00     4000.00
01658              -8.00     4200.00
01659              -8.00     4200.00
01660              -2.00     4200.00
01661               0.00     4200.00
01662             -12.00     4200.00
01663              -2.00     4400.00
01664               8.00     4400.00
01665             -10.00     4200.00
01666              -8.00     4200.00
01667               0.00     4400.00
01668              -8.00     4200.00
01669              -6.00     4400.00
01670               6.00     4200.00
01671              -2.00     4200.00
01672              -8.00     4200.00
01673              -8.00     4400.00
01674              -2.00     4400.00
01675               2.00     4400.00
01676               0.00     4200.00
01677              -2.00     4400.00
01678               0.00     4200.00
01679              -6.00     4400.00
01680             -16.00     4200.00
01681             -10.00     4200.00
01682              -2.00     4400.00
01683               2.00     4400.00
01684               8.00     4400.00
01685               0.00     4200.00
01686             -10.00     4400.00
01687             -10.00     4200.00
01688              -4.00     4200.00
01689               2.00     4200.00
01690               2.00     4200.00
01691               0.00     4400.00
01692             -10.00     4000.00
01693             -16.00     4000.00
01694             -10.00     4200.00
01695               0.00     4200.00
01696               8.00     4000.00
01697               0.00     4000.00
01698              -8.00     4000.00
01699             -10.00     4000.00
01700             -16.00     4000.00
01701              -6.00     4000.00
01702               2.00     4000.00
01703               0.00     4000.00
01704              -6.00     3800.00
01705              -6.00     4000.00
01706              -6.00     3800.00
01707              -8.00     3800.00
01708              -6.00     3800.00
01709              -2.00     3600.00
01710               0.00     3600.00
01711              -6.00     3600.00
01712              -8.00     3600.00
01713              -6.00     3600.00
01714              -8.00     3400.00
01715              -4.00     3400.00
01716              -2.00     3400.00
01717               0.00     3400.00
01718              -6.00     3400.00
01719              -6.00     3400.00
01720              -6.00     3400.00
01721              -2.00     3200.00
01722              -2.00     3200.00
01723               0.00     3200.00
01724              -2.00     3000.00
01725              -8.00     3200.00
01726             -10.00     3000.00
01727              -6.00     3000.00
01728              -2.00     2800.00
01729              -2.00     3000.00
01730               0.00     3000.00
01731              -6.00     2800.00
01732              -6.00     2800.00
01733              -6.00     2600.00
01734              -2.00     2800.00
01735               0.00     2600.00
01736              -2.00     2600.00
01737              -8.00     2200.00
01738              -4.00     2400.00
01739              -6.00     2200.00
01740              -6.00     2400.00
01741              -4.00     2200.00
01742               0.00     2000.00
01743              -2.00     2000.00
01744              -2.00     2000.00
01745              -2.00     1800.00
01746              -2.00     2000.00
01747              -6.00     1800.00
01748              -2.00     1800.00
01749               0.00     1800.00
01750              -2.00     1600.00
01751              -6.00     1600.00
01752              -2.00     1600.00
01753              -6.00     1600.00
01754              -6.00     1200.00
01755              -4.00     1200.00
01756               0.00     1200.00
01757              -6.00     1200.00
01758              -6.00     1200.00
01759              -8.00     1000.00
01760              -2.00     1000.00
01761              -2.00     1000.00
01762              -2.00      800.00
01763              -6.00      800.00
01764              -4.00      600.00
01765              -6.00      800.00
01766              -6.00      400.00
01767              -2.00      400.00
01768               0.00      400.00
01769              -6.00      400.00
01770             -10.00      400.00
01771              -8.00      200.00
01772               0.00      200.00
01773               2.00      200.00
01774               2.00      200.00
01775               4.00        0.00
01776               2.00        0.00
01777              -4.00     -200.00
01778             -10.00        0.00
01779             -14.00     -400.00
01780               4.00     -200.00
01781              30.00     -400.00
01782             120.00     -400.00
01783              90.00     -600.00
01784            -254.00     -800.00
01785            -254.00     -600.00
01786             246.00     -600.00
01787             246.00     -800.00
01788            -128.00    -1200.00
01789            -254.00     -800.00
01790             152.00    -1000.00
01791             246.00    -1200.00
01792            -248.00    -1000.00
01793            -254.00    -1000.00
01794             240.00    -1200.00
01795             210.00    -1200.00
01796            -162.00    -1400.00
01797             -42.00    -1400.00
01798             -16.00    -1400.00
01799             -64.00    -1400.00
01800             154.00    -1600.00
01801              80.00    -1600.00
01802            -214.00    -1600.00
01803             -34.00    -2000.00
01804             154.00    -2000.00
01805             -14.00    -2000.00
01806             -40.00    -2000.00
01807             -30.00    -2200.00
01808             -22.00    -2000.00
01809              82.00    -2200.00
01810              22.00    -2400.00
01811            -126.00    -2200.00
01812              18.00    -2400.00
01813              96.00    -2600.00
01814             -42.00    -2400.00
01815             -40.00    -2400.00
01816               8.00    -2600.00
01817               8.00    -2600.00
01818              16.00    -2800.00
01819               2.00    -2800.00
01820             -42.00    -2800.00
01821               6.00    -2800.00
01822              26.00    -2800.00
01823              -2.00    -3000.00
01824             -16.00    -3200.00
01825              -8.00    -3000.00
01826               0.00    -3200.00
01827               8.00    -3200.00
01828              -8.00    -3000.00
01829             -18.00    -3200.00
01830              10.00    -3200.00
01831              10.00    -3200.00
01832             -22.00    -3200.00
01833             -16.00    -3200.00
01834              14.00    -3400.00
01835               8.00    -3400.00
01836              -6.00    -3600.00
01837              -8.00    -3600.00
01838             -10.00    -3600.00
01839              -2.00    -3600.00
01840               2.00    -3600.00
01841               8.00    -3600.00
01842               0.00    -3600.00
01843             -10.00    -3600.00
01844              -6.00    -3600.00
01845               0.00    -3600.00
01846              -8.00    -3800.00
01847              -2.00    -3800.00
01848               8.00    -3800.00
01849               0.00    -4000.00
01850             -10.00    -3800.00
01851              -8.00    -3800.00
01852               2.00    -3800.00
01853               0.00    -3600.00
01854               0.00    -4000.00
01855               0.00    -3800.00
01856               2.00    -3800.00
01857              -2.00    -3800.00
01858              -8.00    -3800.00
01859              -2.00    -3800.00
01860               0.00    -3800.00
01861               0.00    -4000.00
01862               4.00    -4000.00
01863               0.00    -4000.00
01864              -8.00    -4000.00
01865              -6.00    -4000.00
01866              -2.00    -4000.00
01867               0.00    -4000.00
01868               2.00    -3800.00
01869               2.00    -3800.00
01870              -2.00    -4000.00
01871              -6.00    -4000.00
01872              -6.00    -4000.00
01873               0.00    -4000.00
01874               2.00    -4000.00
01875               2.00    -4000.00
01876               0.00    -3800.00
01877              -2.00    -3800.00
01878              -6.00    -3800.00
01879              -6.00    -3800.00
01880               0.00    -3800.00
01881               2.00    -3800.00
01882               2.00    -3800.00
01883               0.00    -3800.00
01884              -4.00    -4000.00
01885              -8.00    -3800.00
01886              -6.00    -3800.00
01887               0.00    -3800.00
01888               2.00    -3800.00
01889               2.00    -3800.00
01890              -2.00    -3600.00
01891              -2.00    -3800.00
01892              -2.00    -3600.00
01893              -2.00    -3600.00
01894               0.00    -3600.00
01895               0.00    -3600.00
01896              -2.00    -3600.00
01897              -2.00    -3600.00
01898              -6.00    -3600.00
01899              -6.00    -3600.00
01900              -2.00    -3400.00
01901              -2.00    -3400.00
01902               0.00    -3200.00
01903               0.00    -3200.00
01904              -4.00    -3400.00
01905              -6.00    -3200.00
01906              -2.00    -3200.00
01907              -4.00    -3200.00
01908               0.00    -3200.00
01909               0.00    -3200.00
01910              -2.00    -3000.00
01911              -2.00    -3000.00
01912              -6.00    -2800.00
01913              -2.00    -3000.00
01914              -2.00    -3000.00
01915               0.00    -2800.00
01916               0.00    -2800.00
01917              -2.00    -2800.00
01918              -4.00    -2600.00
01919              -6.00    -2800.00
01920              -2.00    -2600.00
01921               0.00    -2600.00
01922              -2.00    -2400.00
01923               0.00    -2400.00
01924              -2.00    -2400.00
01925              -6.00    -2200.00
01926              -2.00    -2200.00
01927               0.00    -2000.00
01928               0.00    -2200.00
01929              -2.00    -2200.00
01930               0.00    -2000.00
01931              -2.00    -2000.00
01932              -2.00    -2000.00
01933              -2.00    -1800.00
01934               0.00    -1800.00
01935              -2.00    -1600.00
01936              -2.00    -1600.00
01937               0.00    -1600.00
01938              -2.00    -1400.00
01939              -6.00    -1400.00
01940              -2.00    -1400.00
01941               0.00    -1200.00
01942               0.00    -1000.00
01943               0.00    -1000.00
01944              -2.00    -1000.00
01945              -6.00    -1200.00
01946              -2.00    -1000.00
01947               0.00    -1000.00
01948               0.00     -800.00
01949               0.00     -600.00
01950              -2.00     -800.00
01951              -2.00     -600.00
01952              -8.00     -600.00
01953              -6.00     -600.00
01954               0.00     -400.00
01955               0.00     -400.00
01956               0.00     -400.00
01957              -8.00     -200.00
01958              -6.00     -400.00
01959              -2.00     -200.00
01960               0.00        0.00
01961              -2.00        0.00
01962              -8.00        0.00
01963              -2.00        0.00
01964               2.00      200.00
01965               2.00      200.00
01966              -4.00      200.00
01967               0.00      400.00
01968              -6.00      400.00
01969              -6.00      400.00
01970               6.00      600.00
01971              16.00      800.00
01972              16.00      800.00
01973             114.00      800.00
01974             104.00      800.00
01975            -254.00      800.00
01976            -254.00      800.00
01977             246.00     1200.00
01978             246.00     1200.00
01979            -226.00     1200.00
01980            -254.00     1000.00
01981             246.00     1600.00
01982             246.00     1600.00
01983            -254.00     1200.00
01984            -254.00     1600.00
01985             246.00     2000.00
01986             148.00     1600.00
01987            -254.00     1600.00
01988              34.00     1800.00
01989             160.00     1800.00
01990            -128.00     1800.00
01991              60.00     2000.00
01992              96.00     2000.00
01993            -178.00     1800.00
01994              46.00     2000.00
01995              78.00     2400.00
01996            -118.00     2200.00
01997              70.00     2600.00
01998              40.00     2400.00
01999            -138.00     2400.00
02000             126.00     2600.00
02001              48.00     2600.00
02002            -214.00     2600.00
02003              88.00     2800.00
02004             122.00     2800.00
02005            -144.00     2600.00
02006              22.00     3000.00
02007              48.00     2800.00
02008             -68.00     2800.00
02009              64.00     3000.00
02010               6.00     3000.00
02011             -72.00     3200.00
02012              38.00     3200.00
02013             -22.00     3200.00
02014             -16.00     3400.00
02015              70.00     3400.00
02016             -38.00     3200.00
02017             -34.00     3400.00
02018              34.00     3600.00
02019             -32.00     3400.00
02020             -16.00     3600.00
02021              38.00     3600.00
02022              -8.00     3400.00
02023             -22.00     3600.00
02024              -8.00     3600.00
02025             -10.00     3600.00
02026               0.00     3800.00
02027              -6.00     3800.00
02028              -2.00     3800.00
02029              14.00     3800.00
02030              -8.00     3800.00
02031             -26.00     3800.00
02032               0.00     4000.00
02033               6.00     4000.00
02034             -14.00     4000.00
02035               8.00     4000.00
02036               8.00     4000.00
02037             -26.00     4000.00
02038             -14.00     4200.00
02039               6.00     4200.00
02040               0.00     4000.00
02041               0.00     4200.00
02042              -6.00     4000.00
02043              -8.00     4200.00
02044              -2.00     4200.00
02045             -16.00     4400.00
02046              -2.00     4200.00
02047               8.00     4200.00
02048              -6.00     4200.00
02049             -10.00     4200.00
02050               2.00     4200.00
02051              -6.00     4200.00
02052              -8.00     4200.00
02053               0.00     4200.00
02054              -2.00     4400.00
02055              -6.00     4400.00
02056              -2.00     4400.00
02057              -6.00     4400.00
02058               0.00     4400.00
02059              -2.00     4400.00
02060              -6.00     4400.00
02061               0.00     4400.00
02062              -2.00     4200.00
02063              -8.00     4400.00
02064              -2.00     4400.00
02065              -2.00     4200.00
02066              -8.00     4400.00
02067               0.00     4400.00
02068               2.00     4400.00
02069              -2.00     4400.00
02070              -6.00     4400.00
02071              -6.00     4200.00
02072              -2.00     4200.00
02073              -2.00     4200.00
02074              -2.00     4200.00
02075              -6.00     4200.00
02076             -10.00     4200.00
02077              -8.00     4200.00
02078               2.00     4200.00
02079               6.00     4200.00
02080              -2.00     4000.00
02081              -8.00     4000.00
02082              -6.00     4000.00
02083              -8.00     4000.00
02084              -4.00     4000.00
02085               0.00     4000.00
02086              -2.00     3800.00
02087              -8.00     4000.00
02088              -6.00     3800.00
02089              -6.00     3800.00
02090              -6.00     3800.00
02091              -6.00     3800.00
02092              -2.00     3600.00
02093               0.00     3600.00
02094              -6.00     3600.00
02095              -6.00     3600.00
02096              -6.00     3600.00
02097              -8.00     3600.00
02098              -8.00     3400.00
02099              -2.00     3600.00
02100               0.00     3400.00
02101              -2.00     3400.00
02102              -6.00     3400.00
02103              -6.00     3200.00
02104              -6.00     3200.00
02105              -2.00     3200.00
02106              -2.00     3200.00
02107               0.00     3000.00
02108              -6.00     3200.00
02109             -10.00     2800.00
02110              -8.00     2800.00
02111              -6.00     2800.00
02112              -2.00     2800.00
02113               0.00     2800.00
02114              -2.00     2800.00
02115              -2.00     2800.00
02116              -8.00     2800.00
02117              -6.00     2600.00
02118              -2.00     2600.00
02119              -2.00     2400.00
02120              -4.00     2400.00
02121              -2.00     2400.00
02122              -8.00     2200.00
02123              -6.00     2400.00
02124              -2.00     2400.00
02125               2.00     2200.00
02126               0.00     2000.00
02127              -2.00     2000.00
02128              -8.00     1800.00
02129              -8.00     2000.00
02130              -6.00     1800.00
02131               0.00     1800.00
02132               2.00     1600.00
02133              -2.00     1600.00
02134              -6.00     1600.00
02135              -6.00     1600.00
02136              -4.00     1600.00
02137              -2.00     1400.00
02138              -2.00     1200.00
02139               0.00     1200.00
02140              -2.00     1200.00
02141              -8.00     1200.00
02142              -6.00     1000.00
02143               0.00     1000.00
02144              -2.00      800.00
02145              -4.00     1000.00
02146              -6.00      800.00
02147              -2.00      800.00
02148              -2.00      800.00
02149              -2.00      400.00
02150              -6.00      400.00
02151              -2.00      400.00
02152              -8.00      400.00
02153              -6.00      400.00
02154              -2.00      400.00
02155               0.00      400.00
02156               2.00      200.00
02157               0.00      200.00
02158               0.00        0.00
02159               6.00        0.00
02160              -2.00        0.00
02161              -8.00     -200.00
02162              -8.00     -200.00
02163               0.00     -400.00
02164              22.00     -400.00
02165             114.00     -400.00
02166              96.00     -600.00
02167            -242.00     -800.00
02168            -254.00     -600.00
02169             210.00     -400.00
02170             246.00     -800.00
02171             -72.00    -1000.00
02172            -254.00     -800.00
02173             112.00     -800.00
02174             246.00    -1200.00
02175            -216.00    -1000.00
02176            -254.00    -1000.00
02177             216.00    -1400.00
02178             228.00    -1200.00
02179            -152.00    -1200.00
02180             -46.00    -1600.00
02181             -16.00    -1600.00
02182             -74.00    -1400.00
02183             142.00    -1600.00
02184              98.00    -1600.00
02185            -202.00    -1600.00
02186             -48.00    -2000.00
02187             150.00    -2000.00
02188              -8.00    -1800.00
02189             -42.00    -2200.00
02190             -26.00    -2200.00
02191             -18.00    -2000.00
02192              76.00    -2200.00
02193              26.00    -2400.00
02194            -126.00    -2200.00
02195              14.00    -2400.00
02196             100.00    -2400.00
02197             -34.00    -2400.00
02198             -42.00    -2600.00
02199               8.00    -2400.00
02200              10.00    -2400.00
02201              10.00    -2800.00
02202               2.00    -2600.00
02203             -34.00    -2800.00
02204               6.00    -2800.00
02205              26.00    -2800.00
02206              -6.00    -2800.00
02207             -18.00    -3000.00
02208              -4.00    -3000.00
02209               6.00    -3000.00
02210               8.00    -3000.00
02211              -6.00    -3200.00
02212             -18.00    -3200.00
02213              14.00    -3200.00
02214              16.00    -3200.00
02215             -20.00    -3400.00
02216             -18.00    -3200.00
02217              14.00    -3600.00
02218               8.00    -3400.00
02219              -6.00    -3400.00
02220              -6.00    -3600.00
02221             -10.00    -3600.00
02222              -2.00    -3600.00
02223              -2.00    -3600.00
02224               0.00    -3600.00
02225               2.00    -3600.00
02226              -4.00    -3800.00
02227              -4.00    -3800.00
02228               4.00    -3600.00
02229              -6.00    -3800.00
02230             -10.00    -3800.00
02231               6.00    -3800.00
02232               6.00    -3800.00
02233              -6.00    -3800.00
02234              -4.00    -3800.00
02235              -2.00    -4000.00
02236               0.00    -3800.00
02237              -2.00    -4000.00
02238               0.00    -4000.00
02239               2.00    -4000.00
02240              -2.00    -3800.00
02241              -8.00    -4000.00
02242              -6.00    -4000.00
02243               0.00    -4000.00
02244               0.00    -4000.00
02245               2.00    -3800.00
02246               0.00    -4000.00
02247              -6.00    -4000.00
02248              -4.00    -4000.00
02249              -2.00    -3800.00
02250               0.00    -4000.00
02251               0.00    -4000.00
02252               0.00    -4000.00
02253              -2.00    -3800.00
02254               0.00    -4000.00
02255              -4.00    -4000.00
02256              -2.00    -4000.00
02257               4.00    -4000.00
02258               2.00    -4000.00
02259               0.00    -3800.00
02260               0.00    -4000.00
02261              -6.00    -4000.00
02262              -6.00    -3800.00
02263               0.00    -3800.00
02264               2.00    -3800.00
02265               2.00    -3800.00
02266               0.00    -3800.00
02267               0.00    -4000.00
02268              -4.00    -3800.00
02269               0.00    -3800.00
02270               0.00    -3800.00
02271               0.00    -3800.00
02272               0.00    -3800.00
02273              -2.00    -3600.00
02274               0.00    -3600.00
02275              -2.00    -3600.00
02276              -2.00    -3600.00
02277              -2.00    -3800.00
02278               2.00    -3600.00
02279              -2.00    -3600.00
02280              -2.00    -3600.00
02281              -2.00    -3600.00
02282              -6.00    -3400.00
02283              -2.00    -3400.00
02284               0.00    -3400.00
02285               0.00    -3600.00
02286              -2.00    -3400.00
02287              -2.00    -3200.00
02288              -4.00    -3200.00
02289              -4.00    -3200.00
02290              -2.00    -3200.00
02291               0.00    -3000.00
02292               0.00    -3000.00
02293              -2.00    -3000.00
02294              -2.00    -3000.00
02295              -6.00    -2800.00
02296              -2.00    -2800.00
02297              -2.00    -2800.00
02298               0.00    -2800.00
02299              -2.00    -2800.00
02300              -4.00    -2800.00
02301              -6.00    -2800.00
02302              -6.00    -2600.00
02303              -2.00    -2600.00
02304               0.00    -2400.00
02305              -2.00    -2400.00
02306               0.00    -2400.00
02307              -6.00    -2400.00
02308              -6.00    -2200.00
02309              -2.00    -2400.00
02310               0.00    -2200.00
02311              -2.00    -2200.00
02312               0.00    -2000.00
02313              -4.00    -2000.00
02314              -6.00    -2000.00
02315              -4.00    -2000.00
02316               0.00    -1800.00
02317               0.00    -1600.00
02318              -2.00    -1800.00
02319               0.00    -1600.00
02320               0.00    -1600.00
02321               0.00    -1600.00
02322              -6.00    -1600.00
02323              -8.00    -1400.00
02324               0.00    -1000.00
02325               0.00    -1200.00
02326               2.00    -1000.00
02327               0.00    -1200.00
02328              -6.00    -1000.00
02329              -8.00    -1000.00
02330              -4.00     -800.00
02331               2.00     -800.00
02332               2.00     -800.00
02333              -4.00     -600.00
02334              -6.00     -600.00
02335              -6.00     -600.00
02336              -2.00     -400.00
02337               0.00     -600.00
02338               0.00     -400.00
02339               0.00     -200.00
02340              -6.00     -400.00
02341              -6.00     -200.00
02342              -2.00        0.00
02343               0.00        0.00
02344              -2.00        0.00
02345              -2.00        0.00
02346              -2.00        0.00
02347              -2.00      200.00
02348              -2.00      400.00
02349               0.00      200.00
02350               8.00      400.00
02351               2.00      400.00
02352              -6.00      400.00
02353              -8.00      600.00
02354              -2.00      600.00
02355              16.00      600.00
02356             120.00      800.00
02357             128.00     1000.00
02358            -254.00      800.00
02359            -254.00      800.00
02360             246.00     1200.00
02361             246.00     1400.00
02362            -166.00     1000.00
02363            -254.00      800.00
02364             224.00     1600.00
02365             246.00     1600.00
02366            -254.00     1200.00
02367            -254.00     1400.00
02368             246.00     1800.00
02369             192.00     1600.00
02370            -254.00     1600.00
02371              14.00     1800.00
02372             170.00     2000.00
02373            -130.00     1800.00
02374              42.00     2000.00
02375             104.00     2000.00
02376            -178.00     2000.00
02377              38.00     2000.00
02378             104.00     2400.00
02379            -118.00     2000.00
02380              40.00     2400.00
02381              40.00     2200.00
02382            -138.00     2400.00
02383             120.00     2600.00
02384              70.00     2400.00
02385            -208.00     2600.00
02386              72.00     2800.00
02387             134.00     2800.00
02388            -142.00     2600.00
02389              16.00     2800.00
02390              58.00     2800.00
02391             -82.00     2800.00
02392              46.00     3200.00
02393              12.00     3200.00
02394             -62.00     3200.00
02395              54.00     3400.00
02396             -16.00     3200.00
02397             -38.00     3400.00
02398              54.00     3400.00
02399             -32.00     3400.00
02400             -30.00     3400.00
02401              46.00     3600.00
02402             -24.00     3400.00
02403             -22.00     3400.00
02404              38.00     3800.00
02405             -10.00     3400.00
02406             -24.00     3400.00
02407               0.00     3600.00
02408               0.00     3600.00
02409               8.00     3600.00
02410              -8.00     3800.00
02411             -16.00     3800.00
02412               0.00     3800.00
02413              -6.00     4000.00
02414             -16.00     3800.00
02415              10.00     4000.00
02416               8.00     4000.00
02417             -22.00     4000.00
02418               0.00     4000.00
02419               8.00     4000.00
02420             -20.00     4000.00
02421              -8.00     4200.00
02422               8.00     4200.00
02423              -6.00     4000.00
02424              -6.00     4200.00
02425             -10.00     4200.00
02426              -6.00     4200.00
02427              -2.00     4400.00
02428             -14.00     4200.00
02429              -2.00     4200.00
02430               8.00     4200.00
02431              -8.00     4400.00
02432             -14.00     4200.00
02433               2.00     4200.00
02434              -8.00     4200.00
02435              -8.00     4200.00
02436               6.00     4400.00
02437               0.00     4400.00
02438              -8.00     4200.00
02439              -8.00     4800.00
02440              -6.00     4400.00
02441              -2.00     4400.00
02442               0.00     4400.00
02443              -6.00     4400.00
02444               0.00     4400.00
02445              -6.00     4200.00
02446             -10.00     4400.00
02447              -2.00     4200.00
02448               0.00     4400.00
02449              -2.00     4400.00
02450               0.00     4200.00
02451              -2.00     4200.00
02452              -8.00     4400.00
02453              -6.00     4400.00
02454              -2.00     4200.00
02455              -2.00     4200.00
02456              -2.00     4200.00
02457              -2.00     4200.00
02458              -2.00     4200.00
02459              -6.00     4000.00
02460             -10.00     4200.00
02461              -4.00     4000.00
02462               0.00     4000.00
02463               0.00     4000.00
02464              -2.00     4200.00
02465              -6.00     4000.00
02466             -10.00     4000.00
02467              -8.00     4000.00
02468               0.00     4000.00
02469               2.00     4000.00
02470              -2.00     4000.00
02471              -8.00     3800.00
02472              -6.00     3800.00
02473              -2.00     3800.00
02474              -2.00     4000.00
02475               0.00     3600.00
02476              -6.00     3600.00
02477             -10.00     3600.00
02478             -10.00     3600.00
02479              -2.00     3400.00
02480              -2.00     3600.00
02481              -6.00     3400.00
02482              -2.00     3600.00
02483              -4.00     3400.00
02484             -10.00     3400.00
02485              -6.00     3400.00
02486               0.00     3400.00
02487              -6.00     3200.00
02488              -8.00     3200.00
02489              -8.00     3200.00
02490              -2.00     3200.00
02491               0.00     3200.00
02492              -8.00     3200.00
02493              -8.00     3000.00
02494              -6.00     3000.00
02495              -6.00     2800.00
02496               0.00     2800.00
02497              -2.00     2800.00
02498             -10.00     2600.00
02499              -8.00     2600.00
02500              -2.00     2600.00
02501               0.00     2600.00
02502              -2.00     2600.00
02503              -8.00     2400.00
02504              -4.00     2400.00
02505              -6.00     2400.00
02506              -2.00     2200.00
02507              -2.00     2200.00
02508               0.00     2000.00
02509              -6.00     2000.00
02510             -10.00     2000.00
02511              -8.00     2000.00
02512               0.00     2000.00
02513               2.00     1800.00
02514               0.00     1800.00
02515              -6.00     1600.00
02516              -8.00     1800.00
02517             -10.00     1600.00
02518              -2.00     1600.00
02519               0.00     1400.00
02520              -6.00     1400.00
02521              -8.00     1200.00
02522              -2.00     1200.00
02523               0.00     1200.00
02524               0.00     1200.00
02525              -2.00     1200.00
02526              -8.00     1000.00
02527             -10.00     1000.00
02528              -6.00     1000.00
02529               2.00      800.00
02530               2.00      800.00
02531               0.00      800.00
02532              -8.00      600.00
02533              -6.00      400.00
02534              -2.00      600.00
02535              -6.00      400.00
02536              -2.00      200.00
02537               0.00      200.00
02538               2.00      200.00
02539               0.00      200.00
02540              -6.00        0.00
02541               2.00        0.00
02542              10.00        0.00
02543               0.00        0.00
02544             -10.00        0.00
02545              -8.00     -200.00
02546               0.00     -400.00
02547              22.00     -400.00
02548             112.00     -600.00
02549             104.00     -600.00
02550            -224.00     -800.00
02551            -254.00     -600.00
02552             176.00     -600.00
02553             246.00     -600.00
02554             -10.00    -1000.00
02555            -254.00     -800.00
02556              64.00    -1000.00
02557             246.00    -1000.00
02558            -176.00    -1000.00
02559            -254.00    -1200.00
02560             192.00    -1400.00
02561             246.00    -1400.00
02562            -146.00    -1400.00
02563             -58.00    -1400.00
02564             -10.00    -1600.00
02565             -78.00    -1400.00
02566             136.00    -2000.00
02567             120.00    -1600.00
02568            -198.00    -1600.00
02569             -64.00    -2000.00
02570             146.00    -2000.00
02571              -4.00    -2000.00
02572             -42.00    -2000.00
02573             -24.00    -2200.00
02574             -16.00    -2000.00
02575              70.00    -2200.00
02576              32.00    -2400.00
02577            -128.00    -2400.00
02578               6.00    -2400.00
02579             104.00    -2600.00
02580             -26.00    -2400.00
02581             -48.00    -2600.00
02582               8.00    -2600.00
02583              10.00    -2600.00
02584              14.00    -2800.00
02585               8.00    -2800.00
02586             -40.00    -2800.00
02587               0.00    -2800.00
02588              26.00    -3000.00
02589              -2.00    -3000.00
02590             -18.00    -3000.00
02591              -2.00    -3000.00
02592               6.00    -3000.00
02593              10.00    -3000.00
02594              -2.00    -3200.00
02595             -16.00    -3000.00
02596              10.00    -3200.00
02597              18.00    -3200.00
02598             -16.00    -3200.00
02599             -16.00    -3200.00
02600              10.00    -3400.00
02601               6.00    -3200.00
02602              -2.00    -3400.00
02603              -6.00    -3600.00
02604              -6.00    -3600.00
02605              -2.00    -3400.00
02606               0.00    -3600.00
02607               2.00    -3600.00
02608               0.00    -3600.00
02609              -6.00    -3800.00
02610              -4.00    -3800.00
02611               2.00    -3800.00
02612              -8.00    -3800.00
02613             -10.00    -3800.00
02614               4.00    -4000.00
02615               2.00    -3800.00
02616              -6.00    -3800.00
02617              -6.00    -3800.00
02618               0.00    -4000.00
02619              -6.00    -3800.00
02620              -6.00    -3800.00
02621              -2.00    -3800.00
02622               2.00    -4000.00
02623               0.00    -4000.00
02624              -6.00    -3800.00
02625              -4.00    -4000.00
02626              -2.00    -3800.00
02627              -4.00    -4000.00
02628               2.00    -3800.00
02629               0.00    -4000.00
02630              -6.00    -4000.00
02631             -10.00    -4000.00
02632              -2.00    -4000.00
02633              -2.00    -4000.00
02634               0.00    -3800.00
02635               2.00    -3800.00
02636               0.00    -4000.00
02637               0.00    -4000.00
02638              -6.00    -4000.00
02639              -2.00    -4000.00
02640               0.00    -4000.00
02641               0.00    -4000.00
02642               0.00    -3800.00
02643               0.00    -4000.00
02644              -2.00    -4000.00
02645              -6.00    -3800.00
02646               0.00    -3800.00
02647               2.00    -4000.00
02648               0.00    -3800.00
02649              -2.00    -3800.00
02650              -2.00    -3800.00
02651              -2.00    -3800.00
02652              -2.00    -3800.00
02653               0.00    -3800.00
02654               0.00    -3600.00
02655               0.00    -3800.00
02656               0.00    -3600.00
02657               0.00    -3600.00
02658               0.00    -3600.00
02659              -2.00    -3600.00
02660               0.00    -3400.00
02661               2.00    -3600.00
02662               0.00    -3600.00
02663               0.00    -3600.00
02664              -2.00    -3400.00
02665              -2.00    -3600.00
02666              -2.00    -3400.00
02667               2.00    -3400.00
02668              -2.00    -3200.00
02669               0.00    -3200.00
02670              -2.00    -3200.00
02671              -2.00    -3200.00
02672              -2.00    -3200.00
02673              -2.00    -3200.00
02674               0.00    -3200.00
02675               0.00    -3000.00
02676              -2.00    -3200.00
02677              -6.00    -3000.00
02678              -2.00    -3000.00
02679              -4.00    -2800.00
02680              -2.00    -3000.00
02681               0.00    -2800.00
02682               0.00    -2800.00
02683               0.00    -2800.00
02684              -6.00    -2600.00
02685              -2.00    -2600.00
02686              -2.00    -2800.00
02687              -2.00    -2400.00
02688              -2.00    -2400.00
02689              -2.00    -2400.00
02690              -2.00    -2200.00
02691              -6.00    -2400.00
02692              -2.00    -2000.00
02693              -2.00    -2200.00
02694              -2.00    -2200.00
02695              -6.00    -2200.00
02696              -2.00    -2000.00
02697              -2.00    -2000.00
02698              -2.00    -2000.00
02699              -2.00    -1800.00
02700              -2.00    -1600.00
02701               0.00    -1600.00
02702              -2.00    -1600.00
02703               0.00    -1600.00
02704              -2.00    -1400.00
02705              -6.00    -1600.00
02706              -2.00    -1400.00
02707               0.00    -1200.00
02708               0.00    -1200.00
02709              -2.00    -1200.00
02710              -2.00    -1000.00
02711              -2.00    -1000.00
02712              -2.00    -1000.00
02713               0.00     -800.00
02714               0.00     -800.00
02715               0.00     -800.00
02716              -2.00     -600.00
02717               0.00     -600.00
02718               0.00     -600.00
02719              -2.00     -400.00
02720              -2.00     -400.00
02721               0.00     -400.00
02722               0.00     -400.00
02723              -2.00     -200.00
02724              -6.00     -200.00
02725              -2.00        0.00
02726               0.00        0.00
02727               0.00        0.00
02728              -2.00        0.00
02729               0.00      200.00
02730               0.00      200.00
02731               0.00      400.00
02732               2.00      200.00
02733               6.00      400.00
02734               4.00      400.00
02735              -2.00      600.00
02736              -8.00      800.00
02737              -2.00      800.00
02738              14.00      600.00
02739             114.00      800.00
02740             136.00     1000.00
02741            -254.00      800.00
02742            -254.00      800.00
02743             230.00     1200.00
02744             246.00     1200.00
02745            -106.00     1200.00
02746            -254.00     1000.00
02747             176.00     1600.00
02748             246.00     1600.00
02749            -254.00     1200.00
02750            -254.00     1600.00
02751             246.00     1800.00
02752             230.00     1600.00
02753            -254.00     1400.00
02754             -10.00     1800.00
02755             182.00     2000.00
02756            -128.00     1800.00
02757              30.00     2000.00
02758             118.00     2000.00
02759            -180.00     1800.00
02760              24.00     2000.00
02761             112.00     2400.00
02762            -114.00     2000.00
02763              30.00     2600.00
02764              52.00     2400.00
02765            -142.00     2400.00
02766             104.00     2600.00
02767              86.00     2600.00
02768            -210.00     2600.00
02769              54.00     2800.00
02770             142.00     2800.00
02771            -138.00     2600.00
02772               4.00     2800.00
02773              66.00     3000.00
02774             -78.00     2800.00
02775              40.00     3000.00
02776              18.00     3200.00
02777             -66.00     3000.00
02778              48.00     3200.00
02779              -6.00     3200.00
02780             -42.00     3200.00
02781              56.00     3400.00
02782             -30.00     3400.00
02783             -34.00     3400.00
02784              46.00     3400.00
02785             -22.00     3400.00
02786             -24.00     3400.00
02787              34.00     3600.00
02788             -10.00     3600.00
02789             -26.00     3600.00
02790               0.00     3800.00
02791               2.00     3600.00
02792               8.00     3600.00
02793              -2.00     4000.00
02794             -14.00     3800.00
02795               2.00     3600.00
02796              -8.00     4000.00
02797             -14.00     3600.00
02798              14.00     4000.00
02799              10.00     4000.00
02800             -26.00     4000.00
02801              -8.00     4000.00
02802              10.00     4000.00
02803             -12.00     4000.00
02804              -6.00     4000.00
02805               4.00     4200.00
02806             -10.00     4000.00
02807              -6.00     4200.00
02808               0.00     4200.00
02809              -6.00     4200.00
02810             -10.00     4200.00
02811             -16.00     4200.00
02812               8.00     4200.00
02813              20.00     4200.00
02814             -14.00     4200.00
02815             -26.00     4200.00
02816              -6.00     4200.00
02817               4.00     4200.00
02818               2.00     4200.00
02819               0.00     4200.00
02820             -10.00     4400.00
02821             -18.00     4200.00
02822             -10.00     4200.00
02823               0.00     4400.00
02824               6.00     4200.00
02825               0.00     4400.00
02826              -8.00     4200.00
02827              -6.00     4400.00
02828             -10.00     4400.00
02829             -16.00     4400.00
02830               0.00     4200.00
02831               8.00     4200.00
02832              -2.00     4200.00
02833              -8.00     4200.00
02834             -10.00     4200.00
02835             -10.00     4200.00
02836              -4.00     4200.00
02837              -2.00     4200.00
02838              -2.00     4200.00
02839              -6.00     4200.00
02840              -2.00     4200.00
02841               0.00     4000.00
02842               0.00     4200.00
02843              -6.00     4000.00
02844              -6.00     4200.00
02845              -6.00     4000.00
02846              -8.00     4000.00
02847              -2.00     4000.00
02848               2.00     4000.00
02849              -2.00     4000.00
02850             -10.00     4000.00
02851              -6.00     4000.00
02852              -2.00     4000.00
02853               0.00     3800.00
02854               0.00     3800.00
02855              -4.00     4000.00
02856              -8.00     3800.00
02857              -6.00     4000.00
02858               0.00     3600.00
02859               0.00     3600.00
02860              -6.00     3600.00
02861              -8.00     3600.00
02862              -2.00     3600.00
02863              -2.00     3600.00
02864              -8.00     3400.00
02865              -6.00     3400.00
02866              -6.00     3400.00
02867              -6.00     3400.00
02868              -6.00     3200.00
02869              -2.00     3400.00
02870              -4.00     3200.00
02871              -6.00     3200.00
02872              -6.00     3200.00
02873              -2.00     3000.00
02874              -2.00     3200.00
02875              -8.00     2800.00
02876              -6.00     3200.00
02877              -2.00     2800.00
02878              -8.00     3000.00
02879              -8.00     2800.00
02880              -6.00     2800.00
02881              -4.00     2800.00
02882              -6.00     2800.00
02883              -2.00     2600.00
02884              -6.00     2600.00
02885              -8.00     2400.00
02886              -8.00     2400.00
02887               0.00     2400.00
02888              -2.00     2200.00
02889              -6.00     2400.00
02890             -10.00     2000.00
02891             -10.00     2000.00
02892              -6.00     2000.00
02893              -2.00     2000.00
02894               6.00     2000.00
02895              -2.00     1800.00
02896             -10.00     1800.00
02897              -8.00     1600.00
02898              -2.00     1600.00
02899              -6.00     1600.00
02900              -6.00     1600.00
02901               0.00     1600.00
02902               0.00     1400.00
02903              -2.00     1400.00
02904              -6.00     1200.00
02905              -6.00     1200.00
02906              -6.00     1200.00
02907              -2.00     1000.00
02908               0.00     1200.00
02909               0.00     1000.00
02910              -2.00      800.00
02911              -8.00      800.00
02912              -6.00      800.00
02913               2.00      800.00
02914               2.00      600.00
02915              -6.00      600.00
02916              -6.00      400.00
02917              -6.00      400.00
02918              -2.00      400.00
02919               0.00      200.00
02920              -2.00      400.00
02921              -2.00      200.00
02922               0.00        0.00
02923               0.00        0.00
02924               6.00        0.00
02925               8.00     -200.00
02926               4.00        0.00
02927              -8.00        0.00
02928              -8.00     -400.00
02929              -2.00     -400.00
02930              16.00     -400.00
02931             104.00     -400.00
02932             112.00     -600.00
02933            -198.00    -1000.00
02934            -254.00     -600.00
02935             144.00     -600.00
02936             246.00     -800.00
02937              30.00     -800.00
02938            -254.00    -1000.00
02939              22.00     -800.00
02940             246.00    -1200.00
02941            -130.00    -1200.00
02942            -254.00    -1000.00
02943             160.00    -1400.00
02944             246.00    -1400.00
02945            -138.00    -1400.00
02946             -62.00    -1400.00
02947               2.00    -1600.00
02948             -78.00    -1400.00
02949             114.00    -1800.00
02950             120.00    -2000.00
02951            -202.00    -1800.00
02952             -74.00    -2000.00
02953             156.00    -2000.00
02954              14.00    -2000.00
02955             -48.00    -2000.00
02956             -30.00    -2400.00
02957             -24.00    -2000.00
02958              66.00    -2200.00
02959              44.00    -2400.00
02960            -126.00    -2400.00
02961              -6.00    -2400.00
02962             102.00    -2400.00
02963             -18.00    -2400.00
02964             -50.00    -2400.00
02965               8.00    -2600.00
02966               6.00    -2800.00
02967               8.00    -2600.00
02968               6.00    -2800.00
02969             -34.00    -2800.00
02970               0.00    -2800.00
02971              26.00    -2800.00
02972               0.00    -3000.00
02973             -18.00    -3000.00
02974              -6.00    -3000.00
02975               4.00    -3000.00
02976              10.00    -3200.00
02977              -2.00    -3000.00
02978             -18.00    -3200.00
02979               6.00    -3200.00
02980              16.00    -3200.00
02981             -14.00    -3200.00
02982             -18.00    -3200.00
02983              14.00    -3200.00
02984              10.00    -3200.00
02985              -2.00    -3400.00
02986              -6.00    -3400.00
02987              -6.00    -3600.00
02988              -6.00    -3400.00
02989               0.00    -3600.00
02990               6.00    -3600.00
02991               0.00    -3600.00
02992              -2.00    -3600.00
02993              -6.00    -3600.00
02994               2.00    -3800.00
02995              -6.00    -3600.00
02996              -8.00    -3800.00
02997               2.00    -3600.00
02998               2.00    -3800.00
02999              -6.00    -3800.00
03000              -6.00    -3800.00
03001               0.00    -4000.00
03002              -2.00    -3800.00
03003              -2.00    -3800.00
03004              -2.00    -3800.00
03005               0.00    -3800.00
03006               0.00    -3800.00
03007              -8.00    -3800.00
03008              -2.00    -3800.00
03009              -2.00    -4000.00
03010              -6.00    -4000.00
03011               0.00    -3800.00
03012               0.00    -4000.00
03013              -2.00    -4000.00
03014              -6.00    -4000.00
03015              -2.00    -4000.00
03016              -6.00    -3800.00
03017               0.00    -4000.00
03018               0.00    -4000.00
03019               0.00    -4000.00
03020              -2.00    -4000.00
03021              -8.00    -4000.00
03022              -6.00    -4000.00
03023               0.00    -3800.00
03024               0.00    -4000.00
03025               2.00    -4000.00
03026               2.00    -3800.00
03027              -2.00    -4000.00
03028              -6.00    -4000.00
03029              -4.00    -3800.00
03030               0.00    -3800.00
03031              -2.00    -3800.00
03032               0.00    -4000.00
03033               0.00    -3800.00
03034              -2.00    -3800.00
03035              -2.00    -3800.00
03036              -2.00    -3800.00
03037               2.00    -3600.00
03038               6.00    -3800.00
03039              -2.00    -3800.00
03040              -2.00    -3600.00
03041              -2.00    -3600.00
03042              -6.00    -3600.00
03043              -2.00    -3800.00
03044               4.00    -3600.00
03045               0.00    -3600.00
03046               0.00    -3600.00
03047              -2.00    -3600.00
03048              -2.00    -3600.00
03049              -2.00    -3400.00
03050               0.00    -3400.00
03051               0.00    -3400.00
03052               0.00    -3400.00
03053              -2.00    -3200.00
03054              -2.00    -3200.00
03055               0.00    -3200.00
03056              -2.00    -3200.00
03057               0.00    -3000.00
03058               0.00    -3000.00
03059              -2.00    -3200.00
03060              -4.00    -3000.00
03061              -2.00    -3000.00
03062              -6.00    -2800.00
03063              -2.00    -3000.00
03064               0.00    -2800.00
03065               0.00    -2800.00
03066              -2.00    -2800.00
03067              -4.00    -2800.00
03068              -2.00    -2600.00
03069              -2.00    -2800.00
03070              -2.00    -2600.00
03071              -2.00    -2400.00
03072              -2.00    -2400.00
03073              -2.00    -2400.00
03074              -6.00    -2400.00
03075              -2.00    -2200.00
03076              -2.00    -2400.00
03077               0.00    -2200.00
03078               0.00    -2200.00
03079              -2.00    -2000.00
03080              -4.00    -2000.00
03081              -2.00    -2000.00
03082              -4.00    -2000.00
03083              -2.00    -1800.00
03084               0.00    -1600.00
03085              -2.00    -1600.00
03086              -2.00    -1600.00
03087              -2.00    -1600.00
03088              -6.00    -1400.00
03089              -2.00    -1400.00
03090               0.00    -1200.00
03091               0.00    -1000.00
03092               0.00    -1200.00
03093              -2.00    -1200.00
03094              -2.00    -1000.00
03095              -4.00     -800.00
03096              -2.00     -800.00
03097               0.00     -800.00
03098               0.00     -800.00
03099               0.00     -600.00
03100              -2.00     -600.00
03101              -2.00     -800.00
03102              -2.00     -600.00
03103              -2.00     -600.00
03104              -2.00     -200.00
03105              -2.00     -400.00
03106               0.00     -200.00
03107              -2.00     -200.00
03108              -2.00     -200.00
03109              -2.00        0.00
03110              -2.00        0.00
03111              -2.00        0.00
03112              -2.00      200.00
03113               2.00      200.00
03114               0.00      400.00
03115               2.00      400.00
03116               6.00      400.00
03117               6.00      400.00
03118              -2.00      400.00
03119              -6.00      600.00
03120              -2.00      600.00
03121              10.00      800.00
03122             108.00      800.00
03123             146.00      800.00
03124            -224.00      800.00
03125            -254.00      800.00
03126             192.00     1200.00
03127             246.00     1200.00
03128             -48.00     1200.00
03129            -254.00      800.00
03130             126.00     1600.00
03131             246.00     1600.00
03132            -254.00     1200.00
03133            -254.00     1400.00
03134             246.00     1800.00
03135             246.00     1600.00
03136            -254.00     1400.00
03137             -34.00     2000.00
03138             194.00     1800.00
03139            -122.00     1600.00
03140              14.00     1800.00
03141             128.00     2000.00
03142            -174.00     1800.00
03143              10.00     2000.00
03144             120.00     2200.00
03145            -108.00     2000.00
03146              18.00     2600.00
03147              62.00     2400.00
03148            -144.00     2400.00
03149              90.00     2600.00
03150              98.00     2400.00
03151            -208.00     2600.00
03152              36.00     2800.00
03153             154.00     2800.00
03154            -134.00     2800.00
03155             -10.00     2800.00
03156              72.00     3000.00
03157             -78.00     2800.00
03158              32.00     3000.00
03159              22.00     3200.00
03160             -70.00     3000.00
03161              42.00     3200.00
03162              -4.00     3200.00
03163             -46.00     3200.00
03164              54.00     3400.00
03165             -24.00     3200.00
03166             -40.00     3200.00
03167              46.00     3600.00
03168             -18.00     3400.00
03169             -30.00     3400.00
03170              36.00     3600.00
03171              -8.00     3600.00
03172             -26.00     3400.00
03173              -2.00     3800.00
03174               6.00     3600.00
03175               8.00     3600.00
03176              -2.00     3800.00
03177             -14.00     3800.00
03178               2.00     3600.00
03179              -2.00     4000.00
03180             -18.00     3800.00
03181               8.00     3800.00
03182              10.00     4000.00
03183             -18.00     4000.00
03184              -6.00     4000.00
03185              10.00     4000.00
03186             -16.00     4000.00
03187             -10.00     4200.00
03188               8.00     4200.00
03189              -4.00     4200.00
03190              -6.00     4200.00
03191              -8.00     4200.00
03192              -6.00     4000.00
03193               0.00     4200.00
03194             -10.00     4200.00
03195              -6.00     4200.00
03196               8.00     4200.00
03197             -10.00     4200.00
03198             -14.00     4200.00
03199               0.00     4200.00
03200              -6.00     4200.00
03201             -10.00     4200.00
03202               0.00     4200.00
03203              -2.00     4400.00
03204              -8.00     4200.00
03205              -8.00     4400.00
03206              -8.00     4400.00
03207              -2.00     4400.00
03208              -2.00     4200.00
03209              -6.00     4200.00
03210              -2.00     4200.00
03211              -6.00     4400.00
03212             -10.00     4400.00
03213              -6.00     4200.00
03214               0.00     4200.00
03215              -8.00     4200.00
03216              -2.00     4400.00
03217              -2.00     4400.00
03218              -8.00     4400.00
03219              -8.00     4200.00
03220              -2.00     4200.00
03221              -4.00     4200.00
03222              -4.00     4200.00
03223              -2.00     4200.00
03224              -6.00     4200.00
03225              -6.00     4000.00
03226              -8.00     4200.00
03227              -2.00     4200.00
03228              -2.00     4000.00
03229              -6.00     4000.00
03230              -2.00     4200.00
03231              -2.00     4000.00
03232              -8.00     4000.00
03233             -10.00     4000.00
03234              -2.00     4000.00
03235              -2.00     3800.00
03236              -2.00     4000.00
03237              -4.00     3800.00
03238              -8.00     4000.00
03239              -6.00     3800.00
03240              -6.00     3800.00
03241               0.00     3800.00
03242               2.00     3600.00
03243              -6.00     3600.00
03244             -10.00     3600.00
03245              -6.00     3600.00
03246              -8.00     3600.00
03247              -2.00     3600.00
03248               2.00     3600.00
03249               2.00     3400.00
03250             -10.00     3400.00
03251             -10.00     3200.00
03252              -2.00     3400.00
03253              -2.00     3200.00
03254              -2.00     3400.00
03255              -2.00     3200.00
03256               2.00     3200.00
03257              -8.00     3200.00
03258             -14.00     3000.00
03259               0.00     2800.00
03260               2.00     2800.00
03261              -2.00     2800.00
03262             -14.00     2800.00
03263             -14.00     2800.00
03264               0.00     2600.00
03265               6.00     2600.00
03266               2.00     2600.00
03267             -10.00     2600.00
03268             -16.00     2600.00
03269             -10.00     2400.00
03270              10.00     2400.00
03271               8.00     2200.00
03272              -8.00     2200.00
03273             -24.00     2200.00
03274             -14.00     2000.00
03275               0.00     2000.00
03276              10.00     1800.00
03277               2.00     2000.00
03278              -8.00     1800.00
03279             -16.00     1800.00
03280             -10.00     1600.00
03281              -2.00     1600.00
03282               0.00     1600.00
03283               0.00     1600.00
03284              -6.00     1600.00
03285              -8.00     1400.00
03286              -8.00     1400.00
03287              -2.00     1200.00
03288               6.00     1400.00
03289               0.00     1200.00
03290             -14.00     1200.00
03291             -10.00     1200.00
03292              -4.00     1000.00
03293               6.00     1000.00
03294               2.00      800.00
03295              -2.00      800.00
03296              -8.00      800.00
03297              -8.00      800.00
03298              -2.00      600.00
03299               2.00      600.00
03300               2.00      400.00
03301              -4.00      400.00
03302              -6.00      400.00
03303              -8.00      200.00
03304              -2.00      200.00
03305               2.00      200.00
03306               2.00      200.00
03307               6.00        0.00
03308               8.00        0.00
03309              -2.00        0.00
03310             -10.00        0.00
03311              -6.00     -200.00
03312               2.00     -400.00
03313              24.00     -400.00
03314             102.00     -400.00
03315             114.00     -600.00
03316            -186.00     -800.00
03317            -254.00     -600.00
03318             112.00     -400.00
03319             246.00     -800.00
03320              90.00     -800.00
03321            -254.00     -800.00
03322             -26.00     -800.00
03323             246.00    -1200.00
03324             -92.00    -1000.00
03325            -254.00    -1200.00
03326             136.00    -1400.00
03327             246.00    -1400.00
03328            -130.00    -1400.00
03329             -74.00    -1600.00
03330               2.00    -1600.00
03331             -82.00    -1400.00
03332             110.00    -1800.00
03333             142.00    -1600.00
03334            -188.00    -1600.00
03335             -88.00    -2000.00
03336             146.00    -2000.00
03337              18.00    -2000.00
03338             -54.00    -2000.00
03339             -30.00    -2200.00
03340             -24.00    -2000.00
03341              64.00    -2400.00
03342              54.00    -2400.00
03343            -126.00    -2200.00
03344             -16.00    -2400.00
03345              96.00    -2400.00
03346             -14.00    -2400.00
03347             -54.00    -2400.00
03348               8.00    -2800.00
03349               8.00    -2600.00
03350               8.00    -2600.00
03351               8.00    -2800.00
03352             -34.00    -2800.00
03353              -6.00    -2800.00
03354              26.00    -2800.00
03355               2.00    -2800.00
03356             -22.00    -3000.00
03357              -6.00    -3000.00
03358               0.00    -3000.00
03359               8.00    -3000.00
03360              -4.00    -3200.00
03361             -18.00    -3200.00
03362               6.00    -3200.00
03363              22.00    -3200.00
03364             -14.00    -3200.00
03365             -22.00    -3200.00
03366              10.00    -3200.00
03367               8.00    -3200.00
03368              -2.00    -3400.00
03369              -2.00    -3400.00
03370              -2.00    -3600.00
03371              -2.00    -3600.00
03372               0.00    -3600.00
03373               2.00    -3600.00
03374               2.00    -3600.00
03375              -6.00    -3600.00
03376              -4.00    -3600.00
03377               6.00    -3600.00
03378              -6.00    -3600.00
03379             -10.00    -3600.00
03380               8.00    -3800.00
03381               8.00    -3800.00
03382              -6.00    -3600.00
03383              -8.00    -3800.00
03384               0.00    -3800.00
03385               0.00    -3800.00
03386               0.00    -3800.00
03387               0.00    -4000.00
03388               2.00    -4000.00
03389              -2.00    -4000.00
03390              -6.00    -4000.00
03391              -6.00    -3800.00
03392               0.00    -4000.00
03393              -2.00    -4000.00
03394               0.00    -4000.00
03395               0.00    -4000.00
03396              -6.00    -4200.00
03397              -6.00    -4000.00
03398              -2.00    -4000.00
03399              -2.00    -4000.00
03400              -2.00    -4000.00
03401               0.00    -3800.00
03402               0.00    -4000.00
03403              -2.00    -4000.00
03404              -8.00    -3800.00
03405              -6.00    -4000.00
03406               0.00    -4000.00
03407               0.00    -4000.00
03408               0.00    -3800.00
03409               0.00    -4000.00
03410              -6.00    -4000.00
03411              -8.00    -4000.00
03412              -2.00    -3800.00
03413               0.00    -4000.00
03414               0.00    -3800.00
03415               0.00    -3800.00
03416              -2.00    -3800.00
03417              -6.00    -3800.00
03418              -2.00    -4000.00
03419              -2.00    -3600.00
03420               2.00    -3600.00
03421               2.00    -3800.00
03422              -2.00    -3600.00
03423              -2.00    -3600.00
03424               0.00    -3600.00
03425              -4.00    -3600.00
03426              -2.00    -3600.00
03427               2.00    -3600.00
03428               0.00    -3600.00
03429               0.00    -3600.00
03430              -2.00    -3400.00
03431              -2.00    -3600.00
03432              -2.00    -3400.00
03433               0.00    -3200.00
03434               0.00    -3200.00
03435               0.00    -3200.00
03436              -2.00    -3400.00
03437              -2.00    -3200.00
03438              -2.00    -3200.00
03439              -2.00    -3000.00
03440               0.00    -3200.00
03441               4.00    -3000.00
03442               0.00    -3000.00
03443              -2.00    -3000.00
03444              -2.00    -3000.00
03445              -6.00    -3000.00
03446              -4.00    -2800.00
03447               0.00    -2800.00
03448               0.00    -2800.00
03449               2.00    -2600.00
03450              -2.00    -2800.00
03451              -6.00    -2800.00
03452              -2.00    -2400.00
03453               0.00    -2400.00
03454               0.00    -2400.00
03455               0.00    -2400.00
03456              -2.00    -2400.00
03457              -6.00    -2400.00
03458              -4.00    -2200.00
03459               0.00    -2200.00
03460               0.00    -2200.00
03461               0.00    -2000.00
03462              -2.00    -2200.00
03463              -4.00    -2000.00
03464              -2.00    -2000.00
03465              -2.00    -2000.00
03466              -2.00    -2000.00
03467              -2.00    -1600.00
03468              -2.00    -1600.00
03469              -2.00    -1600.00
03470              -2.00    -1600.00
03471              -2.00    -1400.00
03472              -2.00    -1600.00
03473               0.00    -1200.00
03474              -2.00    -1000.00
03475              -2.00    -1200.00
03476              -6.00    -1000.00
03477              -6.00    -1200.00
03478              -2.00    -1000.00
03479              -2.00     -800.00
03480               0.00     -800.00
03481               0.00     -800.00
03482              -2.00     -800.00
03483              -2.00     -600.00
03484              -2.00     -600.00
03485              -2.00     -600.00
03486              -2.00     -400.00
03487              -2.00     -400.00
03488               0.00     -400.00
03489               0.00     -400.00
03490              -6.00     -200.00
03491              -4.00        0.00
03492              -2.00        0.00
03493               0.00        0.00
03494              -2.00        0.00
03495               0.00      200.00
03496               0.00      200.00
03497               0.00      400.00
03498               0.00      400.00
03499               6.00      400.00
03500               6.00      600.00
03501               0.00      400.00
03502              -6.00      600.00
03503               0.00      600.00
03504              10.00      800.00
03505             100.00      800.00
03506             152.00     1000.00
03507            -202.00      800.00
03508            -254.00      800.00
03509             160.00     1200.00
03510             246.00     1200.00
03511              10.00     1200.00
03512            -254.00      800.00
03513              78.00     1600.00
03514             246.00     1600.00
03515            -242.00     1200.00
03516            -254.00     1400.00
03517             246.00     1800.00
03518             246.00     1600.00
03519            -254.00     1400.00
03520             -62.00     1800.00
03521             204.00     1800.00
03522            -114.00     1600.00
03523               0.00     1800.00
03524             136.00     2000.00
03525            -170.00     1800.00
03526              -6.00     2000.00
03527             128.00     2400.00
03528            -104.00     2000.00
03529               6.00     2400.00
03530              70.00     2400.00
03531            -144.00     2200.00
03532              80.00     2600.00
03533             118.00     2600.00
03534            -202.00     2600.00
03535              16.00     2800.00
03536             158.00     2800.00
03537            -128.00     2600.00
03538             -20.00     3000.00
03539              80.00     2800.00
03540             -74.00     2800.00
03541              22.00     3200.00
03542              30.00     3000.00
03543             -74.00     3200.00
03544              40.00     3200.00
03545               4.00     3200.00
03546             -46.00     3200.00
03547              46.00     3400.00
03548             -26.00     3400.00
03549             -46.00     3400.00
03550              46.00     3600.00
03551             -10.00     3400.00
03552             -32.00     3400.00
03553              34.00     3600.00
03554              -2.00     3600.00
03555             -30.00     3400.00
03556              -8.00     3800.00
03557               0.00     3600.00
03558              10.00     3600.00
03559              -2.00     3600.00
03560             -16.00     3800.00
03561               0.00     3800.00
03562              -2.00     4000.00
03563             -16.00     4000.00
03564              10.00     3800.00
03565              14.00     4000.00
03566             -24.00     4000.00
03567             -10.00     4000.00
03568               6.00     4000.00
03569             -10.00     4200.00
03570              -2.00     4000.00
03571              12.00     4000.00
03572              -4.00     4000.00
03573             -10.00     4200.00
03574             -10.00     4200.00
03575              -2.00     4200.00
03576               8.00     4200.00
03577              -6.00     4200.00
03578              -8.00     4200.00
03579               0.00     4400.00
03580             -10.00     4400.00
03581             -10.00     4400.00
03582               6.00     4400.00
03583               0.00     4400.00
03584             -10.00     4200.00
03585              -2.00     4200.00
03586              -6.00     4200.00
03587              -8.00     4200.00
03588              -8.00     4200.00
03589              -8.00     4400.00
03590              -6.00     4200.00
03591              -2.00     4200.00
03592              -8.00     4200.00
03593              -2.00     4400.00
03594              -2.00     4400.00
03595             -10.00     4400.00
03596              -2.00     4400.00
03597               2.00     4200.00
03598              -8.00     4400.00
03599               0.00     4400.00
03600              -8.00     4400.00
03601             -18.00     4200.00
03602             -10.00     4200.00
03603               0.00     4200.00
03604               0.00     4200.00
03605               2.00     4000.00
03606              -8.00     4200.00
03607              -6.00     4200.00
03608              -6.00     4000.00
03609             -16.00     4000.00
03610              -8.00     4200.00
03611               2.00     4000.00
03612               2.00     4000.00
03613               0.00     4200.00
03614              -8.00     4000.00
03615             -14.00     4000.00
03616              -6.00     4000.00
03617               0.00     4000.00
03618              -4.00     4000.00
03619               0.00     3800.00
03620              -2.00     4000.00
03621              -6.00     3800.00
03622              -4.00     3800.00
03623              -8.00     3800.00
03624              -2.00     3800.00
03625               6.00     3600.00
03626              -2.00     3600.00
03627              -6.00     3600.00
03628              -6.00     3600.00
03629             -10.00     3600.00
03630              -8.00     3600.00
03631               6.00     3600.00
03632               6.00     3400.00
03633              -6.00     3200.00
03634              -8.00     3400.00
03635             -12.00     3400.00
03636              -8.00     3200.00
03637              -2.00     3200.00
03638               0.00     3200.00
03639               8.00     3200.00
03640               6.00     3200.00
03641             -10.00     3200.00
03642             -10.00     2800.00
03643              -8.00     2800.00
03644              -2.00     2800.00
03645               4.00     2800.00
03646               0.00     2800.00
03647              -8.00     2800.00
03648              -8.00     2600.00
03649              -6.00     2800.00
03650              -2.00     2400.00
03651               0.00     2400.00
03652              -2.00     2400.00
03653              -6.00     2400.00
03654              -6.00     2200.00
03655              -8.00     2200.00
03656              -4.00     2000.00
03657               0.00     2000.00
03658              -2.00     2000.00
03659              -6.00     2000.00
03660              -4.00     2000.00
03661              -2.00     1800.00
03662               0.00     1600.00
03663              -4.00     1600.00
03664              -6.00     1600.00
03665              -8.00     1600.00
03666              -8.00     1600.00
03667              -6.00     1600.00
03668              -2.00     1400.00
03669              -2.00     1200.00
03670              -2.00     1200.00
03671              -8.00     1200.00
03672              -6.00     1200.00
03673              -8.00     1200.00
03674              -6.00     1000.00
03675              -2.00     1000.00
03676              -2.00     1000.00
03677              -6.00      800.00
03678              -2.00      800.00
03679              -2.00      800.00
03680              -6.00      800.00
03681              -4.00      400.00
03682              -2.00      800.00
03683               0.00      400.00
03684              -2.00      400.00
03685              -4.00      400.00
03686              -8.00      200.00
03687              -2.00      200.00
03688               0.00      200.00
03689               2.00      200.00
03690               6.00        0.00
03691               8.00        0.00
03692               0.00        0.00
03693              -8.00        0.00
03694              -6.00     -200.00
03695               0.00     -400.00
03696              16.00     -400.00
03697              96.00     -400.00
03698             124.00     -600.00
03699            -160.00     -800.00
03700            -254.00     -600.00
03701              72.00     -400.00
03702             246.00     -600.00
03703             142.00     -800.00
03704            -254.00     -800.00
03705             -66.00     -800.00
03706             246.00    -1200.00
03707             -44.00    -1000.00
03708            -254.00    -1000.00
03709             102.00    -1200.00
03710             246.00    -1400.00
03711            -118.00    -1400.00
03712             -80.00    -1400.00
03713               4.00    -1600.00
03714             -86.00    -1400.00
03715              94.00    -1600.00
03716             152.00    -1800.00
03717            -178.00    -1600.00
03718            -100.00    -2000.00
03719             142.00    -2000.00
03720              30.00    -2000.00
03721             -50.00    -2000.00
03722             -30.00    -2200.00
03723             -26.00    -2000.00
03724              56.00    -2000.00
03725              58.00    -2400.00
03726            -122.00    -2200.00
03727             -24.00    -2200.00
03728              98.00    -2400.00
03729              -6.00    -2400.00
03730             -62.00    -2400.00
03731               2.00    -2800.00
03732               8.00    -2800.00
03733               8.00    -2800.00
03734              10.00    -2800.00
03735             -38.00    -2800.00
03736              -8.00    -2800.00
03737              26.00    -2800.00
03738               6.00    -3000.00
03739             -22.00    -3000.00
03740              -6.00    -3000.00
03741               0.00    -3000.00
03742               8.00    -3200.00
03743              -2.00    -3000.00
03744             -18.00    -3200.00
03745               2.00    -3200.00
03746              20.00    -3200.00
03747             -10.00    -3200.00
03748             -24.00    -3200.00
03749               6.00    -3400.00
03750              10.00    -3600.00
03751               0.00    -3400.00
03752              -6.00    -3400.00
03753              -6.00    -3600.00
03754              -8.00    -3600.00
03755               0.00    -3600.00
03756               2.00    -3600.00
03757               6.00    -3600.00
03758               0.00    -3600.00
03759              -2.00    -3800.00
03760               2.00    -3600.00
03761             -10.00    -3600.00
03762             -10.00    -3800.00
03763               6.00    -3800.00
03764               8.00    -3800.00
03765              -2.00    -3800.00
03766              -6.00    -3800.00
03767               0.00    -3800.00
03768               0.00    -3800.00
03769              -2.00    -4000.00
03770              -2.00    -3800.00
03771               4.00    -3800.00
03772               2.00    -3800.00
03773              -2.00    -4000.00
03774              -2.00    -3800.00
03775              -2.00    -3800.00
03776              -4.00    -4000.00
03777               0.00    -3800.00
03778               2.00    -3800.00
03779              -2.00    -4000.00
03780              -4.00    -4000.00
03781              -2.00    -4000.00
03782               0.00    -3800.00
03783               0.00    -4000.00
03784               2.00    -4000.00
03785               0.00    -4000.00
03786              -4.00    -3800.00
03787              -6.00    -4000.00
03788              -2.00    -4000.00
03789               2.00    -3800.00
03790               0.00    -3800.00
03791              -2.00    -4000.00
03792              -2.00    -4000.00
03793              -6.00    -3800.00
03794              -4.00    -3800.00
03795               0.00    -4000.00
03796               2.00    -4000.00
03797               0.00    -3800.00
03798              -2.00    -4000.00
03799              -6.00    -3800.00
03800              -6.00    -3800.00
03801              -6.00    -3800.00
03802               0.00    -3800.00
03803               6.00    -3800.00
03804               0.00    -3600.00
03805              -6.00    -3800.00
03806              -6.00    -3800.00
03807              -4.00    -3600.00
03808              -2.00    -3600.00
03809               0.00    -3600.00
03810               4.00    -3400.00
03811               0.00    -3600.00
03812               0.00    -3400.00
03813              -2.00    -3600.00
03814              -2.00    -3200.00
03815              -6.00    -3400.00
03816               0.00    -3400.00
03817               0.00    -3200.00
03818               2.00    -3200.00
03819              -2.00    -3200.00
03820              -6.00    -3200.00
03821              -6.00    -3200.00
03822              -2.00    -3200.00
03823               2.00    -3200.00
03824               2.00    -3000.00
03825               0.00    -3000.00
03826              -2.00    -3000.00
03827              -2.00    -3000.00
03828              -2.00    -2800.00
03829               0.00    -2800.00
03830               0.00    -2800.00
03831               0.00    -2800.00
03832               0.00    -2800.00
03833              -2.00    -2800.00
03834              -2.00    -2400.00
03835              -2.00    -2600.00
03836               0.00    -2400.00
03837              -2.00    -2400.00
03838               0.00    -2400.00
03839               0.00    -2400.00
03840              -2.00    -2400.00
03841              -6.00    -2200.00
03842              -2.00    -2200.00
03843               2.00    -2200.00
03844               2.00    -2200.00
03845              -6.00    -2000.00
03846              -6.00    -2000.00
03847              -8.00    -2000.00
03848              -6.00    -1800.00
03849               0.00    -2000.00
03850               6.00    -1600.00
03851               2.00    -1600.00
03852               0.00    -1600.00
03853             -10.00    -1600.00
03854             -16.00    -1600.00
03855             -14.00    -1400.00
03856               6.00    -1400.00
03857              20.00    -1400.00
03858               0.00    -1000.00
03859             -24.00    -1200.00
03860             -18.00    -1000.00
03861               2.00    -1200.00
03862              16.00     -800.00
03863               6.00     -800.00
03864             -14.00     -800.00
03865             -18.00     -800.00
03866              -4.00     -600.00
03867               6.00     -600.00
03868               2.00     -600.00
03869               0.00     -400.00
03870             -10.00     -600.00
03871             -10.00     -400.00
03872               2.00     -400.00
03873               2.00     -200.00
03874               0.00        0.00
03875              -2.00        0.00
03876             -10.00        0.00
03877             -14.00        0.00
03878              -2.00      200.00
03879               8.00      200.00
03880              10.00      200.00
03881               0.00      400.00
03882             -10.00      400.00
03883              -6.00      400.00
03884               6.00      400.00
03885               8.00      400.00
03886               8.00      600.00
03887               0.00      800.00
03888              80.00     1000.00
03889             152.00     1000.00
03890            -170.00     1000.00
03891            -254.00      800.00
03892             120.00     1000.00
03893             246.00     1400.00
03894              74.00     1200.00
03895            -254.00      800.00
03896              22.00     1400.00
03897             246.00     1600.00
03898            -192.00     1200.00
03899            -254.00     1400.00
03900             246.00     1800.00
03901             246.00     1600.00
03902            -254.00     1400.00
03903             -86.00     1800.00
03904             210.00     2000.00
03905            -112.00     1800.00
03906             -12.00     2000.00
03907             150.00     2000.00
03908            -154.00     2000.00
03909             -16.00     2000.00
03910             128.00     2400.00
03911            -104.00     2000.00
03912             -10.00     2400.00
03913              78.00     2400.00
03914            -130.00     2400.00
03915              74.00     2600.00
03916             134.00     2600.00
03917            -202.00     2400.00
03918             -14.00     2800.00
03919             156.00     2800.00
03920            -120.00     2600.00
03921             -24.00     2800.00
03922              96.00     2800.00
03923             -64.00     2800.00
03924              14.00     3200.00
03925              24.00     3200.00
03926             -86.00     2800.00
03927              32.00     3200.00
03928              18.00     3200.00
03929             -38.00     3200.00
03930              54.00     3200.00
03931             -22.00     3400.00
03932             -60.00     3200.00
03933              40.00     3400.00
03934              -6.00     3400.00
03935             -32.00     3400.00
03936              32.00     3600.00
03937              -2.00     3600.00
03938             -26.00     3600.00
03939              -2.00     3600.00
03940               0.00     3600.00
03941               0.00     3800.00
03942              -8.00     3600.00
03943             -10.00     3800.00
03944              16.00     3800.00
03945               8.00     4000.00
03946             -22.00     3800.00
03947              -8.00     4000.00
03948               2.00     4000.00
03949             -16.00     4000.00
03950               4.00     4000.00
03951              22.00     4000.00
03952             -16.00     4000.00
03953             -22.00     4000.00
03954               2.00     4000.00
03955              -2.00     4000.00
03956              -2.00     4000.00
03957              -2.00     4200.00
03958              -2.00     4200.00
03959               6.00     4200.00
03960             -10.00     4200.00
03961              -8.00     4200.00
03962               6.00     4200.00
03963              -8.00     4200.00
03964             -10.00     4200.00
03965               4.00     4400.00
03966               0.00     4400.00
03967              -6.00     4400.00
03968               2.00     4200.00
03969              -2.00     4200.00
03970              -8.00     4200.00
03971              -6.00     4400.00
03972              -6.00     4200.00
03973               0.00     4200.00
03974              -2.00     4400.00
03975              -8.00     4200.00
03976              -2.00     4400.00
03977              -2.00     4200.00
03978             -14.00     4200.00
03979              -6.00     4200.00
03980               0.00     4400.00
03981              -6.00     4400.00
03982              -2.00     4400.00
03983              -2.00     4400.00
03984             -10.00     4200.00
03985             -10.00     4400.00
03986              -6.00     4200.00
03987              -2.00     4200.00
03988               0.00     4200.00
03989              -2.00     4200.00
03990              -6.00     4200.00
03991              -8.00     4200.00
03992             -14.00     4200.00
03993              -8.00     4200.00
03994               0.00     4000.00
03995               0.00     4200.00
03996              -2.00     4000.00
03997              -2.00     4000.00
03998             -10.00     4000.00
03999             -14.00     4000.00
04000              -6.00     4000.00
04001               0.00     4000.00
04002               0.00     4000.00
04003              -2.00     4000.00
04004              -6.00     3800.00
04005              -6.00     3800.00
04006              -6.00     3600.00
04007              -2.00     3800.00
04008              -2.00     3800.00
04009              -4.00     3600.00
04010              -8.00     3600.00
04011              -4.00     3600.00
04012              -6.00     3600.00
04013              -4.00     3600.00
04014              -2.00     3400.00
04015               0.00     3600.00
04016              -2.00     3400.00
04017              -2.00     3400.00
04018              -6.00     3400.00
04019              -4.00     3400.00
04020              -8.00     3200.00
04021              -6.00     3200.00
04022               0.00     3200.00
04023              -2.00     3200.00
04024              -8.00     3200.00
04025              -6.00     3000.00
04026              -4.00     3000.00
04027              -2.00     2800.00
04028              -6.00     2800.00
04029               0.00     2800.00
04030              -2.00     2800.00
04031              -2.00     2600.00
04032              -2.00     2600.00
04033              -2.00     2600.00
04034              -2.00     2400.00
04035              -4.00     2600.00
04036              -2.00     2400.00
04037              -2.00     2400.00
04038              -8.00     2400.00
04039              -6.00     2400.00
04040              -2.00     2000.00
04041              -2.00     2000.00
04042              -4.00     2000.00
04043              -2.00     2000.00
04044              -8.00     2000.00
04045              -8.00     1800.00
04046              -6.00     1800.00
04047              -2.00     1600.00
04048               0.00     1600.00
04049              -2.00     1600.00
04050              -8.00     1600.00
04051              -8.00     1600.00
04052              -8.00     1400.00
04053              -4.00     1200.00
04054               0.00     1200.00
04055              -2.00     1200.00
04056              -6.00     1200.00
04057              -8.00     1200.00
04058              -2.00     1000.00
04059              -2.00     1200.00
04060              -6.00      800.00
04061              -6.00      800.00
04062              -2.00      600.00
04063              -4.00      800.00
04064              -6.00      800.00
04065              -8.00      600.00
04066              -4.00      400.00
04067              -6.00      600.00
04068              -6.00      400.00
04069              -6.00      400.00
04070               0.00      200.00
04071               0.00      200.00
04072               2.00        0.00
04073               2.00        0.00
04074               2.00        0.00
04075              -4.00        0.00
04076              -8.00        0.00
04077               0.00     -400.00
04078               6.00     -400.00
04079              14.00     -400.00
04080              84.00     -400.00
04081             126.00     -800.00
04082            -138.00     -800.00
04083            -254.00     -600.00
04084              40.00     -400.00
04085             246.00     -800.00
04086             186.00    -1000.00
04087            -254.00     -800.00
04088            -116.00     -800.00
04089             246.00    -1200.00
04090               6.00    -1000.00
04091            -254.00    -1200.00
04092              70.00    -1200.00
04093             246.00    -1200.00
04094            -106.00    -1400.00
04095             -90.00    -1600.00
04096              10.00    -1600.00
04097             -82.00    -1400.00
04098              82.00    -1600.00
04099             166.00    -1800.00
04100            -170.00    -1600.00
04101            -112.00    -2000.00
04102             136.00    -2000.00
04103              40.00    -2000.00
04104             -56.00    -2000.00
04105             -26.00    -2400.00
04106             -26.00    -2000.00
04107              50.00    -2000.00
04108              66.00    -2400.00
04109            -118.00    -2200.00
04110             -32.00    -2400.00
04111              98.00    -2400.00
04112               2.00    -2400.00
04113             -58.00    -2400.00
04114               6.00    -2600.00
04115              10.00    -2800.00
04116               6.00    -2600.00
04117              10.00    -2800.00
04118             -34.00    -2800.00
04119             -12.00    -3000.00
04120              26.00    -2800.00
04121               6.00    -2800.00
04122             -20.00    -3000.00
04123              -8.00    -3000.00
04124               0.00    -3000.00
04125               8.00    -3200.00
04126              -2.00    -3200.00
04127             -18.00    -3200.00
04128               2.00    -3200.00
04129              20.00    -3200.00
04130             -10.00    -3200.00
04131             -24.00    -3200.00
04132               6.00    -3400.00
04133              10.00    -3400.00
04134              -2.00    -3200.00
04135              -6.00    -3400.00
04136              -6.00    -3600.00
04137              -2.00    -3600.00
04138               0.00    -3600.00
04139               2.00    -3600.00
04140               2.00    -3600.00
04141              -2.00    -3800.00
04142              -6.00    -3600.00
04143               0.00    -3800.00
04144              -2.00    -3600.00
04145              -8.00    -3800.00
04146               2.00    -3800.00
04147               6.00    -3800.00
04148              -6.00    -3600.00
04149              -6.00    -4000.00
04150               0.00    -3600.00
04151               0.00    -3800.00
04152              -2.00    -3800.00
04153               0.00    -3800.00
04154               2.00    -3800.00
04155               0.00    -4000.00
04156              -6.00    -3800.00
04157              -6.00    -4000.00
04158               0.00    -3800.00
04159              -2.00    -3800.00
04160               2.00    -4000.00
04161               4.00    -4000.00
04162              -2.00    -4000.00
04163              -6.00    -3800.00
04164               0.00    -4000.00
04165              -2.00    -3800.00
04166               0.00    -4000.00
04167               0.00    -3800.00
04168              -2.00    -4000.00
04169               0.00    -4000.00
04170              -6.00    -4000.00
04171              -2.00    -3800.00
04172               0.00    -4000.00
04173               0.00    -4000.00
04174              -2.00    -3800.00
04175               0.00    -4000.00
04176              -6.00    -3800.00
04177              -6.00    -4000.00
04178              -2.00    -4000.00
04179               0.00    -3800.00
04180               0.00    -3800.00
04181              -2.00    -3800.00
04182              -2.00    -4000.00
04183              -2.00    -3800.00
04184              -2.00    -3800.00
04185              -2.00    -3800.00
04186               0.00    -3600.00
04187               0.00    -3600.00
04188              -2.00    -3800.00
04189               0.00    -3600.00
04190              -2.00    -3800.00
04191              -6.00    -3600.00
04192              -2.00    -3600.00
04193               0.00    -3600.00
04194              -2.00    -3400.00
04195               0.00    -3600.00
04196              -6.00    -3600.00
04197              -6.00    -3400.00
04198              -2.00    -3200.00
04199               0.00    -3200.00
04200               0.00    -3400.00
04201              -2.00    -3200.00
04202              -2.00    -3200.00
04203              -6.00    -3200.00
04204              -2.00    -3000.00
04205               0.00    -3000.00
04206              -2.00    -3200.00
04207               0.00    -3000.00
04208              -2.00    -3000.00
04209              -6.00    -3000.00
04210              -6.00    -3000.00
04211               0.00    -2800.00
04212               0.00    -2800.00
04213               0.00    -2800.00
04214              -2.00    -2800.00
04215               0.00    -3000.00
04216              -2.00    -2600.00
04217              -2.00    -2400.00
04218              -4.00    -2400.00
04219              -2.00    -2600.00
04220               0.00    -2400.00
04221               2.00    -2400.00
04222               2.00    -2400.00
04223              -2.00    -2400.00
04224              -6.00    -2200.00
04225              -4.00    -2200.00
04226              -2.00    -2200.00
04227               2.00    -2000.00
04228               0.00    -2000.00
04229              -6.00    -2200.00
04230              -6.00    -2000.00
04231              -2.00    -1800.00
04232               0.00    -1600.00
04233               0.00    -1600.00
04234              -4.00    -1600.00
04235              -6.00    -1600.00
04236              -6.00    -1600.00
04237              -6.00    -1400.00
04238              -2.00    -1400.00
04239              -2.00    -1400.00
04240               0.00    -1000.00
04241              -2.00    -1200.00
04242              -6.00    -1000.00
04243              -8.00    -1000.00
04244              -6.00    -1000.00
04245              -2.00     -800.00
04246               0.00     -800.00
04247              -2.00     -800.00
04248              -6.00     -800.00
04249              -8.00     -800.00
04250              -2.00     -600.00
04251              -4.00     -600.00
04252              -6.00     -600.00
04253              -4.00     -400.00
04254              -2.00     -400.00
04255              -6.00     -200.00
04256              -4.00        0.00
04257              -6.00     -200.00
04258              -2.00     -400.00
04259              -2.00        0.00
04260             -10.00        0.00
04261              -6.00      200.00
04262               2.00      200.00
04263               2.00      200.00
04264               0.00      400.00
04265               2.00      400.00
04266               6.00      400.00
04267              -2.00      400.00
04268              -6.00      600.00
04269              -6.00      400.00
04270               6.00      800.00
04271              88.00      800.00
04272             160.00     1000.00
04273            -152.00     1000.00
04274            -254.00      800.00
04275              86.00     1000.00
04276             246.00     1200.00
04277             128.00     1200.00
04278            -254.00      800.00
04279             -30.00     1200.00
04280             246.00     1600.00
04281            -130.00     1200.00
04282            -254.00     1400.00
04283             246.00     1800.00
04284             246.00     1600.00
04285            -254.00     1200.00
04286            -114.00     1800.00
04287             224.00     2000.00
04288             -96.00     1800.00
04289             -26.00     1800.00
04290             150.00     2000.00
04291            -146.00     2000.00
04292             -32.00     2000.00
04293             136.00     2200.00
04294             -86.00     2000.00
04295             -16.00     2400.00
04296              86.00     2200.00
04297            -138.00     2400.00
04298              48.00     2600.00
04299             146.00     2800.00
04300            -190.00     2600.00
04301             -22.00     2600.00
04302             174.00     2800.00
04303            -106.00     2600.00
04304             -42.00     2800.00
04305              88.00     3000.00
04306             -68.00     2800.00
04307               8.00     3000.00
04308              46.00     3200.00
04309             -72.00     3000.00
04310              30.00     3200.00
04311              14.00     3200.00
04312             -54.00     3200.00
04313              46.00     3200.00
04314              -4.00     3200.00
04315             -50.00     3200.00
04316              36.00     3600.00
04317              -8.00     3400.00
04318             -34.00     3400.00
04319              32.00     3600.00
04320               0.00     3600.00
04321             -32.00     3600.00
04322              -8.00     4000.00
04323               2.00     3600.00
04324               6.00     3800.00
04325               0.00     3600.00
04326             -16.00     3800.00
04327              -6.00     3600.00
04328              -2.00     3800.00
04329             -14.00     4000.00
04330               6.00     3800.00
04331              12.00     4000.00
04332             -24.00     3800.00
04333             -14.00     4000.00
04334              10.00     4000.00
04335              -8.00     4000.00
04336             -10.00     4000.00
04337              10.00     4200.00
04338              -4.00     4000.00
04339             -10.00     4000.00
04340              -8.00     4200.00
04341              -4.00     4200.00
04342               6.00     4200.00
04343             -10.00     4000.00
04344             -10.00     4400.00
04345              10.00     4400.00
04346               0.00     4400.00
04347             -14.00     4200.00
04348              -2.00     4400.00
04349              -8.00     4400.00
04350              -8.00     4200.00
04351               6.00     4400.00
04352               2.00     4200.00
04353             -10.00     4200.00
04354              -8.00     4400.00
04355              -6.00     4400.00
04356              -2.00     4200.00
04357              -2.00     4200.00
04358              -2.00     4400.00
04359               2.00     4400.00
04360               0.00     4400.00
04361             -10.00     4200.00
04362             -10.00     4400.00
04363               0.00     4200.00
04364               0.00     4200.00
04365               0.00     4400.00
04366               0.00     4400.00
04367             -10.00     4400.00
04368             -14.00     4400.00
04369              -6.00     4200.00
04370               0.00     4200.00
04371               0.00     4200.00
04372              -4.00     4200.00
04373              -8.00     4200.00
04374              -8.00     4200.00
04375             -10.00     4000.00
04376              -2.00     4200.00
04377               2.00     4200.00
04378              -2.00     4000.00
04379              -8.00     4200.00
04380              -8.00     4000.00
04381             -14.00     4000.00
04382             -10.00     4000.00
04383               0.00     4000.00
04384               2.00     4000.00
04385               0.00     4000.00
04386             -10.00     4000.00
04387             -10.00     4000.00
04388              -8.00     4000.00
04389              -2.00     3600.00
04390              -4.00     3600.00
04391              -6.00     3600.00
04392              -8.00     3800.00
04393              -8.00     3600.00
04394               0.00     3600.00
04395               0.00     3600.00
04396              -6.00     3600.00
04397              -6.00     3400.00
04398              -6.00     3400.00
04399              -6.00     3400.00
04400              -2.00     3400.00
04401              -2.00     3200.00
04402              -4.00     3200.00
04403              -6.00     3200.00
04404              -8.00     3200.00
04405              -2.00     3200.00
04406               0.00     3200.00
04407              -6.00     3000.00
04408               0.00     3000.00
04409              -2.00     2800.00
04410              -8.00     2800.00
04411             -10.00     2800.00
04412              -2.00     2800.00
04413              -2.00     2800.00
04414               0.00     2800.00
04415               0.00     2800.00
04416              -4.00     2600.00
04417              -6.00     2600.00
04418              -8.00     2400.00
04419              -2.00     2400.00
04420               0.00     2400.00
04421              -6.00     2400.00
04422              -6.00     2200.00
04423              -2.00     2000.00
04424              -6.00     2000.00
04425              -4.00     2000.00
04426              -2.00     2000.00
04427              -6.00     1800.00
04428              -6.00     1800.00
04429              -4.00     1800.00
04430              -2.00     1800.00
04431              -2.00     1600.00
04432              -8.00     1600.00
04433              -6.00     1400.00
04434              -4.00     1600.00
04435              -4.00     1400.00
04436              -8.00     1200.00
04437              -2.00     1200.00
04438              -6.00     1200.00
04439              -4.00     1200.00
04440              -6.00     1000.00
04441              -6.00     1000.00
04442              -6.00     1000.00
04443              -6.00      800.00
04444              -6.00      800.00
04445               0.00      800.00
04446              -6.00      600.00
04447              -6.00      800.00
04448              -8.00      400.00
04449              -6.00      400.00
04450              -2.00      400.00
04451              -6.00      400.00
04452              -6.00      200.00
04453              -2.00      400.00
04454               0.00        0.00
04455              -2.00        0.00
04456               0.00        0.00
04457               6.00     -200.00
04458               0.00        0.00
04459             -10.00        0.00
04460              -8.00     -400.00
04461               0.00     -400.00
04462              16.00     -400.00
04463              82.00     -600.00
04464             130.00     -600.00
04465            -120.00     -800.00
04466            -254.00     -600.00
04467               4.00     -400.00
04468             246.00     -800.00
04469             238.00    -1000.00
04470            -254.00     -800.00
04471            -166.00     -800.00
04472             246.00    -1200.00
04473              58.00    -1000.00
04474            -254.00    -1000.00
04475              38.00    -1200.00
04476             246.00    -1200.00
04477             -90.00    -1400.00
04478            -102.00    -1600.00
04479              12.00    -1600.00
04480             -82.00    -1400.00
04481              70.00    -1600.00
04482             176.00    -1600.00
04483            -154.00    -1600.00
04484            -120.00    -1800.00
04485             130.00    -2000.00
04486              56.00    -1800.00
04487             -56.00    -2000.00
04488             -30.00    -2200.00
04489             -32.00    -2000.00
04490              46.00    -2200.00
04491              72.00    -2200.00
04492            -106.00    -2200.00
04493             -40.00    -2200.00
04494              98.00    -2400.00
04495              10.00    -2400.00
04496             -64.00    -2400.00
04497               4.00    -2400.00
04498              10.00    -2600.00
04499              10.00    -2600.00
04500               8.00    -2600.00
04501             -38.00    -2800.00
04502             -14.00    -2800.00
04503              28.00    -2800.00
04504              10.00    -2800.00
04505             -18.00    -3000.00
04506              -8.00    -3000.00
04507               0.00    -3000.00
04508               8.00    -3000.00
04509               0.00    -3200.00
04510             -18.00    -3200.00
04511               0.00    -3200.00
04512              22.00    -3200.00
04513              -8.00    -3200.00
04514             -24.00    -3200.00
04515               6.00    -3200.00
04516               8.00    -3400.00
04517              -2.00    -3600.00
04518              -6.00    -3400.00
04519              -8.00    -3600.00
04520              -8.00    -3600.00
04521              -2.00    -3400.00
04522               2.00    -3600.00
04523               6.00    -3600.00
04524               0.00    -3600.00
04525              -6.00    -3600.00
04526               0.00    -3600.00
04527              -2.00    -3600.00
04528              -8.00    -3600.00
04529               4.00    -3600.00
04530               8.00    -3800.00
04531              -6.00    -3800.00
04532              -8.00    -3800.00
04533              -2.00    -3800.00
04534               0.00    -4000.00
04535               0.00    -3800.00
04536               0.00    -4000.00
04537               6.00    -3800.00
04538               2.00    -4000.00
04539              -4.00    -4000.00
04540              -4.00    -4000.00
04541               0.00    -3800.00
04542              -2.00    -4000.00
04543               2.00    -4000.00
04544               6.00    -4000.00
04545              -2.00    -4000.00
04546              -8.00    -4000.00
04547              -2.00    -3800.00
04548              -2.00    -3800.00
04549               0.00    -4000.00
04550               4.00    -4000.00
04551              -2.00    -4000.00
04552              -4.00    -4000.00
04553              -8.00    -4000.00
04554              -2.00    -4000.00
04555               2.00    -4000.00
04556               2.00    -3800.00
04557               0.00    -4000.00
04558               2.00    -3800.00
04559              -2.00    -3800.00
04560              -8.00    -3800.00
04561              -2.00    -3800.00
04562               0.00    -4000.00
04563               0.00    -3800.00
04564               0.00    -3800.00
04565               0.00    -3800.00
04566              -2.00    -4000.00
04567              -4.00    -3800.00
04568              -4.00    -3800.00
04569               0.00    -3800.00
04570               0.00    -3600.00
04571              -4.00    -3800.00
04572              -2.00    -3800.00
04573              -2.00    -3600.00
04574              -6.00    -3600.00
04575              -2.00    -3600.00
04576               2.00    -3600.00
04577              -2.00    -3600.00
04578              -2.00    -3400.00
04579              -2.00    -3600.00
04580              -6.00    -3600.00
04581              -6.00    -3400.00
04582               0.00    -3200.00
04583               0.00    -3400.00
04584               0.00    -3200.00
04585              -2.00    -3200.00
04586              -4.00    -3200.00
04587              -6.00    -3200.00
04588              -6.00    -3200.00
04589              -2.00    -3200.00
04590               0.00    -3200.00
04591              -2.00    -3000.00
04592              -4.00    -3000.00
04593              -2.00    -3000.00
04594              -2.00    -2800.00
04595              -2.00    -2800.00
04596               0.00    -2800.00
04597               0.00    -2800.00
04598              -2.00    -2800.00
04599              -4.00    -2800.00
04600              -6.00    -2600.00
04601              -2.00    -2400.00
04602               0.00    -2400.00
04603               0.00    -2400.00
04604               0.00    -2400.00
04605               0.00    -2400.00
04606              -2.00    -2200.00
04607               0.00    -2200.00
04608              -2.00    -2200.00
04609              -2.00    -2000.00
04610              -2.00    -2000.00
04611               0.00    -2000.00
04612              -2.00    -2000.00
04613              -2.00    -1800.00
04614              -2.00    -2000.00
04615               0.00    -1600.00
04616               0.00    -1600.00
04617               0.00    -1600.00
04618              -2.00    -1600.00
04619              -2.00    -1600.00
04620              -4.00    -1400.00
04621              -2.00    -1200.00
04622               0.00    -1400.00
04623              -2.00    -1200.00
04624               0.00    -1200.00
04625              -2.00    -1000.00
04626              -4.00    -1000.00
04627              -4.00    -1000.00
04628              -6.00     -800.00
04629              -2.00     -800.00
04630               0.00     -800.00
04631              -2.00     -800.00
04632              -6.00     -600.00
04633              -2.00     -600.00
04634              -6.00     -600.00
04635              -6.00     -400.00
04636               0.00     -400.00
04637               0.00     -400.00
04638              -2.00     -400.00
04639              -6.00        0.00
04640              -6.00     -200.00
04641              -2.00        0.00
04642               0.00        0.00
04643              -6.00        0.00
04644              -4.00      200.00
04645               0.00      200.00
04646               0.00      200.00
04647               0.00      400.00
04648               4.00      400.00
04649               6.00      400.00
04650               0.00      400.00
04651              -6.00      600.00
04652              -4.00      600.00
04653               6.00      800.00
04654              82.00      800.00
04655             166.00     1000.00
04656            -122.00     1000.00
04657            -254.00      800.00
04658              42.00     1000.00
04659             246.00     1200.00
04660             190.00     1200.00
04661            -254.00      800.00
04662             -86.00     1200.00
04663             246.00     1600.00
04664             -72.00     1400.00
04665            -254.00     1400.00
04666             240.00     1800.00
04667             246.00     1600.00
04668            -254.00     1600.00
04669            -144.00     1800.00
04670             224.00     2000.00
04671             -86.00     1800.00
04672             -40.00     1800.00
04673             154.00     2000.00
04674            -134.00     2000.00
04675             -50.00     2000.00
04676             142.00     2200.00
04677             -76.00     2000.00
04678             -26.00     2400.00
04679              94.00     2200.00
04680            -130.00     2400.00
04681              32.00     2600.00
04682             154.00     2600.00
04683            -178.00     2600.00
04684             -38.00     2600.00
04685             182.00     2800.00
04686             -90.00     2800.00
04687             -56.00     2800.00
04688              90.00     3200.00
04689             -64.00     2800.00
04690               0.00     3200.00
04691              50.00     3200.00
04692             -72.00     3200.00
04693              24.00     3200.00
04694              22.00     3200.00
04695             -54.00     3200.00
04696              42.00     3400.00
04697              -2.00     3400.00
04698             -54.00     3400.00
04699              38.00     3400.00
04700              -2.00     3400.00
04701             -38.00     3600.00
04702              30.00     3600.00
04703               6.00     3600.00
04704             -30.00     3400.00
04705              -8.00     3600.00
04706               0.00     3800.00
04707               6.00     3600.00
04708               0.00     3800.00
04709             -16.00     3800.00
04710               0.00     3800.00
04711               0.00     4000.00
04712             -18.00     3800.00
04713               0.00     4000.00
04714              14.00     4000.00
04715             -16.00     4000.00
04716             -14.00     4000.00
04717              14.00     4200.00
04718             -16.00     4000.00
04719             -16.00     4000.00
04720               8.00     4200.00
04721               0.00     4200.00
04722              -8.00     4200.00
04723              -6.00     4000.00
04724              -6.00     4200.00
04725               2.00     4200.00
04726              -8.00     4000.00
04727             -10.00     4200.00
04728              10.00     4200.00
04729              -4.00     4200.00
04730             -14.00     4200.00
04731               0.00     4200.00
04732              -2.00     4200.00
04733              -8.00     4400.00
04734               2.00     4200.00
04735               0.00     4400.00
04736              -6.00     4400.00
04737              -6.00     4400.00
04738              -6.00     4400.00
04739              -2.00     4400.00
04740               0.00     4400.00
04741              -6.00     4400.00
04742               0.00     4400.00
04743              -2.00     4400.00
04744             -10.00     4200.00
04745              -6.00     4400.00
04746               0.00     4200.00
04747              -6.00     4200.00
04748              -2.00     4200.00
04749               0.00     4400.00
04750              -6.00     4200.00
04751              -8.00     4200.00
04752              -2.00     4200.00
04753              -2.00     4200.00
04754              -2.00     4200.00
04755              -2.00     4200.00
04756              -4.00     4200.00
04757              -8.00     4200.00
04758              -8.00     4200.00
04759              -4.00     4200.00
04760               0.00     4200.00
04761              -6.00     4000.00
04762              -8.00     4000.00
04763               0.00     4000.00
04764              -4.00     4000.00
04765             -10.00     4000.00
04766              -8.00     4000.00
04767              -6.00     4000.00
04768               0.00     3800.00
04769               0.00     3800.00
04770              -4.00     4000.00
04771             -12.00     4000.00
04772             -14.00     3800.00
04773               0.00     3600.00
04774               6.00     3600.00
04775             -10.00     3600.00
04776             -16.00     3600.00
04777               0.00     3600.00
04778               6.00     3400.00
04779              -2.00     3400.00
04780             -16.00     3400.00
04781             -12.00     3600.00
04782              -2.00     3400.00
04783               6.00     3200.00
04784              -2.00     3400.00
04785              -8.00     3400.00
04786             -14.00     3200.00
04787             -12.00     3400.00
04788               0.00     3200.00
04789               8.00     3200.00
04790               0.00     3200.00
04791              -6.00     3000.00
04792             -10.00     3000.00
04793             -10.00     2800.00
04794             -10.00     2800.00
04795              -2.00     2800.00
04796               2.00     2800.00
04797               6.00     2600.00
04798              -6.00     2600.00
04799             -14.00     2600.00
04800             -10.00     2600.00
04801               2.00     2400.00
04802               2.00     2400.00
04803              -2.00     2400.00
04804             -14.00     2200.00
04805             -10.00     2000.00
04806               0.00     2400.00
04807               6.00     2200.00
04808               4.00     2000.00
04809              -2.00     2000.00
04810             -12.00     2000.00
04811             -14.00     2000.00
04812              -6.00     1800.00
04813               8.00     1600.00
04814               6.00     1600.00
04815              -2.00     1600.00
04816              -6.00     1600.00
04817              -8.00     1600.00
04818              -6.00     1600.00
04819              -2.00     1400.00
04820               0.00     1200.00
04821               0.00     1200.00
04822              -2.00     1200.00
04823              -2.00     1000.00
04824              -6.00     1000.00
04825              -8.00      800.00
04826              -4.00      800.00
04827              -2.00      800.00
04828               0.00      800.00
04829              -6.00      600.00
04830             -10.00      600.00
04831              -8.00      400.00
04832               0.00      400.00
04833               2.00      400.00
04834               0.00      400.00
04835              -8.00      200.00
04836              -6.00      200.00
04837               0.00      200.00
04838               0.00        0.00
04839               2.00        0.00
04840               8.00        0.00
04841               0.00     -200.00
04842              -8.00        0.00
04843              -8.00     -200.00
04844              -2.00     -400.00
04845              14.00     -600.00
04846              78.00     -400.00
04847             138.00     -600.00
04848             -98.00     -800.00
04849            -254.00     -800.00
04850             -42.00     -400.00
04851             246.00     -600.00
04852             246.00     -800.00
04853            -254.00     -800.00
04854            -208.00     -800.00
04855             246.00    -1200.00
04856             102.00    -1000.00
04857            -254.00    -1200.00
04858               2.00    -1200.00
04859             246.00    -1200.00
04860             -70.00    -1400.00
04861            -110.00    -1600.00
04862              10.00    -1600.00
04863             -88.00    -1400.00
04864              56.00    -1600.00
04865             186.00    -1600.00
04866            -138.00    -1600.00
04867            -132.00    -1800.00
04868             122.00    -2000.00
04869              64.00    -1800.00
04870             -60.00    -2000.00
04871             -32.00    -2200.00
04872             -28.00    -2000.00
04873              46.00    -2200.00
04874              80.00    -2400.00
04875            -104.00    -2400.00
04876             -50.00    -2200.00
04877              94.00    -2400.00
04878              18.00    -2400.00
04879             -64.00    -2400.00
04880               0.00    -2400.00
04881              14.00    -2400.00
04882              10.00    -2600.00
04883              16.00    -2800.00
04884             -32.00    -2800.00
04885             -18.00    -2800.00
04886              22.00    -3000.00
04887               8.00    -3000.00
04888             -16.00    -3000.00
04889              -6.00    -3200.00
04890              -2.00    -3000.00
04891               6.00    -3000.00
04892               0.00    -3000.00
04893             -16.00    -3200.00
04894               0.00    -3200.00
04895              18.00    -3200.00
04896             -10.00    -3200.00
04897             -30.00    -3200.00
04898               6.00    -3200.00
04899              14.00    -3200.00
04900               0.00    -3200.00
04901              -2.00    -3600.00
04902             -10.00    -3400.00
04903             -10.00    -3600.00
04904              -4.00    -3200.00
04905               2.00    -3600.00
04906               6.00    -3600.00
04907              -2.00    -3600.00
04908              -8.00    -3800.00
04909               0.00    -3800.00
04910              -6.00    -3600.00
04911              -8.00    -3800.00
04912               6.00    -3800.00
04913               8.00    -3800.00
04914              -6.00    -3800.00
04915              -8.00    -3600.00
04916               0.00    -4000.00
04917               0.00    -3800.00
04918              -2.00    -4000.00
04919              -2.00    -3800.00
04920               2.00    -4000.00
04921               0.00    -3800.00
04922              -2.00    -3800.00
04923              -6.00    -3800.00
04924              -2.00    -4000.00
04925              -6.00    -4000.00
04926               2.00    -3800.00
04927               6.00    -4000.00
04928              -2.00    -4000.00
04929              -6.00    -4000.00
04930               0.00    -3800.00
04931               0.00    -4000.00
04932              -2.00    -4000.00
04933               0.00    -4000.00
04934               0.00    -3800.00
04935               0.00    -4000.00
04936              -2.00    -3800.00
04937              -2.00    -4000.00
04938              -2.00    -4000.00
04939               0.00    -4000.00
04940              -2.00    -4000.00
04941               2.00    -4000.00
04942               0.00    -4000.00
04943              -2.00    -3800.00
04944              -2.00    -4000.00
04945              -2.00    -3800.00
04946               0.00    -4000.00
04947               2.00    -3800.00
04948               0.00    -3800.00
04949              -2.00    -3800.00
04950              -6.00    -3800.00
04951              -2.00    -3800.00
04952               0.00    -3800.00
04953               2.00    -3800.00
04954              -2.00    -3600.00
04955               0.00    -3600.00
04956              -2.00    -3800.00
04957              -6.00    -3600.00
04958              -6.00    -3600.00
04959               2.00    -3600.00
04960              -2.00    -3600.00
04961               0.00    -3600.00
04962              -6.00    -3600.00
04963              -6.00    -3400.00
04964              -2.00    -3600.00
04965              -2.00    -3400.00
04966               0.00    -3200.00
04967               0.00    -3200.00
04968              -6.00    -3400.00
04969              -6.00    -3400.00
04970              -6.00    -3200.00
04971              -2.00    -3000.00
04972              -2.00    -3000.00
04973               2.00    -3000.00
04974              -2.00    -3000.00
04975              -2.00    -3000.00
04976              -6.00    -3000.00
04977              -6.00    -3000.00
04978              -2.00    -3000.00
04979               0.00    -2800.00
04980               0.00    -3000.00
04981              -6.00    -2800.00
04982              -2.00    -2800.00
04983              -2.00    -2800.00
04984              -2.00    -2600.00
04985               0.00    -2600.00
04986               0.00    -2400.00
04987              -2.00    -2400.00
04988              -2.00    -2400.00
04989              -6.00    -2400.00
04990              -2.00    -2400.00
04991               0.00    -2200.00
04992               0.00    -2200.00
04993              -2.00    -2000.00
04994              -2.00    -2000.00
04995              -2.00    -2000.00
04996              -2.00    -2000.00
04997              -2.00    -2000.00
04998              -2.00    -1800.00
04999               0.00    -1600.00
05000               0.00    -1600.00
