Unit:(mV)
                     CH1         CH2
Frequency              ? 261.057 kHz
00001               6.00    -3000.00
00002               6.00    -2800.00
00003               0.00    -2800.00
00004               0.00    -2600.00
00005               0.00    -2800.00
00006               6.00    -2600.00
00007               2.00    -2600.00
00008               6.00    -2400.00
00009               2.00    -2400.00
00010               0.00    -2400.00
00011               0.00    -2200.00
00012               0.00    -2200.00
00013               2.00    -2000.00
00014               2.00    -2000.00
00015               2.00    -2000.00
00016               0.00    -2000.00
00017               0.00    -2000.00
00018               0.00    -1800.00
00019               0.00    -1800.00
00020               0.00    -1800.00
00021               2.00    -1600.00
00022               2.00    -1600.00
00023              -2.00    -1600.00
00024              -2.00    -1400.00
00025              -6.00    -1400.00
00026               0.00    -1400.00
00027               2.00    -1400.00
00028               0.00    -1000.00
00029               2.00    -1200.00
00030               0.00    -1000.00
00031              -2.00    -1000.00
00032              -2.00     -800.00
00033               0.00     -800.00
00034               2.00     -800.00
00035               0.00     -800.00
00036              -2.00     -600.00
00037              -2.00     -600.00
00038              -2.00     -600.00
00039              -2.00     -400.00
00040               0.00     -400.00
00041               6.00     -200.00
00042              -2.00     -200.00
00043              -6.00        0.00
00044              -6.00        0.00
00045               2.00        0.00
00046               6.00        0.00
00047               0.00        0.00
00048              -8.00      200.00
00049              -6.00      200.00
00050               4.00      200.00
00051               6.00      400.00
00052               8.00      400.00
00053               6.00      400.00
00054              -4.00      400.00
00055              -8.00      400.00
00056              -2.00      600.00
00057               2.00      800.00
00058              48.00      800.00
00059             172.00     1000.00
00060               6.00     1000.00
00061            -254.00      800.00
00062            -214.00     1000.00
00063             246.00     1200.00
00064             246.00     1200.00
00065            -254.00      800.00
00066            -254.00     1200.00
00067             246.00     1600.00
00068             246.00     1400.00
00069            -254.00     1200.00
00070             -56.00     1600.00
00071             246.00     1800.00
00072            -146.00     1400.00
00073            -254.00     1600.00
00074             194.00     2000.00
00075               8.00     1800.00
00076            -114.00     1800.00
00077             144.00     2000.00
00078             -46.00     2000.00
00079            -146.00     2000.00
00080             130.00     2400.00
00081              -2.00     2200.00
00082             -90.00     2400.00
00083              96.00     2400.00
00084            -102.00     2400.00
00085             -70.00     2600.00
00086             196.00     2600.00
00087             -98.00     2400.00
00088            -154.00     2800.00
00089             178.00     2800.00
00090             -14.00     2600.00
00091            -134.00     2800.00
00092              78.00     3200.00
00093             -26.00     2800.00
00094             -40.00     3000.00
00095              70.00     3200.00
00096             -64.00     3000.00
00097             -24.00     3200.00
00098              32.00     3200.00
00099             -64.00     3200.00
00100              18.00     3400.00
00101              30.00     3400.00
00102             -74.00     3400.00
00103               8.00     3400.00
00104              18.00     3600.00
00105             -50.00     3600.00
00106               8.00     3600.00
00107              14.00     3600.00
00108             -38.00     3400.00
00109             -22.00     3600.00
00110              -6.00     3800.00
00111               0.00     3800.00
00112              -2.00     4000.00
00113             -22.00     4000.00
00114             -10.00     4000.00
00115              -2.00     4000.00
00116             -26.00     4000.00
00117             -20.00     4000.00
00118              10.00     4000.00
00119             -10.00     3800.00
00120             -24.00     4000.00
00121               2.00     4200.00
00122             -14.00     4000.00
00123             -30.00     4000.00
00124              -2.00     4200.00
00125              -6.00     4200.00
00126             -10.00     4200.00
00127             -16.00     4200.00
00128             -16.00     4200.00
00129              -8.00     4200.00
00130             -12.00     4200.00
00131             -22.00     4200.00
00132               0.00     4200.00
00133             -10.00     4400.00
00134             -26.00     4200.00
00135             -14.00     4400.00
00136              -6.00     4400.00
00137             -16.00     4200.00
00138             -14.00     4400.00
00139             -10.00     4400.00
00140             -16.00     4400.00
00141             -18.00     4400.00
00142             -16.00     4400.00
00143             -10.00     4400.00
00144             -10.00     4200.00
00145             -16.00     4400.00
00146             -16.00     4400.00
00147             -10.00     4400.00
00148             -16.00     4400.00
00149             -16.00     4400.00
00150             -10.00     4200.00
00151             -14.00     4400.00
00152             -10.00     4400.00
00153             -10.00     4200.00
00154             -18.00     4400.00
00155             -18.00     4200.00
00156             -10.00     4200.00
00157              -8.00     4400.00
00158             -12.00     4200.00
00159             -14.00     4200.00
00160             -14.00     4200.00
00161             -16.00     4400.00
00162             -16.00     4200.00
00163             -14.00     4200.00
00164              -6.00     4200.00
00165             -12.00     4200.00
00166             -18.00     4000.00
00167             -14.00     4200.00
00168             -10.00     4000.00
00169             -14.00     4200.00
00170             -10.00     4000.00
00171             -10.00     4000.00
00172             -10.00     4000.00
00173             -14.00     4000.00
00174             -14.00     4000.00
00175             -10.00     4000.00
00176             -10.00     4000.00
00177             -12.00     3600.00
00178              -8.00     3800.00
00179             -10.00     3600.00
00180             -10.00     3600.00
00181             -14.00     3800.00
00182             -10.00     3600.00
00183             -10.00     3600.00
00184             -14.00     3400.00
00185              -8.00     3400.00
00186             -10.00     3400.00
00187             -10.00     3200.00
00188             -12.00     3400.00
00189             -10.00     3400.00
00190             -10.00     3200.00
00191             -10.00     3200.00
00192             -10.00     3200.00
00193              -8.00     3200.00
00194             -10.00     3000.00
00195             -16.00     3000.00
00196             -12.00     2800.00
00197             -10.00     3000.00
00198              -6.00     2800.00
00199             -10.00     2800.00
00200             -14.00     2800.00
00201             -16.00     2800.00
00202             -10.00     2600.00
00203              -8.00     2600.00
00204              -6.00     2600.00
00205              -4.00     2600.00
00206              -2.00     2400.00
00207             -16.00     2400.00
00208             -22.00     2400.00
00209             -22.00     2400.00
00210              -6.00     2000.00
00211              10.00     2200.00
00212               6.00     2000.00
00213             -16.00     2000.00
00214             -26.00     2000.00
00215             -10.00     1800.00
00216               8.00     1800.00
00217               6.00     1800.00
00218             -12.00     1600.00
00219             -22.00     1600.00
00220             -16.00     1600.00
00221              -6.00     1600.00
00222               0.00     1600.00
00223               0.00     1400.00
00224               2.00     1200.00
00225              -6.00     1200.00
00226             -10.00     1200.00
00227             -10.00     1000.00
00228              -2.00     1200.00
00229               0.00     1000.00
00230              -8.00      800.00
00231             -14.00      800.00
00232              -8.00      800.00
00233              -2.00      800.00
00234               4.00      800.00
00235               6.00      600.00
00236              -8.00      600.00
00237             -16.00      400.00
00238             -12.00      400.00
00239              -6.00      400.00
00240               6.00      400.00
00241              10.00      200.00
00242               4.00      200.00
00243               0.00        0.00
00244               0.00        0.00
00245              -6.00        0.00
00246              -8.00        0.00
00247               0.00        0.00
00248              12.00     -200.00
00249              16.00     -200.00
00250              48.00     -400.00
00251             138.00     -600.00
00252               0.00     -800.00
00253            -254.00     -800.00
00254            -254.00     -400.00
00255             246.00     -800.00
00256             246.00     -800.00
00257            -254.00    -1200.00
00258            -254.00     -600.00
00259             246.00    -1200.00
00260             246.00    -1000.00
00261            -254.00    -1000.00
00262            -210.00    -1200.00
00263             246.00    -1400.00
00264              58.00    -1400.00
00265            -154.00    -1400.00
00266               0.00    -1600.00
00267             -70.00    -1600.00
00268              -8.00    -1600.00
00269             218.00    -1800.00
00270             -40.00    -1600.00
00271            -202.00    -1600.00
00272              50.00    -2000.00
00273             126.00    -2000.00
00274             -40.00    -2000.00
00275             -26.00    -2200.00
00276             -38.00    -2200.00
00277              14.00    -2000.00
00278             106.00    -2400.00
00279             -54.00    -2400.00
00280            -106.00    -2200.00
00281              72.00    -2400.00
00282              74.00    -2400.00
00283             -58.00    -2400.00
00284             -10.00    -2400.00
00285              12.00    -2800.00
00286               8.00    -2800.00
00287              16.00    -2800.00
00288             -12.00    -2800.00
00289             -24.00    -2800.00
00290              22.00    -2800.00
00291              30.00    -2800.00
00292              -6.00    -3000.00
00293             -10.00    -3000.00
00294              -2.00    -3000.00
00295              14.00    -3200.00
00296              10.00    -3200.00
00297              -6.00    -3200.00
00298             -10.00    -3000.00
00299              24.00    -3200.00
00300              18.00    -3200.00
00301             -16.00    -3200.00
00302              -8.00    -3400.00
00303              18.00    -3400.00
00304              14.00    -3200.00
00305               6.00    -3600.00
00306               6.00    -3400.00
00307              -8.00    -3600.00
00308               2.00    -3600.00
00309              16.00    -3600.00
00310               6.00    -3600.00
00311               0.00    -3800.00
00312               2.00    -3600.00
00313              12.00    -3600.00
00314              14.00    -3800.00
00315               0.00    -3800.00
00316               2.00    -3600.00
00317              16.00    -3800.00
00318               8.00    -3800.00
00319              -2.00    -3800.00
00320               4.00    -3800.00
00321              10.00    -3800.00
00322               6.00    -3800.00
00323               8.00    -3800.00
00324              12.00    -4000.00
00325               6.00    -4000.00
00326               0.00    -4000.00
00327               0.00    -4000.00
00328               8.00    -4000.00
00329              10.00    -4000.00
00330               2.00    -3800.00
00331               6.00    -4000.00
00332               8.00    -4000.00
00333               4.00    -4000.00
00334               0.00    -4000.00
00335               6.00    -4000.00
00336               6.00    -4000.00
00337               8.00    -4000.00
00338              10.00    -4000.00
00339               6.00    -4000.00
00340               0.00    -4000.00
00341               0.00    -4000.00
00342               6.00    -4000.00
00343              10.00    -4000.00
00344               8.00    -4000.00
00345               6.00    -4000.00
00346               2.00    -4000.00
00347               0.00    -4000.00
00348               2.00    -4000.00
00349              10.00    -4000.00
00350              10.00    -3800.00
00351               6.00    -3800.00
00352               2.00    -4000.00
00353               2.00    -3800.00
00354               6.00    -3800.00
00355               8.00    -3800.00
00356               8.00    -3800.00
00357               8.00    -3800.00
00358               2.00    -3800.00
00359               4.00    -3600.00
00360               6.00    -3800.00
00361               6.00    -3600.00
00362               4.00    -3600.00
00363               8.00    -3600.00
00364               6.00    -3600.00
00365               8.00    -3600.00
00366               6.00    -3400.00
00367               6.00    -3400.00
00368               4.00    -3400.00
00369               6.00    -3400.00
00370               6.00    -3400.00
00371               8.00    -3200.00
00372               2.00    -3200.00
00373               4.00    -3200.00
00374               4.00    -3200.00
00375               2.00    -3200.00
00376               8.00    -3200.00
00377               8.00    -3000.00
00378               6.00    -3000.00
00379               2.00    -3200.00
00380               0.00    -2800.00
00381               2.00    -2800.00
00382               6.00    -2800.00
00383               8.00    -2800.00
00384               6.00    -2800.00
00385               2.00    -2800.00
00386               2.00    -2600.00
00387               0.00    -2600.00
00388               4.00    -2600.00
00389               6.00    -2400.00
00390               6.00    -2600.00
00391               6.00    -2400.00
00392               2.00    -2400.00
00393              -2.00    -2400.00
00394               0.00    -2200.00
00395               0.00    -2200.00
00396               2.00    -2000.00
00397               8.00    -2000.00
00398               6.00    -2000.00
00399              -2.00    -2000.00
00400              -6.00    -2000.00
00401              -4.00    -1800.00
00402               6.00    -2000.00
00403              -6.00    -1600.00
00404              -6.00    -1800.00
00405              10.00    -1600.00
00406              10.00    -1600.00
00407              10.00    -1400.00
00408              -6.00    -1400.00
00409              -2.00    -1400.00
00410              -8.00    -1000.00
00411             -10.00    -1200.00
00412              -8.00    -1000.00
00413               8.00    -1000.00
00414              12.00    -1000.00
00415               6.00    -1000.00
00416              -8.00     -800.00
00417              -8.00     -800.00
00418               0.00     -800.00
00419               0.00     -600.00
00420               0.00     -600.00
00421              -2.00     -600.00
00422              -6.00     -600.00
00423              -8.00     -600.00
00424               2.00     -400.00
00425              10.00     -400.00
00426               6.00     -200.00
00427             -10.00        0.00
00428             -10.00        0.00
00429               0.00        0.00
00430               2.00        0.00
00431              -2.00      200.00
00432              -2.00      200.00
00433              -2.00      200.00
00434              -8.00      400.00
00435               0.00      400.00
00436              10.00      400.00
00437              14.00      400.00
00438               2.00      400.00
00439             -10.00      800.00
00440             -10.00      600.00
00441              34.00      800.00
00442             166.00     1000.00
00443              32.00     1000.00
00444            -254.00      800.00
00445            -254.00     1000.00
00446             246.00     1200.00
00447             246.00     1200.00
00448            -254.00      800.00
00449            -254.00     1200.00
00450             246.00     1600.00
00451             246.00     1600.00
00452            -254.00     1200.00
00453            -114.00     1600.00
00454             246.00     1800.00
00455             -96.00     1400.00
00456            -254.00     1600.00
00457             168.00     2000.00
00458              24.00     1800.00
00459            -120.00     1800.00
00460             142.00     2000.00
00461             -18.00     1800.00
00462            -166.00     2000.00
00463             112.00     2400.00
00464              10.00     2000.00
00465            -102.00     2200.00
00466             102.00     2600.00
00467             -80.00     2200.00
00468             -88.00     2600.00
00469             192.00     2600.00
00470             -78.00     2600.00
00471            -176.00     2600.00
00472             166.00     2800.00
00473               8.00     2600.00
00474            -136.00     2800.00
00475              76.00     3000.00
00476             -20.00     2800.00
00477             -56.00     3200.00
00478              68.00     3200.00
00479             -54.00     3200.00
00480             -26.00     3200.00
00481              40.00     3200.00
00482             -62.00     3200.00
00483               6.00     3400.00
00484              32.00     3400.00
00485             -72.00     3400.00
00486               6.00     3600.00
00487              24.00     3400.00
00488             -54.00     3400.00
00489               2.00     3600.00
00490              18.00     3600.00
00491             -32.00     3600.00
00492             -24.00     3600.00
00493              -8.00     3600.00
00494               0.00     3600.00
00495               0.00     3600.00
00496             -22.00     3800.00
00497             -18.00     3800.00
00498              -2.00     4000.00
00499             -18.00     4000.00
00500             -14.00     4000.00
00501              10.00     4000.00
00502             -14.00     4000.00
00503             -30.00     4000.00
00504               0.00     4200.00
00505             -10.00     4000.00
00506             -26.00     4000.00
00507              -2.00     4000.00
00508              -2.00     4200.00
00509             -12.00     4000.00
00510             -14.00     4200.00
00511             -18.00     4200.00
00512              -8.00     4200.00
00513             -10.00     4400.00
00514             -22.00     4200.00
00515               0.00     4200.00
00516              -4.00     4400.00
00517             -22.00     4400.00
00518             -12.00     4400.00
00519              -6.00     4400.00
00520             -16.00     4200.00
00521             -10.00     4200.00
00522              -8.00     4400.00
00523             -10.00     4400.00
00524             -16.00     4200.00
00525             -16.00     4400.00
00526             -16.00     4200.00
00527              -8.00     4400.00
00528             -10.00     4200.00
00529             -12.00     4400.00
00530              -8.00     4400.00
00531             -16.00     4200.00
00532             -18.00     4200.00
00533             -10.00     4400.00
00534             -14.00     4200.00
00535             -10.00     4400.00
00536              -6.00     4200.00
00537             -16.00     4200.00
00538             -18.00     4200.00
00539             -14.00     4200.00
00540             -10.00     4200.00
00541             -10.00     4200.00
00542             -14.00     4000.00
00543             -10.00     4200.00
00544             -14.00     4200.00
00545             -16.00     4200.00
00546             -16.00     4200.00
00547              -8.00     4000.00
00548             -10.00     4000.00
00549             -16.00     4000.00
00550             -14.00     4000.00
00551             -10.00     4000.00
00552             -14.00     4000.00
00553             -10.00     4000.00
00554              -8.00     4000.00
00555             -14.00     4000.00
00556             -16.00     4000.00
00557             -10.00     4000.00
00558              -8.00     3600.00
00559             -10.00     4000.00
00560             -14.00     4000.00
00561              -8.00     3600.00
00562              -8.00     3600.00
00563             -10.00     3800.00
00564             -10.00     3600.00
00565             -10.00     3600.00
00566             -16.00     3400.00
00567             -12.00     3600.00
00568              -8.00     3600.00
00569              -8.00     3400.00
00570             -10.00     3400.00
00571             -14.00     3400.00
00572             -10.00     3200.00
00573             -10.00     3200.00
00574              -8.00     3200.00
00575              -6.00     3200.00
00576              -6.00     3200.00
00577             -10.00     3000.00
00578             -14.00     3000.00
00579             -10.00     3000.00
00580             -10.00     3000.00
00581              -6.00     3000.00
00582              -4.00     2800.00
00583              -6.00     2800.00
00584             -10.00     2800.00
00585             -10.00     2800.00
00586             -10.00     2400.00
00587              -8.00     2600.00
00588             -10.00     2600.00
00589             -10.00     2400.00
00590             -10.00     2400.00
00591             -10.00     2400.00
00592             -10.00     2400.00
00593              -8.00     2200.00
00594              -6.00     2200.00
00595             -10.00     2000.00
00596              -8.00     2000.00
00597              -6.00     2000.00
00598              -8.00     1800.00
00599             -10.00     1800.00
00600              -8.00     1800.00
00601              -8.00     1600.00
00602              -4.00     1600.00
00603              -8.00     1600.00
00604              -6.00     1600.00
00605              -8.00     1400.00
00606             -10.00     1200.00
00607              -8.00     1200.00
00608              -6.00     1400.00
00609              -2.00     1200.00
00610              -6.00     1000.00
00611              -8.00     1000.00
00612              -8.00     1000.00
00613              -6.00      800.00
00614              -8.00      800.00
00615              -2.00      800.00
00616              -4.00      800.00
00617              -6.00      800.00
00618             -10.00      400.00
00619              -6.00      600.00
00620              -6.00      400.00
00621              -6.00      400.00
00622              -6.00      400.00
00623              -4.00      200.00
00624               0.00      200.00
00625               0.00        0.00
00626               0.00        0.00
00627               8.00        0.00
00628               6.00        0.00
00629              -2.00        0.00
00630              -8.00     -200.00
00631               0.00     -200.00
00632               6.00     -400.00
00633              46.00     -400.00
00634             146.00     -400.00
00635              24.00     -800.00
00636            -254.00     -800.00
00637            -254.00     -400.00
00638             246.00     -800.00
00639             246.00     -800.00
00640            -254.00    -1200.00
00641            -254.00     -600.00
00642             246.00    -1200.00
00643             246.00    -1000.00
00644            -254.00    -1200.00
00645            -250.00    -1200.00
00646             246.00    -1200.00
00647              88.00    -1200.00
00648            -150.00    -1400.00
00649               2.00    -1600.00
00650             -62.00    -1400.00
00651             -26.00    -1600.00
00652             210.00    -1600.00
00653             -14.00    -1600.00
00654            -206.00    -1800.00
00655              38.00    -2000.00
00656             138.00    -2000.00
00657             -38.00    -2000.00
00658             -30.00    -2200.00
00659             -42.00    -2200.00
00660               6.00    -2000.00
00661             110.00    -2200.00
00662             -36.00    -2400.00
00663            -112.00    -2200.00
00664              64.00    -2400.00
00665              80.00    -2600.00
00666             -58.00    -2600.00
00667             -18.00    -2600.00
00668              14.00    -2600.00
00669              10.00    -2800.00
00670              20.00    -2800.00
00671             -10.00    -2800.00
00672             -30.00    -2800.00
00673              18.00    -2800.00
00674              30.00    -3000.00
00675              -6.00    -2800.00
00676             -10.00    -3000.00
00677              -2.00    -3000.00
00678              12.00    -3000.00
00679              14.00    -3200.00
00680             -10.00    -3200.00
00681             -10.00    -3000.00
00682              24.00    -3200.00
00683              16.00    -3200.00
00684             -22.00    -3200.00
00685              -2.00    -3200.00
00686              20.00    -3600.00
00687              12.00    -3400.00
00688               0.00    -3600.00
00689               0.00    -3600.00
00690              -2.00    -3400.00
00691               6.00    -3600.00
00692               8.00    -3400.00
00693              10.00    -3600.00
00694               6.00    -3600.00
00695               0.00    -3600.00
00696               8.00    -3800.00
00697               8.00    -3800.00
00698              -2.00    -3800.00
00699               4.00    -3600.00
00700              14.00    -3800.00
00701               6.00    -3800.00
00702              -2.00    -3800.00
00703               6.00    -3800.00
00704              10.00    -4000.00
00705              10.00    -3800.00
00706               6.00    -4000.00
00707               6.00    -3800.00
00708               8.00    -4000.00
00709               6.00    -3800.00
00710               6.00    -4000.00
00711               8.00    -4000.00
00712               6.00    -3800.00
00713               8.00    -4000.00
00714              10.00    -4000.00
00715               8.00    -4000.00
00716               2.00    -3800.00
00717               0.00    -4000.00
00718               6.00    -4000.00
00719               6.00    -4000.00
00720               6.00    -4000.00
00721               6.00    -4000.00
00722               6.00    -3800.00
00723               6.00    -4000.00
00724               6.00    -4000.00
00725               8.00    -4000.00
00726               8.00    -4000.00
00727               6.00    -4000.00
00728               6.00    -3800.00
00729               6.00    -4000.00
00730               0.00    -4000.00
00731               2.00    -4000.00
00732              10.00    -3800.00
00733               8.00    -3800.00
00734               2.00    -3800.00
00735               6.00    -3800.00
00736               8.00    -3800.00
00737               2.00    -3800.00
00738               2.00    -3800.00
00739              10.00    -3800.00
00740              10.00    -3800.00
00741               4.00    -3800.00
00742               6.00    -3800.00
00743               2.00    -3800.00
00744               0.00    -3600.00
00745               2.00    -3600.00
00746              16.00    -3600.00
00747              14.00    -3600.00
00748               6.00    -3600.00
00749              -6.00    -3400.00
00750              -8.00    -3600.00
00751               8.00    -3600.00
00752              16.00    -3400.00
00753              10.00    -3400.00
00754               2.00    -3400.00
00755              -2.00    -3400.00
00756              -2.00    -3200.00
00757               6.00    -3200.00
00758              10.00    -3200.00
00759              10.00    -3200.00
00760               6.00    -3200.00
00761              -6.00    -3000.00
00762              -4.00    -3000.00
00763              10.00    -3000.00
00764              22.00    -2800.00
00765              12.00    -2800.00
00766              -6.00    -2800.00
00767             -10.00    -2800.00
00768               0.00    -2800.00
00769              14.00    -2800.00
00770              14.00    -2400.00
00771               2.00    -2600.00
00772              -6.00    -2400.00
00773               0.00    -2800.00
00774               6.00    -2400.00
00775               6.00    -2400.00
00776               0.00    -2400.00
00777               2.00    -2400.00
00778               8.00    -2000.00
00779               2.00    -2200.00
00780              -2.00    -2200.00
00781               0.00    -2200.00
00782               6.00    -2000.00
00783               6.00    -2000.00
00784               0.00    -2000.00
00785              -2.00    -2000.00
00786               2.00    -1800.00
00787               2.00    -1600.00
00788               6.00    -1600.00
00789               0.00    -1600.00
00790              -6.00    -1400.00
00791              -8.00    -1400.00
00792              -2.00    -1400.00
00793               4.00    -1400.00
00794               6.00    -1000.00
00795               0.00    -1000.00
00796              -6.00    -1200.00
00797              -6.00    -1000.00
00798              -4.00     -800.00
00799               2.00     -800.00
00800               4.00     -800.00
00801               0.00     -600.00
00802             -10.00     -800.00
00803             -10.00     -600.00
00804              -6.00     -600.00
00805               0.00     -600.00
00806               6.00     -400.00
00807               2.00     -400.00
00808               0.00     -400.00
00809             -10.00     -200.00
00810             -12.00     -200.00
00811              -6.00        0.00
00812               2.00        0.00
00813               6.00        0.00
00814               0.00      200.00
00815              -2.00      200.00
00816              -2.00      200.00
00817              -2.00      400.00
00818               0.00      400.00
00819               6.00      400.00
00820               0.00      400.00
00821             -10.00      400.00
00822              -6.00      600.00
00823               0.00      800.00
00824              42.00      800.00
00825             166.00     1000.00
00826              48.00     1000.00
00827            -254.00     1000.00
00828            -254.00      800.00
00829             246.00     1200.00
00830             246.00     1200.00
00831            -254.00     1000.00
00832            -254.00     1200.00
00833             246.00     1600.00
00834             246.00     1600.00
00835            -254.00     1200.00
00836            -174.00     1600.00
00837             246.00     1800.00
00838             -50.00     1400.00
00839            -254.00     1600.00
00840             154.00     2000.00
00841              52.00     2000.00
00842            -134.00     1800.00
00843             128.00     2000.00
00844               8.00     2000.00
00845            -170.00     2000.00
00846             108.00     2400.00
00847              24.00     2000.00
00848            -112.00     2200.00
00849              96.00     2600.00
00850             -62.00     2200.00
00851            -104.00     2400.00
00852             190.00     2600.00
00853             -56.00     2400.00
00854            -194.00     2600.00
00855             154.00     2800.00
00856              32.00     2600.00
00857            -142.00     2800.00
00858              70.00     3000.00
00859              -6.00     2800.00
00860             -64.00     2800.00
00861              64.00     3200.00
00862             -50.00     3200.00
00863             -38.00     3000.00
00864              46.00     3200.00
00865             -56.00     3200.00
00866               2.00     3400.00
00867              40.00     3400.00
00868             -74.00     3200.00
00869              -4.00     3400.00
00870              26.00     3400.00
00871             -52.00     3600.00
00872              -2.00     3600.00
00873              18.00     3600.00
00874             -32.00     3600.00
00875             -24.00     3800.00
00876              -8.00     3600.00
00877              -2.00     3600.00
00878               0.00     3800.00
00879             -22.00     3800.00
00880             -16.00     3800.00
00881              -2.00     4000.00
00882             -22.00     4000.00
00883             -18.00     4000.00
00884               6.00     4000.00
00885             -10.00     4000.00
00886             -26.00     4000.00
00887               2.00     4200.00
00888              -8.00     4000.00
00889             -26.00     4000.00
00890              -6.00     4200.00
00891              -2.00     4200.00
00892             -14.00     4200.00
00893             -10.00     4200.00
00894             -16.00     4200.00
00895              -8.00     4200.00
00896             -10.00     4200.00
00897             -22.00     4200.00
00898              -2.00     4400.00
00899               0.00     4400.00
00900             -22.00     4200.00
00901             -14.00     4400.00
00902              -8.00     4400.00
00903             -16.00     4200.00
00904             -10.00     4400.00
00905              -6.00     4400.00
00906             -14.00     4400.00
00907             -12.00     4400.00
00908             -14.00     4200.00
00909             -16.00     4400.00
00910             -10.00     4400.00
00911             -14.00     4200.00
00912             -10.00     4400.00
00913              -2.00     4200.00
00914             -16.00     4400.00
00915             -24.00     4400.00
00916             -14.00     4200.00
00917             -14.00     4200.00
00918              -6.00     4400.00
00919              -6.00     4200.00
00920             -18.00     4200.00
00921             -24.00     4200.00
00922             -14.00     4200.00
00923              -6.00     4200.00
00924              -6.00     4200.00
00925             -14.00     4200.00
00926             -16.00     4200.00
00927             -18.00     4200.00
00928             -16.00     4200.00
00929             -10.00     4200.00
00930              -6.00     4200.00
00931              -8.00     4000.00
00932             -18.00     4000.00
00933             -16.00     4200.00
00934             -10.00     4000.00
00935             -14.00     4000.00
00936             -14.00     4000.00
00937             -10.00     4000.00
00938             -10.00     3800.00
00939             -10.00     4000.00
00940             -10.00     4000.00
00941             -16.00     4000.00
00942             -16.00     3800.00
00943             -14.00     3600.00
00944              -6.00     3800.00
00945              -2.00     3800.00
00946             -10.00     3600.00
00947             -16.00     3600.00
00948             -18.00     3600.00
00949             -14.00     3400.00
00950              -8.00     3600.00
00951               0.00     3400.00
00952              -2.00     3400.00
00953             -14.00     3400.00
00954             -16.00     3400.00
00955             -14.00     3200.00
00956             -12.00     3400.00
00957              -8.00     3200.00
00958              -6.00     3200.00
00959              -6.00     3200.00
00960              -6.00     3200.00
00961             -16.00     3200.00
00962             -14.00     3000.00
00963             -14.00     3000.00
00964              -8.00     2800.00
00965              -2.00     2800.00
00966              -2.00     2600.00
00967             -14.00     2800.00
00968             -14.00     2600.00
00969             -10.00     2600.00
00970              -6.00     2600.00
00971              -6.00     2400.00
00972              -6.00     2400.00
00973              -8.00     2200.00
00974             -10.00     2400.00
00975             -14.00     2400.00
00976             -10.00     2200.00
00977              -6.00     2000.00
00978              -8.00     2000.00
00979              -8.00     2000.00
00980              -6.00     1800.00
00981             -10.00     2000.00
00982             -10.00     1800.00
00983              -8.00     1600.00
00984              -6.00     1600.00
00985              -8.00     1600.00
00986             -10.00     1600.00
00987             -10.00     1600.00
00988              -8.00     1400.00
00989              -6.00     1400.00
00990              -8.00     1200.00
00991              -6.00     1200.00
00992              -8.00     1200.00
00993              -8.00     1200.00
00994              -6.00     1000.00
00995              -6.00     1000.00
00996              -8.00     1000.00
00997              -8.00      800.00
00998              -6.00      800.00
00999              -6.00      600.00
01000              -8.00      800.00
01001              -8.00      400.00
01002              -2.00      400.00
01003               0.00      400.00
01004              -2.00      400.00
01005              -6.00      400.00
01006              -8.00        0.00
01007              -2.00      200.00
01008               0.00      200.00
01009               2.00        0.00
01010               8.00        0.00
01011               6.00     -200.00
01012              -8.00     -200.00
01013             -12.00     -200.00
01014              -2.00        0.00
01015              10.00     -400.00
01016              46.00     -400.00
01017             144.00     -400.00
01018              38.00     -800.00
01019            -254.00     -800.00
01020            -254.00     -600.00
01021             246.00     -600.00
01022             246.00     -800.00
01023            -254.00    -1200.00
01024            -254.00     -600.00
01025             246.00    -1000.00
01026             246.00    -1000.00
01027            -254.00    -1200.00
01028            -254.00    -1000.00
01029             246.00    -1400.00
01030             118.00    -1000.00
01031            -154.00    -1400.00
01032              -2.00    -1600.00
01033             -54.00    -1400.00
01034             -40.00    -1600.00
01035             202.00    -1600.00
01036              14.00    -1800.00
01037            -208.00    -1600.00
01038              24.00    -2000.00
01039             142.00    -2000.00
01040             -34.00    -2000.00
01041             -32.00    -2000.00
01042             -32.00    -2000.00
01043               8.00    -2000.00
01044             110.00    -2400.00
01045             -26.00    -2400.00
01046            -122.00    -2400.00
01047              56.00    -2400.00
01048              88.00    -2400.00
01049             -56.00    -2400.00
01050             -22.00    -2600.00
01051              16.00    -2600.00
01052              14.00    -2400.00
01053              18.00    -2800.00
01054              -8.00    -2800.00
01055             -32.00    -2800.00
01056              16.00    -2800.00
01057              32.00    -2800.00
01058              -2.00    -3000.00
01059             -14.00    -2800.00
01060              -6.00    -3000.00
01061              10.00    -3000.00
01062              16.00    -3000.00
01063              -2.00    -3200.00
01064             -12.00    -3200.00
01065              24.00    -3200.00
01066              16.00    -3200.00
01067             -24.00    -3200.00
01068             -10.00    -3200.00
01069              22.00    -3400.00
01070              14.00    -3200.00
01071               6.00    -3400.00
01072               6.00    -3600.00
01073              -2.00    -3600.00
01074               0.00    -3400.00
01075               8.00    -3600.00
01076               8.00    -3600.00
01077               8.00    -3600.00
01078               2.00    -3600.00
01079               8.00    -3600.00
01080               8.00    -3800.00
01081              -4.00    -3800.00
01082               2.00    -3800.00
01083              14.00    -3800.00
01084              10.00    -3800.00
01085               2.00    -3800.00
01086               6.00    -3800.00
01087               2.00    -3800.00
01088               6.00    -3800.00
01089               6.00    -4000.00
01090              10.00    -4000.00
01091              10.00    -4000.00
01092               8.00    -3800.00
01093               6.00    -4000.00
01094               6.00    -3800.00
01095               6.00    -4000.00
01096               8.00    -4000.00
01097              10.00    -4000.00
01098               8.00    -4000.00
01099               2.00    -4000.00
01100               0.00    -4000.00
01101               6.00    -4000.00
01102              12.00    -4000.00
01103              14.00    -4000.00
01104               8.00    -4000.00
01105               2.00    -4000.00
01106               0.00    -3800.00
01107               4.00    -3800.00
01108              14.00    -3800.00
01109              14.00    -4200.00
01110               8.00    -4000.00
01111               0.00    -4000.00
01112               0.00    -4000.00
01113               0.00    -4000.00
01114               6.00    -3800.00
01115              12.00    -4000.00
01116              10.00    -3800.00
01117               6.00    -3800.00
01118               2.00    -4000.00
01119               0.00    -3800.00
01120               0.00    -3800.00
01121               6.00    -3800.00
01122              10.00    -3800.00
01123              10.00    -3800.00
01124               2.00    -3800.00
01125               6.00    -3800.00
01126               6.00    -3600.00
01127               6.00    -3600.00
01128               4.00    -3800.00
01129               6.00    -3600.00
01130               6.00    -3600.00
01131               6.00    -3600.00
01132               2.00    -3600.00
01133               2.00    -3600.00
01134               2.00    -3400.00
01135               6.00    -3600.00
01136               6.00    -3400.00
01137               8.00    -3400.00
01138               6.00    -3200.00
01139               4.00    -3200.00
01140               2.00    -3200.00
01141               0.00    -3200.00
01142               2.00    -3200.00
01143               8.00    -3200.00
01144               6.00    -3000.00
01145               2.00    -3000.00
01146               0.00    -3000.00
01147               2.00    -3000.00
01148               2.00    -2800.00
01149               4.00    -2800.00
01150               6.00    -2800.00
01151               6.00    -2800.00
01152               0.00    -2800.00
01153               0.00    -2800.00
01154               6.00    -2800.00
01155               2.00    -2400.00
01156               6.00    -2600.00
01157               2.00    -2400.00
01158               6.00    -2400.00
01159               0.00    -2400.00
01160               0.00    -2200.00
01161               0.00    -2200.00
01162               2.00    -2200.00
01163               6.00    -2000.00
01164               2.00    -2200.00
01165               0.00    -2000.00
01166               0.00    -2200.00
01167               0.00    -2000.00
01168               0.00    -1800.00
01169               6.00    -1800.00
01170               2.00    -1600.00
01171               2.00    -1600.00
01172               0.00    -1600.00
01173               0.00    -1400.00
01174               0.00    -1400.00
01175               0.00    -1400.00
01176               0.00    -1400.00
01177               0.00    -1000.00
01178               0.00    -1000.00
01179               0.00    -1000.00
01180              -4.00    -1000.00
01181              -8.00    -1000.00
01182              -2.00     -800.00
01183               2.00     -800.00
01184               6.00     -800.00
01185               2.00     -800.00
01186              -2.00     -600.00
01187              -8.00     -800.00
01188              -8.00     -400.00
01189              -2.00     -400.00
01190               2.00     -400.00
01191               2.00     -200.00
01192              -2.00     -400.00
01193              -6.00     -200.00
01194             -10.00        0.00
01195              -2.00        0.00
01196              -2.00        0.00
01197              -2.00        0.00
01198               0.00      200.00
01199              -2.00      200.00
01200              -2.00      200.00
01201               0.00      400.00
01202               6.00      400.00
01203               0.00      400.00
01204             -10.00      400.00
01205              -4.00      400.00
01206               4.00      800.00
01207              34.00      800.00
01208             156.00      800.00
01209              62.00     1000.00
01210            -254.00      800.00
01211            -254.00     1000.00
01212             246.00     1200.00
01213             246.00     1600.00
01214            -254.00     1000.00
01215            -254.00     1200.00
01216             246.00     1600.00
01217             246.00     1400.00
01218            -254.00     1200.00
01219            -230.00     1600.00
01220             246.00     1800.00
01221              -6.00     1400.00
01222            -254.00     1600.00
01223             132.00     2000.00
01224              78.00     1800.00
01225            -138.00     1800.00
01226             112.00     2000.00
01227              26.00     2000.00
01228            -182.00     2000.00
01229              98.00     2200.00
01230              46.00     2400.00
01231            -116.00     2400.00
01232              88.00     2400.00
01233             -40.00     2600.00
01234            -118.00     2400.00
01235             182.00     2600.00
01236             -30.00     2600.00
01237            -202.00     2600.00
01238             144.00     2800.00
01239              54.00     2800.00
01240            -146.00     2800.00
01241              58.00     3000.00
01242               0.00     2800.00
01243             -72.00     3000.00
01244              64.00     3200.00
01245             -40.00     3200.00
01246             -42.00     3200.00
01247              48.00     3200.00
01248             -52.00     3200.00
01249              -8.00     3400.00
01250              46.00     3400.00
01251             -68.00     3200.00
01252              -8.00     3400.00
01253              30.00     3600.00
01254             -50.00     3400.00
01255              -8.00     3600.00
01256              22.00     3600.00
01257             -30.00     3600.00
01258             -26.00     3600.00
01259             -10.00     3800.00
01260              -2.00     3600.00
01261               0.00     3600.00
01262             -22.00     3600.00
01263             -16.00     3800.00
01264              -2.00     4000.00
01265             -18.00     3800.00
01266             -18.00     4000.00
01267               6.00     4000.00
01268             -10.00     4000.00
01269             -30.00     4000.00
01270               0.00     4000.00
01271              -6.00     4000.00
01272             -28.00     4000.00
01273              -6.00     4200.00
01274              -4.00     4200.00
01275             -14.00     4200.00
01276             -14.00     4200.00
01277             -16.00     4200.00
01278             -10.00     4200.00
01279             -10.00     4200.00
01280             -20.00     4200.00
01281              -6.00     4200.00
01282               0.00     4400.00
01283             -22.00     4200.00
01284             -16.00     4200.00
01285              -8.00     4200.00
01286             -16.00     4200.00
01287             -10.00     4200.00
01288              -2.00     4400.00
01289             -14.00     4400.00
01290             -16.00     4400.00
01291             -16.00     4200.00
01292             -14.00     4400.00
01293              -6.00     4400.00
01294             -10.00     4400.00
01295             -14.00     4400.00
01296              -8.00     4400.00
01297             -16.00     4200.00
01298             -16.00     4400.00
01299             -10.00     4200.00
01300             -10.00     4400.00
01301              -8.00     4200.00
01302              -4.00     4400.00
01303             -16.00     4400.00
01304             -18.00     4400.00
01305             -14.00     4200.00
01306              -8.00     4400.00
01307             -10.00     4200.00
01308             -10.00     4200.00
01309             -14.00     4200.00
01310             -16.00     4200.00
01311             -22.00     4200.00
01312             -14.00     4000.00
01313              -2.00     4200.00
01314              -6.00     4200.00
01315             -16.00     4000.00
01316             -18.00     4200.00
01317             -16.00     4000.00
01318             -14.00     4000.00
01319              -8.00     4000.00
01320              -6.00     4000.00
01321             -10.00     3800.00
01322             -16.00     4000.00
01323             -16.00     4000.00
01324             -10.00     3800.00
01325             -14.00     3800.00
01326             -14.00     3600.00
01327             -10.00     3800.00
01328             -10.00     3600.00
01329             -14.00     3800.00
01330             -12.00     3600.00
01331             -14.00     3600.00
01332             -16.00     3600.00
01333             -14.00     3600.00
01334             -10.00     3400.00
01335              -8.00     3400.00
01336             -10.00     3400.00
01337             -14.00     3400.00
01338             -10.00     3400.00
01339             -10.00     3200.00
01340             -10.00     3200.00
01341              -8.00     3200.00
01342             -10.00     3200.00
01343             -10.00     3000.00
01344             -10.00     3200.00
01345             -10.00     3200.00
01346              -8.00     3000.00
01347             -10.00     2800.00
01348             -12.00     2800.00
01349             -10.00     2800.00
01350             -10.00     2800.00
01351              -8.00     2800.00
01352              -2.00     2600.00
01353              -6.00     2600.00
01354             -10.00     2600.00
01355             -10.00     2400.00
01356             -10.00     2400.00
01357             -10.00     2400.00
01358             -14.00     2400.00
01359              -8.00     2400.00
01360               0.00     2000.00
01361               0.00     2000.00
01362              -8.00     2000.00
01363             -14.00     1800.00
01364             -14.00     2000.00
01365             -10.00     1800.00
01366              -6.00     1800.00
01367               0.00     1600.00
01368              -6.00     1600.00
01369             -10.00     1600.00
01370             -10.00     1400.00
01371              -6.00     1400.00
01372              -8.00     1200.00
01373              -8.00     1400.00
01374              -8.00     1200.00
01375             -10.00     1200.00
01376              -6.00     1200.00
01377              -2.00     1000.00
01378              -6.00     1000.00
01379             -10.00     1000.00
01380             -10.00      800.00
01381              -4.00      800.00
01382               0.00      800.00
01383              -2.00      800.00
01384              -8.00      600.00
01385              -6.00      400.00
01386              -8.00      400.00
01387             -10.00      400.00
01388              -6.00      400.00
01389               0.00      400.00
01390               6.00      200.00
01391               0.00      200.00
01392              -6.00      200.00
01393               0.00        0.00
01394               4.00        0.00
01395              -2.00        0.00
01396              -6.00     -400.00
01397              -2.00     -200.00
01398               2.00     -400.00
01399              38.00     -400.00
01400             140.00     -400.00
01401              56.00     -800.00
01402            -254.00     -800.00
01403            -254.00     -400.00
01404             246.00     -600.00
01405             246.00     -800.00
01406            -254.00    -1200.00
01407            -254.00     -600.00
01408             246.00    -1000.00
01409             246.00    -1000.00
01410            -254.00    -1000.00
01411            -254.00    -1200.00
01412             246.00    -1200.00
01413             144.00    -1400.00
01414            -160.00    -1400.00
01415             -10.00    -1600.00
01416             -46.00    -1400.00
01417             -48.00    -1600.00
01418             198.00    -1600.00
01419              34.00    -1600.00
01420            -216.00    -1600.00
01421              10.00    -1800.00
01422             158.00    -2000.00
01423             -26.00    -2000.00
01424             -32.00    -2200.00
01425             -34.00    -2000.00
01426              -2.00    -2200.00
01427             112.00    -2200.00
01428             -16.00    -2400.00
01429            -138.00    -2200.00
01430              46.00    -2400.00
01431             104.00    -2400.00
01432             -34.00    -2400.00
01433             -18.00    -2400.00
01434               2.00    -2800.00
01435               8.00    -2400.00
01436              32.00    -2800.00
01437               2.00    -2800.00
01438             -48.00    -3000.00
01439              -2.00    -2800.00
01440              28.00    -2800.00
01441              16.00    -3000.00
01442               8.00    -3000.00
01443               0.00    -3200.00
01444               0.00    -3200.00
01445               2.00    -3000.00
01446              -6.00    -3200.00
01447              -6.00    -3000.00
01448              28.00    -3200.00
01449              16.00    -3200.00
01450             -18.00    -3400.00
01451              -8.00    -3400.00
01452              20.00    -3400.00
01453              14.00    -3400.00
01454               8.00    -3600.00
01455               2.00    -3600.00
01456              -2.00    -3600.00
01457              -2.00    -3600.00
01458               6.00    -3600.00
01459              14.00    -3600.00
01460               8.00    -3400.00
01461               0.00    -3800.00
01462               2.00    -3800.00
01463               8.00    -3800.00
01464               2.00    -3800.00
01465               6.00    -3800.00
01466              16.00    -3800.00
01467              10.00    -3800.00
01468              -4.00    -3800.00
01469              -6.00    -3800.00
01470               2.00    -4000.00
01471              12.00    -3800.00
01472              14.00    -3800.00
01473              14.00    -3800.00
01474               8.00    -4000.00
01475               0.00    -4000.00
01476               0.00    -4000.00
01477               8.00    -3800.00
01478               8.00    -4000.00
01479               6.00    -3800.00
01480              10.00    -4000.00
01481              10.00    -4000.00
01482               4.00    -4000.00
01483               4.00    -4000.00
01484               2.00    -4000.00
01485               8.00    -4000.00
01486              14.00    -4000.00
01487              10.00    -4000.00
01488               6.00    -3800.00
01489               2.00    -4000.00
01490               0.00    -4000.00
01491              10.00    -3800.00
01492              14.00    -4000.00
01493               6.00    -3800.00
01494               6.00    -3800.00
01495               6.00    -4000.00
01496               4.00    -4000.00
01497               2.00    -4000.00
01498               6.00    -4000.00
01499              16.00    -3800.00
01500              10.00    -3800.00
01501               0.00    -3800.00
01502              -6.00    -3800.00
01503               2.00    -3800.00
01504               8.00    -3800.00
01505              10.00    -3800.00
01506               6.00    -3800.00
01507               2.00    -3800.00
01508               8.00    -3800.00
01509               6.00    -3600.00
01510               0.00    -3800.00
01511              -6.00    -3600.00
01512               6.00    -3600.00
01513              16.00    -3400.00
01514              22.00    -3600.00
01515               6.00    -3600.00
01516             -14.00    -3600.00
01517             -22.00    -3600.00
01518               0.00    -3400.00
01519              24.00    -3200.00
01520              30.00    -3400.00
01521               8.00    -3400.00
01522              -8.00    -3200.00
01523             -14.00    -3200.00
01524              -8.00    -3200.00
01525               6.00    -3000.00
01526              18.00    -3000.00
01527              16.00    -3200.00
01528               2.00    -3200.00
01529              -6.00    -3000.00
01530              -2.00    -3000.00
01531               4.00    -2800.00
01532               6.00    -2800.00
01533               6.00    -2800.00
01534               6.00    -2800.00
01535               8.00    -2800.00
01536               6.00    -2800.00
01537               4.00    -2400.00
01538              -6.00    -2400.00
01539              -8.00    -2400.00
01540               0.00    -2400.00
01541              14.00    -2200.00
01542              18.00    -2400.00
01543               8.00    -2400.00
01544              -6.00    -2400.00
01545             -10.00    -2200.00
01546              -2.00    -2000.00
01547               8.00    -2000.00
01548              10.00    -2000.00
01549               6.00    -1600.00
01550              -2.00    -2000.00
01551              -6.00    -1800.00
01552               0.00    -1800.00
01553               0.00    -1600.00
01554               2.00    -1600.00
01555               2.00    -1600.00
01556               2.00    -1400.00
01557               2.00    -1400.00
01558               0.00    -1400.00
01559              -2.00    -1000.00
01560              -2.00    -1200.00
01561              -2.00    -1200.00
01562               0.00    -1000.00
01563               2.00    -1000.00
01564               6.00     -800.00
01565               0.00     -800.00
01566              -2.00    -1000.00
01567              -6.00     -800.00
01568              -4.00     -800.00
01569               0.00     -600.00
01570               0.00     -600.00
01571               0.00     -400.00
01572              -2.00     -400.00
01573              -2.00     -400.00
01574              -2.00     -200.00
01575              -2.00     -400.00
01576              -6.00        0.00
01577              -2.00        0.00
01578              -2.00        0.00
01579               0.00        0.00
01580              -2.00        0.00
01581              -4.00      200.00
01582              -8.00      400.00
01583              -6.00      200.00
01584               0.00      400.00
01585              12.00      400.00
01586               6.00      400.00
01587              -8.00      400.00
01588             -10.00      400.00
01589              -2.00      800.00
01590              26.00      800.00
01591             152.00     1000.00
01592              86.00     1000.00
01593            -254.00      800.00
01594            -254.00      800.00
01595             246.00     1200.00
01596             246.00     1200.00
01597            -254.00     1000.00
01598            -254.00     1200.00
01599             246.00     1600.00
01600             246.00     1600.00
01601            -254.00     1200.00
01602            -254.00     1600.00
01603             246.00     1800.00
01604              42.00     1600.00
01605            -254.00     1600.00
01606             106.00     2000.00
01607             104.00     1800.00
01608            -138.00     1800.00
01609              98.00     2000.00
01610              50.00     2000.00
01611            -192.00     2000.00
01612              82.00     2200.00
01613              62.00     2400.00
01614            -118.00     2200.00
01615              80.00     2600.00
01616             -26.00     2400.00
01617            -134.00     2400.00
01618             170.00     2600.00
01619              -2.00     2600.00
01620            -210.00     2600.00
01621             130.00     2800.00
01622              74.00     2800.00
01623            -152.00     2600.00
01624              48.00     3000.00
01625              14.00     2800.00
01626             -76.00     2800.00
01627              62.00     3200.00
01628             -30.00     3000.00
01629             -48.00     3200.00
01630              50.00     3200.00
01631             -46.00     3200.00
01632             -14.00     3400.00
01633              48.00     3400.00
01634             -66.00     3200.00
01635             -16.00     3400.00
01636              32.00     3400.00
01637             -50.00     3400.00
01638             -14.00     3600.00
01639              24.00     3600.00
01640             -26.00     3600.00
01641             -26.00     3600.00
01642             -10.00     3600.00
01643              -6.00     3600.00
01644               2.00     3600.00
01645             -18.00     3800.00
01646             -22.00     3600.00
01647              -2.00     3800.00
01648             -20.00     4000.00
01649             -24.00     4000.00
01650               6.00     4000.00
01651             -10.00     4000.00
01652             -32.00     4000.00
01653              -2.00     4200.00
01654              -6.00     4000.00
01655             -30.00     4000.00
01656             -10.00     4200.00
01657              -2.00     4200.00
01658             -10.00     4000.00
01659             -14.00     4200.00
01660             -16.00     4200.00
01661              -8.00     4200.00
01662             -10.00     4400.00
01663             -24.00     4200.00
01664              -6.00     4200.00
01665              -2.00     4200.00
01666             -22.00     4200.00
01667             -18.00     4200.00
01668              -8.00     4400.00
01669             -16.00     4400.00
01670             -10.00     4200.00
01671              -6.00     4400.00
01672             -10.00     4200.00
01673             -14.00     4400.00
01674             -14.00     4400.00
01675             -14.00     4200.00
01676             -10.00     4400.00
01677             -14.00     4400.00
01678             -16.00     4400.00
01679              -8.00     4400.00
01680             -14.00     4400.00
01681             -16.00     4400.00
01682              -8.00     4400.00
01683             -14.00     4200.00
01684             -10.00     4400.00
01685              -8.00     4200.00
01686             -14.00     4400.00
01687             -16.00     4200.00
01688             -12.00     4400.00
01689             -10.00     4400.00
01690             -10.00     4200.00
01691             -10.00     4200.00
01692             -10.00     4400.00
01693             -12.00     4200.00
01694             -16.00     4200.00
01695             -16.00     4400.00
01696              -8.00     4000.00
01697              -8.00     4200.00
01698             -16.00     4000.00
01699             -14.00     4200.00
01700             -14.00     4200.00
01701             -16.00     4000.00
01702             -14.00     4000.00
01703             -10.00     4000.00
01704             -10.00     4000.00
01705             -14.00     4000.00
01706             -10.00     4000.00
01707             -12.00     4000.00
01708             -14.00     3800.00
01709             -16.00     3800.00
01710             -10.00     3800.00
01711             -10.00     3600.00
01712             -14.00     3600.00
01713             -14.00     3600.00
01714             -14.00     3600.00
01715             -14.00     3600.00
01716             -14.00     3400.00
01717             -10.00     3400.00
01718              -8.00     3400.00
01719             -14.00     3400.00
01720             -12.00     3400.00
01721             -10.00     3400.00
01722             -14.00     3400.00
01723             -14.00     3200.00
01724             -10.00     3200.00
01725             -10.00     3200.00
01726             -10.00     3200.00
01727             -14.00     3200.00
01728             -10.00     3000.00
01729             -10.00     2800.00
01730             -10.00     2800.00
01731             -10.00     2800.00
01732              -8.00     2800.00
01733             -12.00     2600.00
01734              -8.00     2600.00
01735             -10.00     2600.00
01736              -6.00     2600.00
01737             -10.00     2600.00
01738              -8.00     2400.00
01739             -10.00     2400.00
01740              -8.00     2400.00
01741             -10.00     2200.00
01742              -8.00     2200.00
01743              -6.00     2000.00
01744              -8.00     2000.00
01745              -8.00     2000.00
01746              -6.00     2000.00
01747             -10.00     2000.00
01748             -10.00     1800.00
01749              -6.00     1800.00
01750              -6.00     1800.00
01751              -6.00     1600.00
01752              -8.00     1600.00
01753              -8.00     1600.00
01754              -6.00     1600.00
01755              -8.00     1400.00
01756              -6.00     1200.00
01757              -2.00     1200.00
01758              -4.00     1200.00
01759              -8.00     1200.00
01760             -10.00     1000.00
01761              -6.00     1000.00
01762              -8.00      800.00
01763              -6.00      800.00
01764              -2.00      800.00
01765              -2.00      800.00
01766              -4.00      600.00
01767             -10.00      600.00
01768              -6.00      400.00
01769              -2.00      400.00
01770              -2.00      400.00
01771              -8.00      200.00
01772              -6.00      400.00
01773               0.00        0.00
01774               0.00      200.00
01775               0.00        0.00
01776               6.00        0.00
01777               2.00        0.00
01778              -6.00        0.00
01779              -8.00     -200.00
01780               0.00     -200.00
01781               6.00     -400.00
01782              34.00     -400.00
01783             134.00     -400.00
01784              66.00     -800.00
01785            -254.00     -800.00
01786            -254.00     -600.00
01787             246.00     -600.00
01788             246.00     -800.00
01789            -232.00    -1000.00
01790            -254.00     -800.00
01791             246.00    -1000.00
01792             246.00    -1200.00
01793            -254.00    -1000.00
01794            -254.00    -1000.00
01795             246.00    -1400.00
01796             174.00    -1400.00
01797            -158.00    -1200.00
01798             -18.00    -1600.00
01799             -40.00    -1600.00
01800             -58.00    -1400.00
01801             190.00    -2000.00
01802              58.00    -1800.00
01803            -214.00    -1600.00
01804             -10.00    -2000.00
01805             154.00    -2000.00
01806             -18.00    -2000.00
01807             -32.00    -2000.00
01808             -38.00    -2200.00
01809              -8.00    -2000.00
01810             102.00    -2200.00
01811               8.00    -2400.00
01812            -122.00    -2200.00
01813              38.00    -2400.00
01814              98.00    -2600.00
01815             -46.00    -2400.00
01816             -30.00    -2400.00
01817              14.00    -2600.00
01818              16.00    -2600.00
01819              20.00    -2600.00
01820               2.00    -2800.00
01821             -34.00    -2800.00
01822              14.00    -2800.00
01823              32.00    -3000.00
01824               2.00    -2800.00
01825             -10.00    -3000.00
01826              -2.00    -3000.00
01827               6.00    -3000.00
01828              16.00    -3200.00
01829               0.00    -3200.00
01830              -8.00    -3200.00
01831              22.00    -3200.00
01832              16.00    -3400.00
01833             -18.00    -3200.00
01834             -10.00    -3200.00
01835              22.00    -3400.00
01836              12.00    -3400.00
01837               0.00    -3600.00
01838               0.00    -3600.00
01839               0.00    -3600.00
01840               4.00    -3600.00
01841              10.00    -3600.00
01842              10.00    -3600.00
01843               8.00    -3600.00
01844               0.00    -3600.00
01845               6.00    -3800.00
01846               8.00    -3600.00
01847              -2.00    -3800.00
01848               0.00    -3800.00
01849              14.00    -3800.00
01850               8.00    -3800.00
01851              -2.00    -3800.00
01852               2.00    -3800.00
01853               6.00    -3800.00
01854               4.00    -3800.00
01855               0.00    -4000.00
01856               6.00    -3800.00
01857              14.00    -4000.00
01858               8.00    -4000.00
01859               2.00    -4000.00
01860               2.00    -4000.00
01861               2.00    -3800.00
01862               6.00    -3800.00
01863              14.00    -4000.00
01864              10.00    -4000.00
01865               0.00    -4000.00
01866               0.00    -4000.00
01867               0.00    -4000.00
01868               6.00    -3800.00
01869              14.00    -4000.00
01870              10.00    -4000.00
01871               8.00    -4000.00
01872               0.00    -4000.00
01873              -2.00    -4000.00
01874               6.00    -4000.00
01875              14.00    -3800.00
01876              14.00    -3800.00
01877              10.00    -3800.00
01878               6.00    -4000.00
01879               0.00    -3800.00
01880               0.00    -4000.00
01881               6.00    -3800.00
01882              10.00    -3800.00
01883               8.00    -3800.00
01884               6.00    -3800.00
01885               6.00    -3800.00
01886               0.00    -3600.00
01887               6.00    -3800.00
01888              10.00    -3800.00
01889              10.00    -3600.00
01890               8.00    -3800.00
01891               6.00    -3600.00
01892               6.00    -3800.00
01893               2.00    -3600.00
01894               2.00    -3800.00
01895               6.00    -3600.00
01896               6.00    -3600.00
01897               8.00    -3600.00
01898               2.00    -3600.00
01899               6.00    -3600.00
01900               2.00    -3400.00
01901               2.00    -3600.00
01902               0.00    -3400.00
01903               2.00    -3400.00
01904               6.00    -3400.00
01905               6.00    -3200.00
01906              -2.00    -3200.00
01907              -2.00    -3200.00
01908               0.00    -3200.00
01909              10.00    -3000.00
01910              12.00    -3200.00
01911               4.00    -3000.00
01912              -6.00    -3000.00
01913              -6.00    -3000.00
01914               2.00    -3000.00
01915               8.00    -2800.00
01916               6.00    -2800.00
01917               2.00    -2800.00
01918              -2.00    -2800.00
01919               0.00    -2600.00
01920               6.00    -2600.00
01921               6.00    -2400.00
01922               6.00    -2400.00
01923               2.00    -2400.00
01924               2.00    -2600.00
01925               0.00    -2200.00
01926               0.00    -2400.00
01927               2.00    -2200.00
01928               2.00    -2200.00
01929               6.00    -2200.00
01930               2.00    -2000.00
01931               0.00    -2000.00
01932              -2.00    -2000.00
01933               0.00    -2000.00
01934               8.00    -1800.00
01935               6.00    -1600.00
01936               0.00    -1600.00
01937              -2.00    -1600.00
01938               0.00    -1600.00
01939               2.00    -1400.00
01940               0.00    -1400.00
01941               0.00    -1400.00
01942               0.00    -1000.00
01943               0.00    -1200.00
01944               2.00    -1200.00
01945               2.00    -1000.00
01946               0.00    -1000.00
01947              -6.00    -1000.00
01948              -8.00     -800.00
01949               0.00     -800.00
01950               6.00     -600.00
01951               8.00     -600.00
01952               0.00     -600.00
01953              -8.00     -600.00
01954              -4.00     -600.00
01955              -4.00     -400.00
01956               0.00     -400.00
01957               2.00     -400.00
01958               0.00     -200.00
01959              -8.00     -400.00
01960              -6.00        0.00
01961              -6.00        0.00
01962              -2.00        0.00
01963               0.00      200.00
01964               0.00      200.00
01965               0.00      200.00
01966              -2.00      200.00
01967              -6.00      400.00
01968               6.00      400.00
01969               4.00      400.00
01970              -2.00      400.00
01971              -6.00      600.00
01972              -2.00      600.00
01973              18.00      800.00
01974             144.00      800.00
01975             102.00     1000.00
01976            -254.00      800.00
01977            -254.00      800.00
01978             246.00     1200.00
01979             246.00     1400.00
01980            -254.00     1200.00
01981            -254.00     1000.00
01982             246.00     1600.00
01983             246.00     1600.00
01984            -254.00     1200.00
01985            -254.00     1600.00
01986             246.00     1800.00
01987              92.00     1600.00
01988            -254.00     1600.00
01989              80.00     2000.00
01990             126.00     1800.00
01991            -144.00     1800.00
01992              80.00     2000.00
01993              70.00     2000.00
01994            -194.00     2000.00
01995              70.00     2400.00
01996              74.00     2400.00
01997            -122.00     2200.00
01998              72.00     2400.00
01999             -10.00     2400.00
02000            -138.00     2600.00
02001             162.00     2600.00
02002              16.00     2600.00
02003            -220.00     2600.00
02004             112.00     2800.00
02005              96.00     2800.00
02006            -152.00     2800.00
02007              38.00     2800.00
02008              24.00     3000.00
02009             -80.00     2800.00
02010              58.00     3200.00
02011             -18.00     3200.00
02012             -52.00     3200.00
02013              54.00     3200.00
02014             -42.00     3200.00
02015             -26.00     3200.00
02016              48.00     3400.00
02017             -58.00     3400.00
02018             -14.00     3400.00
02019              40.00     3400.00
02020             -42.00     3400.00
02021             -18.00     3600.00
02022              22.00     3600.00
02023             -30.00     3600.00
02024             -26.00     3600.00
02025              -8.00     3600.00
02026              -2.00     3600.00
02027               2.00     3600.00
02028             -16.00     3800.00
02029             -18.00     3800.00
02030              -6.00     3800.00
02031             -24.00     4000.00
02032             -24.00     3800.00
02033               8.00     3800.00
02034              -2.00     4000.00
02035             -30.00     4000.00
02036              -8.00     4000.00
02037              -2.00     4000.00
02038             -26.00     4200.00
02039             -10.00     4200.00
02040              -8.00     4000.00
02041             -18.00     4200.00
02042             -16.00     4000.00
02043             -16.00     4200.00
02044              -6.00     4200.00
02045              -8.00     4200.00
02046             -24.00     4200.00
02047             -10.00     4400.00
02048               0.00     4200.00
02049             -18.00     4400.00
02050             -18.00     4400.00
02051              -8.00     4200.00
02052             -16.00     4200.00
02053             -16.00     4200.00
02054              -6.00     4400.00
02055             -10.00     4200.00
02056             -14.00     4400.00
02057             -16.00     4400.00
02058             -16.00     4200.00
02059             -10.00     4400.00
02060              -8.00     4400.00
02061             -12.00     4400.00
02062              -8.00     4400.00
02063             -14.00     4400.00
02064             -22.00     4200.00
02065             -10.00     4400.00
02066              -8.00     4400.00
02067              -8.00     4200.00
02068              -8.00     4400.00
02069             -14.00     4400.00
02070             -20.00     4400.00
02071             -14.00     4200.00
02072             -10.00     4200.00
02073              -8.00     4200.00
02074             -10.00     4200.00
02075             -10.00     4200.00
02076             -14.00     4200.00
02077             -18.00     4200.00
02078             -16.00     4200.00
02079              -8.00     4200.00
02080              -6.00     4000.00
02081             -14.00     4200.00
02082             -12.00     4000.00
02083             -14.00     4200.00
02084             -16.00     4000.00
02085             -14.00     4000.00
02086              -8.00     4000.00
02087              -6.00     3800.00
02088             -10.00     4000.00
02089             -16.00     3800.00
02090             -16.00     3800.00
02091             -16.00     3800.00
02092             -14.00     3800.00
02093              -8.00     3600.00
02094              -8.00     3600.00
02095             -16.00     3600.00
02096             -16.00     3600.00
02097             -12.00     3400.00
02098             -10.00     3600.00
02099             -14.00     3400.00
02100             -10.00     3400.00
02101             -10.00     3400.00
02102             -14.00     3400.00
02103             -16.00     3200.00
02104             -10.00     3400.00
02105             -10.00     3200.00
02106             -14.00     3200.00
02107             -10.00     3200.00
02108             -10.00     3000.00
02109             -14.00     3200.00
02110             -16.00     3200.00
02111             -14.00     2800.00
02112             -10.00     3000.00
02113             -10.00     2800.00
02114             -10.00     2800.00
02115              -8.00     2800.00
02116             -10.00     2800.00
02117             -10.00     2600.00
02118              -8.00     2600.00
02119              -6.00     2600.00
02120              -8.00     2600.00
02121              -8.00     2400.00
02122             -10.00     2400.00
02123             -10.00     2400.00
02124             -12.00     2400.00
02125              -8.00     2200.00
02126              -2.00     2200.00
02127              -6.00     2000.00
02128              -8.00     2000.00
02129              -6.00     2000.00
02130              -8.00     1800.00
02131             -10.00     2000.00
02132              -8.00     1800.00
02133              -8.00     1800.00
02134               0.00     1600.00
02135              -2.00     1600.00
02136             -10.00     1400.00
02137             -10.00     1600.00
02138              -8.00     1200.00
02139              -6.00     1200.00
02140               0.00     1200.00
02141               0.00     1200.00
02142              -2.00     1200.00
02143              -2.00     1000.00
02144             -14.00     1000.00
02145             -16.00     1000.00
02146             -10.00      800.00
02147               8.00      800.00
02148              16.00      800.00
02149               2.00      800.00
02150             -26.00      600.00
02151             -22.00      600.00
02152               6.00      400.00
02153              16.00      400.00
02154              -2.00      200.00
02155             -16.00      200.00
02156             -10.00        0.00
02157               0.00        0.00
02158               0.00        0.00
02159               2.00        0.00
02160              10.00        0.00
02161               2.00        0.00
02162             -10.00     -200.00
02163              -6.00     -400.00
02164               6.00     -400.00
02165              32.00     -400.00
02166             134.00     -600.00
02167              80.00     -600.00
02168            -254.00     -800.00
02169            -254.00     -600.00
02170             246.00     -600.00
02171             246.00     -800.00
02172            -160.00    -1000.00
02173            -254.00     -800.00
02174             186.00    -1000.00
02175             246.00    -1000.00
02176            -254.00    -1200.00
02177            -254.00    -1200.00
02178             246.00    -1400.00
02179             200.00    -1200.00
02180            -154.00    -1400.00
02181             -32.00    -1600.00
02182             -36.00    -1400.00
02183             -66.00    -1400.00
02184             176.00    -1600.00
02185              86.00    -1600.00
02186            -208.00    -1800.00
02187             -26.00    -2000.00
02188             150.00    -2000.00
02189             -20.00    -2000.00
02190             -34.00    -2000.00
02191             -30.00    -2200.00
02192              -8.00    -2000.00
02193             100.00    -2200.00
02194              12.00    -2200.00
02195            -136.00    -2200.00
02196              24.00    -2400.00
02197             106.00    -2400.00
02198             -30.00    -2400.00
02199             -30.00    -2400.00
02200              14.00    -2600.00
02201               6.00    -2600.00
02202              14.00    -2800.00
02203               2.00    -2800.00
02204             -30.00    -2800.00
02205              16.00    -3000.00
02206              34.00    -2800.00
02207              -2.00    -3000.00
02208             -16.00    -3000.00
02209              -2.00    -3000.00
02210               8.00    -3000.00
02211              16.00    -3000.00
02212               6.00    -3000.00
02213             -10.00    -3200.00
02214              18.00    -3200.00
02215              18.00    -3200.00
02216             -18.00    -3400.00
02217             -10.00    -3200.00
02218              22.00    -3200.00
02219              18.00    -3200.00
02220               6.00    -3400.00
02221              -2.00    -3600.00
02222              -6.00    -3600.00
02223              -2.00    -3600.00
02224               8.00    -3600.00
02225               8.00    -3600.00
02226               8.00    -3800.00
02227               0.00    -3600.00
02228               6.00    -3800.00
02229              10.00    -3600.00
02230               0.00    -3600.00
02231               0.00    -3800.00
02232              12.00    -3800.00
02233               8.00    -3800.00
02234              -2.00    -3800.00
02235               4.00    -4000.00
02236              10.00    -4000.00
02237               8.00    -4000.00
02238               2.00    -3800.00
02239               2.00    -4000.00
02240               6.00    -4000.00
02241               8.00    -4000.00
02242               6.00    -4000.00
02243               6.00    -4000.00
02244               2.00    -3800.00
02245               0.00    -4000.00
02246               8.00    -4000.00
02247              10.00    -4000.00
02248               2.00    -3800.00
02249               4.00    -4000.00
02250               6.00    -4000.00
02251               8.00    -4000.00
02252               8.00    -3800.00
02253               6.00    -4000.00
02254               6.00    -4000.00
02255               6.00    -4000.00
02256               0.00    -3800.00
02257               6.00    -4000.00
02258              14.00    -4000.00
02259               6.00    -4000.00
02260               6.00    -4000.00
02261              10.00    -4000.00
02262               0.00    -3800.00
02263               2.00    -3800.00
02264              10.00    -3800.00
02265               8.00    -4000.00
02266               6.00    -4000.00
02267               2.00    -3800.00
02268               0.00    -4000.00
02269               8.00    -3800.00
02270               8.00    -3800.00
02271               2.00    -3600.00
02272               8.00    -3800.00
02273               8.00    -3600.00
02274               8.00    -3800.00
02275               8.00    -3800.00
02276              -4.00    -3600.00
02277               0.00    -3600.00
02278              18.00    -3600.00
02279               8.00    -3600.00
02280               2.00    -3600.00
02281               4.00    -3600.00
02282               6.00    -3600.00
02283               2.00    -3400.00
02284               6.00    -3400.00
02285               0.00    -3200.00
02286               8.00    -3400.00
02287               8.00    -3200.00
02288               0.00    -3200.00
02289               0.00    -3200.00
02290               2.00    -3000.00
02291               2.00    -3200.00
02292              10.00    -3000.00
02293              14.00    -3000.00
02294               4.00    -3200.00
02295              -2.00    -3000.00
02296              -2.00    -3000.00
02297               0.00    -2800.00
02298               6.00    -2800.00
02299               4.00    -2800.00
02300               2.00    -2800.00
02301               6.00    -2800.00
02302               0.00    -2600.00
02303              -2.00    -2800.00
02304               0.00    -2600.00
02305               0.00    -2600.00
02306               6.00    -2400.00
02307               8.00    -2400.00
02308               2.00    -2400.00
02309              -2.00    -2200.00
02310              -2.00    -2200.00
02311               0.00    -2000.00
02312               8.00    -2200.00
02313               6.00    -2000.00
02314               2.00    -2000.00
02315               0.00    -2000.00
02316              -2.00    -2000.00
02317              -2.00    -1600.00
02318               6.00    -1800.00
02319               2.00    -1600.00
02320              -2.00    -1600.00
02321               0.00    -1600.00
02322               2.00    -1400.00
02323               6.00    -1400.00
02324               6.00    -1400.00
02325               2.00    -1000.00
02326              -2.00    -1200.00
02327              -2.00    -1000.00
02328               0.00    -1000.00
02329               2.00    -1000.00
02330               0.00    -1000.00
02331              -2.00     -800.00
02332               0.00     -800.00
02333               0.00     -800.00
02334              -2.00     -600.00
02335               2.00     -600.00
02336               2.00     -600.00
02337              -2.00     -400.00
02338              -6.00     -600.00
02339              -2.00     -400.00
02340               2.00     -400.00
02341              -2.00        0.00
02342              -6.00     -200.00
02343              -2.00        0.00
02344               0.00        0.00
02345               2.00        0.00
02346              -2.00        0.00
02347              -4.00      200.00
02348              -2.00      200.00
02349               0.00      200.00
02350               2.00      400.00
02351              12.00      400.00
02352               4.00      400.00
02353             -10.00      400.00
02354             -10.00      600.00
02355              -8.00      600.00
02356              18.00      600.00
02357             142.00     1000.00
02358             120.00     1000.00
02359            -254.00      800.00
02360            -254.00      800.00
02361             246.00     1000.00
02362             246.00     1400.00
02363            -254.00     1000.00
02364            -254.00     1000.00
02365             246.00     1600.00
02366             246.00     1600.00
02367            -254.00     1200.00
02368            -254.00     1600.00
02369             246.00     1800.00
02370             142.00     1600.00
02371            -254.00     1600.00
02372              46.00     2000.00
02373             144.00     1800.00
02374            -138.00     1600.00
02375              72.00     2000.00
02376              86.00     2000.00
02377            -202.00     1800.00
02378              52.00     2000.00
02379              88.00     2400.00
02380            -116.00     2400.00
02381              64.00     2400.00
02382               4.00     2400.00
02383            -152.00     2600.00
02384             146.00     2600.00
02385              46.00     2600.00
02386            -224.00     2600.00
02387              92.00     2800.00
02388             104.00     2800.00
02389            -154.00     2600.00
02390              30.00     3000.00
02391              38.00     3000.00
02392             -82.00     3000.00
02393              54.00     3200.00
02394             -14.00     3000.00
02395             -64.00     3200.00
02396              48.00     3200.00
02397             -32.00     3200.00
02398             -28.00     3400.00
02399              50.00     3400.00
02400             -58.00     3400.00
02401             -26.00     3400.00
02402              38.00     3400.00
02403             -40.00     3400.00
02404             -18.00     3400.00
02405              30.00     3600.00
02406             -22.00     3600.00
02407             -26.00     3600.00
02408             -10.00     3800.00
02409              -4.00     3600.00
02410               6.00     3600.00
02411             -16.00     4000.00
02412             -22.00     4000.00
02413              -6.00     4000.00
02414             -16.00     3800.00
02415             -22.00     4000.00
02416               2.00     3800.00
02417              -6.00     4000.00
02418             -34.00     4000.00
02419              -8.00     4200.00
02420              -2.00     4200.00
02421             -26.00     4000.00
02422             -10.00     4200.00
02423               0.00     4200.00
02424             -14.00     4200.00
02425             -16.00     4200.00
02426             -22.00     4400.00
02427             -10.00     4200.00
02428              -6.00     4200.00
02429             -22.00     4200.00
02430              -8.00     4200.00
02431              -2.00     4200.00
02432             -24.00     4200.00
02433             -18.00     4400.00
02434              -8.00     4200.00
02435             -14.00     4200.00
02436             -16.00     4400.00
02437             -10.00     4200.00
02438             -14.00     4400.00
02439             -14.00     4400.00
02440             -16.00     4400.00
02441             -16.00     4800.00
02442             -10.00     4400.00
02443             -16.00     4400.00
02444             -14.00     4400.00
02445              -4.00     4400.00
02446             -14.00     4400.00
02447             -20.00     4400.00
02448             -14.00     4400.00
02449             -10.00     4200.00
02450             -10.00     4400.00
02451              -8.00     4400.00
02452             -14.00     4400.00
02453             -18.00     4400.00
02454             -16.00     4400.00
02455             -10.00     4200.00
02456              -8.00     4200.00
02457              -8.00     4200.00
02458             -10.00     4400.00
02459             -14.00     4400.00
02460             -16.00     4200.00
02461             -16.00     4200.00
02462              -8.00     4200.00
02463              -8.00     4000.00
02464             -16.00     4200.00
02465             -14.00     4200.00
02466              -8.00     4000.00
02467             -10.00     4000.00
02468             -14.00     4000.00
02469             -10.00     4000.00
02470             -10.00     4000.00
02471             -14.00     4000.00
02472             -14.00     4000.00
02473             -10.00     4000.00
02474             -10.00     3800.00
02475             -14.00     3800.00
02476             -10.00     3600.00
02477              -8.00     3800.00
02478             -10.00     3600.00
02479             -10.00     3600.00
02480             -10.00     3600.00
02481             -14.00     3600.00
02482             -14.00     3600.00
02483             -10.00     3400.00
02484              -8.00     3400.00
02485             -10.00     3200.00
02486             -14.00     3400.00
02487             -10.00     3200.00
02488             -10.00     3200.00
02489             -10.00     3200.00
02490              -8.00     3200.00
02491              -8.00     3200.00
02492             -10.00     3000.00
02493             -14.00     3000.00
02494             -10.00     2800.00
02495             -10.00     2800.00
02496             -12.00     2800.00
02497             -10.00     2800.00
02498              -8.00     2600.00
02499             -14.00     2600.00
02500             -10.00     2600.00
02501             -10.00     2600.00
02502              -6.00     2600.00
02503              -8.00     2400.00
02504             -10.00     2600.00
02505              -8.00     2400.00
02506             -10.00     2200.00
02507             -12.00     2400.00
02508             -10.00     2000.00
02509              -6.00     2000.00
02510              -8.00     2000.00
02511              -6.00     2000.00
02512              -6.00     2000.00
02513              -8.00     1800.00
02514             -10.00     1800.00
02515              -8.00     1800.00
02516              -6.00     1600.00
02517              -8.00     1600.00
02518              -6.00     1600.00
02519              -6.00     1600.00
02520              -6.00     1600.00
02521              -8.00     1600.00
02522              -6.00     1200.00
02523              -2.00     1200.00
02524               0.00     1200.00
02525              -4.00     1200.00
02526              -6.00     1200.00
02527              -6.00     1000.00
02528              -6.00      800.00
02529              -6.00     1000.00
02530              -2.00      800.00
02531              -2.00      800.00
02532              -6.00      800.00
02533              -8.00      600.00
02534              -6.00      400.00
02535              -2.00      600.00
02536              -2.00      400.00
02537              -4.00      400.00
02538              -6.00      200.00
02539               0.00      200.00
02540               0.00      200.00
02541              -2.00      200.00
02542               6.00        0.00
02543               6.00        0.00
02544              -8.00        0.00
02545             -10.00        0.00
02546               2.00     -400.00
02547               2.00     -400.00
02548              26.00     -400.00
02549             126.00     -400.00
02550              94.00     -800.00
02551            -254.00     -800.00
02552            -254.00     -600.00
02553             242.00     -600.00
02554             246.00     -800.00
02555            -104.00    -1000.00
02556            -254.00     -800.00
02557             144.00    -1000.00
02558             246.00    -1000.00
02559            -244.00    -1000.00
02560            -254.00    -1200.00
02561             236.00    -1200.00
02562             232.00    -1200.00
02563            -150.00    -1400.00
02564             -42.00    -1600.00
02565             -32.00    -1400.00
02566             -80.00    -1400.00
02567             166.00    -1800.00
02568             106.00    -1600.00
02569            -208.00    -1600.00
02570             -46.00    -2000.00
02571             146.00    -2000.00
02572              -8.00    -2000.00
02573             -26.00    -2200.00
02574             -16.00    -2200.00
02575             -16.00    -2000.00
02576              80.00    -2200.00
02577              16.00    -2200.00
02578            -134.00    -2200.00
02579              30.00    -2400.00
02580             118.00    -2600.00
02581             -34.00    -2400.00
02582             -42.00    -2400.00
02583              10.00    -2600.00
02584              10.00    -2600.00
02585              18.00    -2800.00
02586               8.00    -2800.00
02587             -30.00    -2800.00
02588              14.00    -2800.00
02589              32.00    -3000.00
02590              -2.00    -2800.00
02591             -14.00    -3000.00
02592               0.00    -3000.00
02593              14.00    -3000.00
02594              18.00    -3000.00
02595              -2.00    -3200.00
02596             -14.00    -3200.00
02597              18.00    -3200.00
02598              24.00    -3200.00
02599             -10.00    -3200.00
02600             -14.00    -3200.00
02601              16.00    -3400.00
02602              12.00    -3400.00
02603               6.00    -3600.00
02604               8.00    -3600.00
02605               0.00    -3600.00
02606               0.00    -3600.00
02607               2.00    -3600.00
02608              10.00    -3600.00
02609              14.00    -3600.00
02610               6.00    -3600.00
02611               4.00    -3800.00
02612               6.00    -3600.00
02613              -6.00    -3800.00
02614              -2.00    -3800.00
02615              18.00    -3800.00
02616              16.00    -3800.00
02617               0.00    -3800.00
02618               0.00    -3800.00
02619               4.00    -3800.00
02620               2.00    -3800.00
02621               2.00    -3800.00
02622               8.00    -3800.00
02623              16.00    -3800.00
02624               8.00    -4000.00
02625               0.00    -4000.00
02626               0.00    -4000.00
02627               2.00    -4000.00
02628               6.00    -3800.00
02629              10.00    -4000.00
02630              14.00    -4000.00
02631               0.00    -4000.00
02632               2.00    -4000.00
02633               2.00    -4000.00
02634               8.00    -4000.00
02635               6.00    -4000.00
02636               6.00    -4000.00
02637               6.00    -3800.00
02638               6.00    -4000.00
02639               0.00    -3800.00
02640               6.00    -4000.00
02641               8.00    -3800.00
02642               6.00    -4000.00
02643               6.00    -4000.00
02644              10.00    -4000.00
02645               6.00    -3800.00
02646               0.00    -4000.00
02647               6.00    -3800.00
02648               8.00    -4000.00
02649               8.00    -3800.00
02650               6.00    -4000.00
02651               6.00    -3800.00
02652               6.00    -4000.00
02653               2.00    -3800.00
02654               8.00    -3800.00
02655               8.00    -3800.00
02656               8.00    -3800.00
02657               6.00    -3600.00
02658               6.00    -3600.00
02659               4.00    -3600.00
02660               2.00    -3600.00
02661               8.00    -3600.00
02662              10.00    -3600.00
02663               8.00    -3600.00
02664               2.00    -3400.00
02665               2.00    -3600.00
02666               6.00    -3400.00
02667               8.00    -3200.00
02668               8.00    -3400.00
02669               8.00    -3200.00
02670               6.00    -3200.00
02671               2.00    -3200.00
02672               2.00    -3200.00
02673               2.00    -3200.00
02674               6.00    -3200.00
02675               6.00    -3200.00
02676               6.00    -3000.00
02677               6.00    -3000.00
02678               0.00    -3000.00
02679               0.00    -3000.00
02680               0.00    -2800.00
02681               2.00    -2800.00
02682               6.00    -2800.00
02683               4.00    -2800.00
02684               2.00    -2800.00
02685               0.00    -2800.00
02686               0.00    -2800.00
02687               6.00    -2600.00
02688               2.00    -2400.00
02689               6.00    -2400.00
02690               4.00    -2400.00
02691               2.00    -2400.00
02692               0.00    -2200.00
02693               0.00    -2200.00
02694               2.00    -2200.00
02695               2.00    -2200.00
02696               0.00    -2000.00
02697               2.00    -2000.00
02698               0.00    -2000.00
02699              -2.00    -1800.00
02700              -2.00    -2000.00
02701               0.00    -1600.00
02702               2.00    -1600.00
02703               2.00    -1600.00
02704               0.00    -1600.00
02705               0.00    -1600.00
02706              -2.00    -1400.00
02707              -2.00    -1400.00
02708               2.00    -1400.00
02709               2.00    -1400.00
02710               0.00    -1000.00
02711               0.00    -1000.00
02712               0.00    -1000.00
02713              -4.00    -1000.00
02714               0.00     -800.00
02715               2.00     -800.00
02716               2.00     -600.00
02717              -2.00     -800.00
02718              -2.00     -600.00
02719              -2.00     -600.00
02720              -2.00     -400.00
02721              -2.00     -400.00
02722               0.00     -200.00
02723               0.00     -400.00
02724               0.00        0.00
02725              -2.00        0.00
02726              -2.00        0.00
02727              -2.00        0.00
02728               0.00        0.00
02729              -6.00      200.00
02730               0.00      200.00
02731               2.00      200.00
02732               0.00      400.00
02733               0.00      400.00
02734               6.00      400.00
02735               2.00      400.00
02736              -6.00      600.00
02737              -8.00      400.00
02738              -2.00      800.00
02739              16.00      800.00
02740             130.00     1000.00
02741             128.00     1000.00
02742            -254.00      800.00
02743            -254.00      800.00
02744             246.00     1200.00
02745             246.00     1400.00
02746            -186.00     1200.00
02747            -254.00     1000.00
02748             234.00     1600.00
02749             246.00     1600.00
02750            -254.00     1200.00
02751            -254.00     1600.00
02752             246.00     1800.00
02753             186.00     1600.00
02754            -254.00     1600.00
02755              22.00     1800.00
02756             164.00     1800.00
02757            -142.00     1600.00
02758              48.00     2000.00
02759             102.00     2000.00
02760            -194.00     1800.00
02761              38.00     2000.00
02762              96.00     2400.00
02763            -120.00     2000.00
02764              48.00     2400.00
02765              22.00     2400.00
02766            -150.00     2400.00
02767             132.00     2600.00
02768              58.00     2600.00
02769            -232.00     2600.00
02770              78.00     2800.00
02771             128.00     2800.00
02772            -150.00     2600.00
02773              14.00     3000.00
02774              42.00     2800.00
02775             -84.00     3000.00
02776              50.00     3200.00
02777              -2.00     3200.00
02778             -72.00     3000.00
02779              40.00     3200.00
02780             -28.00     3200.00
02781             -32.00     3200.00
02782              60.00     3400.00
02783             -48.00     3400.00
02784             -40.00     3200.00
02785              32.00     3600.00
02786             -42.00     3200.00
02787             -18.00     3600.00
02788              38.00     3800.00
02789             -18.00     3600.00
02790             -38.00     3600.00
02791             -16.00     3800.00
02792              -6.00     3600.00
02793               6.00     3600.00
02794             -16.00     3800.00
02795             -22.00     3800.00
02796              -2.00     4000.00
02797             -14.00     4000.00
02798             -24.00     4000.00
02799               6.00     4000.00
02800               0.00     4200.00
02801             -32.00     4000.00
02802              -8.00     4000.00
02803               2.00     4000.00
02804             -30.00     4000.00
02805             -16.00     4200.00
02806              -4.00     4000.00
02807             -10.00     4200.00
02808              -8.00     4200.00
02809             -14.00     4400.00
02810             -14.00     4200.00
02811             -14.00     4000.00
02812             -26.00     4200.00
02813             -12.00     4200.00
02814               4.00     4200.00
02815             -16.00     4400.00
02816             -18.00     4200.00
02817             -14.00     4200.00
02818             -18.00     4400.00
02819             -16.00     4200.00
02820              -2.00     4400.00
02821              -8.00     4400.00
02822             -14.00     4400.00
02823             -16.00     4400.00
02824             -18.00     4400.00
02825             -12.00     4400.00
02826             -14.00     4400.00
02827             -14.00     4200.00
02828              -4.00     4400.00
02829             -10.00     4200.00
02830             -18.00     4400.00
02831             -16.00     4200.00
02832             -16.00     4400.00
02833             -14.00     4400.00
02834              -6.00     4200.00
02835              -6.00     4200.00
02836             -14.00     4200.00
02837             -14.00     4200.00
02838             -16.00     4200.00
02839             -16.00     4400.00
02840             -12.00     4200.00
02841             -10.00     4400.00
02842              -8.00     4200.00
02843             -14.00     4200.00
02844             -16.00     4200.00
02845             -10.00     4200.00
02846              -8.00     4200.00
02847             -10.00     4200.00
02848             -10.00     4000.00
02849             -10.00     4000.00
02850             -16.00     4000.00
02851             -14.00     4000.00
02852              -8.00     4000.00
02853              -8.00     4000.00
02854             -10.00     4000.00
02855             -14.00     4000.00
02856             -10.00     3800.00
02857             -10.00     4000.00
02858             -10.00     4000.00
02859              -8.00     3800.00
02860              -8.00     3600.00
02861             -10.00     3600.00
02862             -10.00     3600.00
02863              -8.00     3600.00
02864             -14.00     3600.00
02865             -14.00     3600.00
02866              -6.00     3600.00
02867              -2.00     3400.00
02868              -8.00     3400.00
02869             -16.00     3400.00
02870             -14.00     3400.00
02871             -10.00     3400.00
02872              -8.00     3200.00
02873              -6.00     3200.00
02874              -8.00     3200.00
02875             -10.00     3200.00
02876             -14.00     3000.00
02877             -12.00     2800.00
02878             -10.00     3000.00
02879             -12.00     2800.00
02880             -10.00     2800.00
02881              -6.00     2800.00
02882             -10.00     2800.00
02883             -14.00     2600.00
02884             -10.00     2600.00
02885             -10.00     2600.00
02886             -10.00     2400.00
02887              -6.00     2400.00
02888              -8.00     2400.00
02889             -10.00     2200.00
02890             -14.00     2400.00
02891             -10.00     2000.00
02892             -10.00     2200.00
02893              -6.00     2000.00
02894              -6.00     2000.00
02895              -6.00     2000.00
02896             -10.00     1800.00
02897             -14.00     1800.00
02898              -8.00     1800.00
02899              -8.00     1600.00
02900              -6.00     1600.00
02901              -8.00     1600.00
02902              -8.00     1400.00
02903              -8.00     1400.00
02904              -8.00     1400.00
02905              -8.00     1200.00
02906              -6.00     1200.00
02907              -2.00     1200.00
02908              -6.00     1200.00
02909              -6.00     1200.00
02910              -6.00     1000.00
02911              -6.00     1000.00
02912              -8.00      800.00
02913              -8.00      800.00
02914              -6.00      800.00
02915              -2.00      800.00
02916              -4.00      600.00
02917              -6.00      400.00
02918              -4.00      400.00
02919              -6.00      400.00
02920              -8.00      200.00
02921              -2.00      400.00
02922               2.00      200.00
02923               0.00      200.00
02924              -2.00      200.00
02925               0.00        0.00
02926              10.00        0.00
02927               0.00        0.00
02928              -6.00        0.00
02929              -2.00     -200.00
02930               0.00     -400.00
02931              24.00     -400.00
02932             122.00     -400.00
02933             106.00     -600.00
02934            -242.00    -1000.00
02935            -254.00     -400.00
02936             204.00     -600.00
02937             246.00     -800.00
02938             -40.00    -1000.00
02939            -254.00     -800.00
02940              86.00    -1000.00
02941             246.00    -1000.00
02942            -186.00    -1000.00
02943            -254.00    -1000.00
02944             204.00    -1400.00
02945             246.00    -1200.00
02946            -152.00    -1200.00
02947             -54.00    -1400.00
02948             -16.00    -1600.00
02949             -72.00    -1400.00
02950             154.00    -1800.00
02951             118.00    -1600.00
02952            -216.00    -1600.00
02953             -64.00    -2000.00
02954             154.00    -2000.00
02955              10.00    -2000.00
02956             -38.00    -2200.00
02957             -32.00    -2200.00
02958             -24.00    -2200.00
02959              86.00    -2200.00
02960              38.00    -2400.00
02961            -136.00    -2200.00
02962               6.00    -2400.00
02963             112.00    -2600.00
02964             -22.00    -2400.00
02965             -40.00    -2400.00
02966              10.00    -2400.00
02967               6.00    -2600.00
02968              16.00    -2600.00
02969              10.00    -2800.00
02970             -32.00    -2800.00
02971               6.00    -3000.00
02972              32.00    -2800.00
02973               6.00    -3000.00
02974             -16.00    -2800.00
02975              -6.00    -3000.00
02976              10.00    -3000.00
02977              22.00    -3200.00
02978               6.00    -3200.00
02979             -14.00    -3200.00
02980              14.00    -3200.00
02981              22.00    -3200.00
02982             -12.00    -3200.00
02983             -14.00    -3400.00
02984              22.00    -3600.00
02985              18.00    -3400.00
02986               6.00    -3600.00
02987               0.00    -3400.00
02988              -4.00    -3600.00
02989               0.00    -3600.00
02990              10.00    -3600.00
02991              14.00    -3600.00
02992              10.00    -3800.00
02993               2.00    -3800.00
02994               0.00    -3800.00
02995               8.00    -3600.00
02996               0.00    -3800.00
02997               2.00    -3600.00
02998              16.00    -3800.00
02999              14.00    -3800.00
03000               0.00    -3800.00
03001               2.00    -3800.00
03002               8.00    -3800.00
03003               8.00    -4000.00
03004               2.00    -3800.00
03005               6.00    -4000.00
03006              10.00    -3800.00
03007               6.00    -4000.00
03008               2.00    -4000.00
03009               4.00    -4000.00
03010               4.00    -4000.00
03011               6.00    -4000.00
03012               8.00    -4000.00
03013              10.00    -4000.00
03014               2.00    -4000.00
03015               2.00    -4000.00
03016               6.00    -4000.00
03017               8.00    -3800.00
03018               8.00    -4000.00
03019               6.00    -4000.00
03020               6.00    -4000.00
03021               4.00    -4000.00
03022               6.00    -4000.00
03023               6.00    -4000.00
03024               8.00    -3800.00
03025               6.00    -4000.00
03026               6.00    -4000.00
03027               8.00    -4000.00
03028               2.00    -4000.00
03029               0.00    -4000.00
03030               6.00    -4000.00
03031              14.00    -4000.00
03032              14.00    -3800.00
03033               6.00    -3800.00
03034               0.00    -3800.00
03035               0.00    -3800.00
03036               6.00    -3800.00
03037              14.00    -3800.00
03038              12.00    -3600.00
03039               2.00    -3800.00
03040              -2.00    -3800.00
03041               2.00    -3600.00
03042               6.00    -3800.00
03043               8.00    -3600.00
03044              10.00    -3600.00
03045               8.00    -3600.00
03046               6.00    -3600.00
03047               6.00    -3400.00
03048               2.00    -3600.00
03049               0.00    -3400.00
03050               2.00    -3400.00
03051               6.00    -3600.00
03052              10.00    -3400.00
03053               8.00    -3200.00
03054               6.00    -3200.00
03055               4.00    -3200.00
03056               4.00    -3200.00
03057               0.00    -3200.00
03058               6.00    -3200.00
03059               6.00    -3200.00
03060               6.00    -3000.00
03061               2.00    -3000.00
03062               6.00    -3000.00
03063               2.00    -2800.00
03064               2.00    -2800.00
03065               8.00    -2800.00
03066               6.00    -2800.00
03067               6.00    -2800.00
03068               0.00    -2800.00
03069               0.00    -2600.00
03070               0.00    -2400.00
03071               2.00    -2400.00
03072               2.00    -2600.00
03073               4.00    -2400.00
03074               2.00    -2400.00
03075               0.00    -2200.00
03076               0.00    -2200.00
03077               0.00    -2200.00
03078               0.00    -2000.00
03079               0.00    -2000.00
03080               2.00    -2000.00
03081               0.00    -2000.00
03082               0.00    -2000.00
03083               0.00    -1800.00
03084               0.00    -2000.00
03085               2.00    -1600.00
03086               0.00    -1600.00
03087               0.00    -1600.00
03088              -2.00    -1400.00
03089              -2.00    -1400.00
03090               0.00    -1400.00
03091               0.00    -1200.00
03092               2.00    -1000.00
03093               0.00    -1200.00
03094               0.00    -1000.00
03095              -2.00    -1000.00
03096              -2.00     -800.00
03097              -2.00     -800.00
03098               2.00     -800.00
03099               0.00     -800.00
03100              -2.00     -800.00
03101              -6.00     -600.00
03102               0.00     -600.00
03103              -2.00     -600.00
03104              -2.00     -400.00
03105              -2.00     -400.00
03106               2.00     -400.00
03107              -2.00     -200.00
03108              -2.00     -200.00
03109              -2.00        0.00
03110               0.00        0.00
03111              -2.00        0.00
03112              -6.00        0.00
03113              -2.00      200.00
03114               2.00      200.00
03115              -2.00      200.00
03116               0.00      400.00
03117               6.00      400.00
03118               6.00      400.00
03119              -2.00      400.00
03120              -6.00      600.00
03121              -2.00      600.00
03122              14.00      800.00
03123             122.00     1000.00
03124             142.00     1000.00
03125            -254.00      800.00
03126            -254.00      800.00
03127             242.00     1200.00
03128             246.00     1400.00
03129            -110.00     1000.00
03130            -254.00     1000.00
03131             178.00     1600.00
03132             246.00     1400.00
03133            -254.00     1200.00
03134            -254.00     1400.00
03135             246.00     1800.00
03136             232.00     1600.00
03137            -254.00     1400.00
03138              -6.00     2000.00
03139             184.00     1800.00
03140            -140.00     1800.00
03141              30.00     1800.00
03142             114.00     2000.00
03143            -192.00     2000.00
03144              22.00     2000.00
03145             110.00     2400.00
03146            -118.00     2000.00
03147              34.00     2400.00
03148              32.00     2400.00
03149            -160.00     2400.00
03150             118.00     2600.00
03151              80.00     2600.00
03152            -230.00     2400.00
03153              56.00     2800.00
03154             142.00     2800.00
03155            -150.00     2800.00
03156              -2.00     3000.00
03157              50.00     2800.00
03158             -90.00     2800.00
03159              40.00     3200.00
03160               8.00     3200.00
03161             -72.00     2800.00
03162              42.00     3200.00
03163             -24.00     3200.00
03164             -42.00     3200.00
03165              56.00     3400.00
03166             -40.00     3200.00
03167             -38.00     3400.00
03168              40.00     3400.00
03169             -36.00     3600.00
03170             -32.00     3600.00
03171              26.00     3600.00
03172             -16.00     3600.00
03173             -32.00     3600.00
03174             -12.00     3600.00
03175              -4.00     3600.00
03176               6.00     3600.00
03177             -14.00     3800.00
03178             -24.00     3800.00
03179              -4.00     4000.00
03180             -14.00     4000.00
03181             -22.00     4000.00
03182               2.00     4000.00
03183               0.00     4000.00
03184             -30.00     4000.00
03185              -8.00     4200.00
03186               6.00     4200.00
03187             -24.00     4200.00
03188             -14.00     4000.00
03189              -2.00     4000.00
03190             -10.00     4000.00
03191             -10.00     4000.00
03192             -16.00     4200.00
03193             -14.00     4200.00
03194              -6.00     4200.00
03195             -22.00     4200.00
03196             -10.00     4200.00
03197               0.00     4200.00
03198             -18.00     4200.00
03199             -18.00     4200.00
03200              -6.00     4200.00
03201             -16.00     4200.00
03202             -18.00     4200.00
03203              -8.00     4400.00
03204             -10.00     4200.00
03205             -14.00     4200.00
03206             -16.00     4400.00
03207             -16.00     4400.00
03208             -14.00     4200.00
03209             -14.00     4400.00
03210             -14.00     4200.00
03211              -8.00     4200.00
03212             -12.00     4400.00
03213             -24.00     4400.00
03214             -16.00     4200.00
03215             -10.00     4400.00
03216             -14.00     4200.00
03217              -8.00     4200.00
03218             -10.00     4400.00
03219             -16.00     4200.00
03220             -14.00     4200.00
03221             -14.00     4400.00
03222             -16.00     4200.00
03223             -12.00     4200.00
03224             -10.00     4200.00
03225              -8.00     4400.00
03226             -10.00     4200.00
03227             -18.00     4200.00
03228             -16.00     4000.00
03229             -10.00     4200.00
03230              -8.00     4000.00
03231              -6.00     4000.00
03232              -8.00     4200.00
03233             -18.00     4000.00
03234             -24.00     4000.00
03235             -14.00     4000.00
03236              -6.00     4000.00
03237              -2.00     4000.00
03238             -10.00     3800.00
03239             -14.00     4000.00
03240             -16.00     3800.00
03241             -12.00     3800.00
03242              -2.00     3600.00
03243              -4.00     3600.00
03244             -10.00     3600.00
03245             -14.00     3600.00
03246             -14.00     3800.00
03247             -14.00     3600.00
03248             -14.00     3400.00
03249              -8.00     3400.00
03250              -6.00     3400.00
03251              -8.00     3400.00
03252             -12.00     3200.00
03253             -10.00     3600.00
03254             -14.00     3200.00
03255             -14.00     3400.00
03256              -8.00     3200.00
03257              -6.00     3200.00
03258              -8.00     3000.00
03259             -10.00     3000.00
03260             -10.00     3200.00
03261              -6.00     3000.00
03262              -8.00     2800.00
03263              -8.00     2800.00
03264             -10.00     2800.00
03265             -14.00     2800.00
03266             -14.00     2600.00
03267             -10.00     2600.00
03268              -8.00     2400.00
03269             -10.00     2600.00
03270             -12.00     2400.00
03271             -10.00     2600.00
03272              -8.00     2400.00
03273             -10.00     2400.00
03274             -10.00     2000.00
03275              -6.00     2000.00
03276              -8.00     2200.00
03277             -10.00     2000.00
03278              -8.00     2000.00
03279             -10.00     1800.00
03280             -10.00     1800.00
03281              -8.00     1800.00
03282              -6.00     1600.00
03283              -8.00     1600.00
03284             -10.00     1600.00
03285              -8.00     1600.00
03286              -6.00     1400.00
03287              -8.00     1200.00
03288             -10.00     1400.00
03289              -6.00     1200.00
03290              -8.00     1000.00
03291              -8.00     1200.00
03292              -6.00     1200.00
03293              -8.00     1000.00
03294              -6.00      800.00
03295              -8.00      800.00
03296              -2.00      800.00
03297               0.00      800.00
03298              -6.00      800.00
03299             -10.00      600.00
03300              -6.00      600.00
03301              -2.00      400.00
03302              -2.00      400.00
03303              -6.00      400.00
03304              -6.00      200.00
03305              -2.00      200.00
03306               2.00      200.00
03307               0.00      200.00
03308               2.00        0.00
03309               6.00        0.00
03310              -2.00        0.00
03311              -8.00        0.00
03312              -2.00     -400.00
03313               2.00     -200.00
03314              22.00     -400.00
03315             112.00     -400.00
03316             112.00     -800.00
03317            -218.00     -800.00
03318            -254.00     -600.00
03319             166.00     -400.00
03320             246.00     -800.00
03321              30.00    -1000.00
03322            -254.00     -800.00
03323              32.00     -800.00
03324             246.00    -1000.00
03325            -136.00    -1200.00
03326            -254.00    -1000.00
03327             166.00    -1400.00
03328             246.00    -1400.00
03329            -134.00    -1200.00
03330             -56.00    -1400.00
03331             -10.00    -1600.00
03332             -86.00    -1400.00
03333             134.00    -1600.00
03334             136.00    -1600.00
03335            -202.00    -1600.00
03336             -74.00    -2000.00
03337             154.00    -2000.00
03338              18.00    -2000.00
03339             -40.00    -2000.00
03340             -34.00    -2200.00
03341             -30.00    -2000.00
03342              82.00    -2200.00
03343              54.00    -2400.00
03344            -134.00    -2200.00
03345              -6.00    -2400.00
03346             112.00    -2400.00
03347             -16.00    -2400.00
03348             -50.00    -2400.00
03349               6.00    -2400.00
03350              10.00    -2600.00
03351              24.00    -2600.00
03352              16.00    -2800.00
03353             -38.00    -2800.00
03354              -8.00    -2800.00
03355              34.00    -3000.00
03356              16.00    -2800.00
03357             -14.00    -3000.00
03358             -14.00    -3000.00
03359               2.00    -3000.00
03360              32.00    -3200.00
03361              14.00    -3200.00
03362             -24.00    -3200.00
03363              -6.00    -3200.00
03364              22.00    -3200.00
03365               2.00    -3200.00
03366              -6.00    -3200.00
03367              18.00    -3400.00
03368              10.00    -3200.00
03369              -6.00    -3400.00
03370               0.00    -3600.00
03371               8.00    -3600.00
03372              16.00    -3600.00
03373              10.00    -3600.00
03374               0.00    -3600.00
03375               2.00    -3600.00
03376               8.00    -3800.00
03377               2.00    -3600.00
03378               8.00    -3800.00
03379               6.00    -3600.00
03380               6.00    -3600.00
03381              10.00    -3600.00
03382               6.00    -3800.00
03383               0.00    -3800.00
03384              10.00    -3800.00
03385              10.00    -3800.00
03386               2.00    -4000.00
03387               0.00    -3800.00
03388               2.00    -3800.00
03389              14.00    -3800.00
03390              18.00    -3800.00
03391              14.00    -4000.00
03392               0.00    -4000.00
03393             -10.00    -4000.00
03394              -8.00    -4000.00
03395              16.00    -4000.00
03396              24.00    -4000.00
03397              10.00    -3800.00
03398               0.00    -4000.00
03399              -4.00    -4000.00
03400               0.00    -4000.00
03401              10.00    -4000.00
03402              10.00    -4000.00
03403               6.00    -4000.00
03404               6.00    -4000.00
03405               0.00    -4000.00
03406               2.00    -3800.00
03407              12.00    -3800.00
03408               6.00    -4000.00
03409               6.00    -3800.00
03410               6.00    -3800.00
03411               2.00    -4000.00
03412               0.00    -3800.00
03413               6.00    -3800.00
03414               6.00    -4000.00
03415               6.00    -3800.00
03416               2.00    -3800.00
03417               2.00    -3800.00
03418               6.00    -3800.00
03419               6.00    -3800.00
03420               8.00    -3800.00
03421               8.00    -3600.00
03422               0.00    -3800.00
03423               0.00    -3800.00
03424               2.00    -3600.00
03425               8.00    -3800.00
03426               8.00    -3600.00
03427              10.00    -3600.00
03428               8.00    -3400.00
03429               2.00    -3600.00
03430               2.00    -3600.00
03431               4.00    -3600.00
03432               6.00    -3200.00
03433               8.00    -3400.00
03434               8.00    -3200.00
03435               8.00    -3200.00
03436               2.00    -3200.00
03437               2.00    -3200.00
03438               2.00    -3200.00
03439               6.00    -3200.00
03440               6.00    -3200.00
03441               8.00    -3000.00
03442               8.00    -3000.00
03443               2.00    -3000.00
03444               0.00    -2800.00
03445               2.00    -3000.00
03446               4.00    -3000.00
03447               4.00    -2800.00
03448               6.00    -2800.00
03449               2.00    -2800.00
03450               2.00    -2600.00
03451              -2.00    -2800.00
03452               0.00    -2600.00
03453               2.00    -2600.00
03454               6.00    -2400.00
03455               6.00    -2400.00
03456               2.00    -2400.00
03457               2.00    -2400.00
03458               2.00    -2400.00
03459               4.00    -2200.00
03460               2.00    -2200.00
03461              -4.00    -2200.00
03462              -8.00    -2200.00
03463              -2.00    -2000.00
03464              10.00    -2000.00
03465              10.00    -2000.00
03466               2.00    -2000.00
03467              -6.00    -1800.00
03468             -10.00    -1800.00
03469              -8.00    -1600.00
03470               6.00    -1400.00
03471              10.00    -1600.00
03472               6.00    -1400.00
03473              -6.00    -1400.00
03474              -8.00    -1400.00
03475              -6.00    -1000.00
03476               0.00    -1200.00
03477               6.00    -1200.00
03478               0.00    -1000.00
03479              -2.00     -800.00
03480               0.00    -1000.00
03481               0.00     -800.00
03482               0.00     -800.00
03483             -10.00     -600.00
03484             -10.00     -600.00
03485               0.00     -400.00
03486               8.00     -400.00
03487               6.00     -600.00
03488               0.00     -400.00
03489              -8.00     -400.00
03490             -12.00     -200.00
03491              -8.00     -200.00
03492               0.00        0.00
03493               6.00        0.00
03494               0.00      200.00
03495             -10.00        0.00
03496             -10.00        0.00
03497              -4.00      200.00
03498               2.00      400.00
03499               8.00      400.00
03500              10.00      400.00
03501               4.00      400.00
03502              -8.00      400.00
03503             -10.00      600.00
03504              -2.00      600.00
03505              14.00      800.00
03506             112.00      800.00
03507             150.00     1000.00
03508            -242.00      800.00
03509            -254.00      800.00
03510             206.00     1200.00
03511             246.00     1400.00
03512             -38.00     1200.00
03513            -254.00     1000.00
03514             112.00     1600.00
03515             246.00     1600.00
03516            -254.00     1200.00
03517            -254.00     1600.00
03518             246.00     1800.00
03519             246.00     1600.00
03520            -254.00     1600.00
03521             -42.00     1800.00
03522             196.00     2000.00
03523            -130.00     1800.00
03524              18.00     2000.00
03525             134.00     2000.00
03526            -190.00     2000.00
03527              -2.00     2000.00
03528             118.00     2400.00
03529            -112.00     2000.00
03530              26.00     2400.00
03531              50.00     2400.00
03532            -160.00     2400.00
03533              98.00     2600.00
03534             102.00     2600.00
03535            -230.00     2600.00
03536              32.00     2800.00
03537             154.00     2800.00
03538            -144.00     2800.00
03539             -10.00     2800.00
03540              62.00     2800.00
03541             -88.00     2800.00
03542              30.00     3200.00
03543              16.00     3200.00
03544             -76.00     3200.00
03545              42.00     3200.00
03546             -16.00     3200.00
03547             -46.00     3200.00
03548              50.00     3400.00
03549             -40.00     3400.00
03550             -48.00     3400.00
03551              40.00     3400.00
03552             -26.00     3400.00
03553             -34.00     3600.00
03554              26.00     3600.00
03555             -16.00     3600.00
03556             -34.00     3600.00
03557             -10.00     3600.00
03558              -2.00     3600.00
03559               4.00     3800.00
03560             -14.00     3600.00
03561             -24.00     4000.00
03562              -6.00     4000.00
03563             -10.00     4000.00
03564             -24.00     4000.00
03565               2.00     4000.00
03566               0.00     4000.00
03567             -26.00     4000.00
03568             -10.00     4200.00
03569               2.00     4000.00
03570             -26.00     4000.00
03571             -18.00     4200.00
03572               0.00     4000.00
03573             -10.00     4000.00
03574             -10.00     4000.00
03575             -16.00     4200.00
03576             -14.00     4200.00
03577              -6.00     4200.00
03578             -22.00     4200.00
03579             -12.00     4200.00
03580               0.00     4400.00
03581             -16.00     4200.00
03582             -18.00     4200.00
03583              -6.00     4400.00
03584             -14.00     4400.00
03585             -16.00     4200.00
03586              -8.00     4400.00
03587             -10.00     4200.00
03588             -16.00     4400.00
03589             -14.00     4200.00
03590             -16.00     4200.00
03591             -10.00     4400.00
03592             -10.00     4200.00
03593             -16.00     4200.00
03594             -10.00     4200.00
03595             -10.00     4400.00
03596             -20.00     4200.00
03597             -14.00     4400.00
03598             -10.00     4200.00
03599             -10.00     4400.00
03600             -10.00     4400.00
03601             -14.00     4400.00
03602             -18.00     4400.00
03603             -16.00     4400.00
03604             -12.00     4200.00
03605             -12.00     4400.00
03606             -10.00     4000.00
03607             -14.00     4200.00
03608             -14.00     4200.00
03609             -16.00     4000.00
03610             -18.00     4200.00
03611             -10.00     4000.00
03612              -8.00     4200.00
03613             -16.00     4000.00
03614             -10.00     4200.00
03615             -10.00     4000.00
03616             -16.00     4000.00
03617             -16.00     4000.00
03618             -10.00     4000.00
03619              -8.00     4000.00
03620             -10.00     4000.00
03621             -12.00     4000.00
03622             -14.00     3800.00
03623             -14.00     3800.00
03624             -16.00     3600.00
03625             -10.00     3600.00
03626             -10.00     3600.00
03627             -10.00     3800.00
03628             -12.00     3600.00
03629             -10.00     3400.00
03630             -10.00     3600.00
03631             -14.00     3600.00
03632             -10.00     3400.00
03633              -8.00     3400.00
03634             -10.00     3400.00
03635             -14.00     3400.00
03636             -10.00     3400.00
03637             -14.00     3400.00
03638             -10.00     3200.00
03639              -8.00     3200.00
03640              -8.00     3200.00
03641              -8.00     3200.00
03642             -10.00     3000.00
03643             -14.00     3000.00
03644              -8.00     2800.00
03645             -10.00     2800.00
03646              -8.00     2800.00
03647              -6.00     2800.00
03648             -10.00     2800.00
03649             -10.00     2600.00
03650             -10.00     2600.00
03651              -6.00     2600.00
03652              -8.00     2600.00
03653              -8.00     2600.00
03654             -10.00     2400.00
03655             -10.00     2400.00
03656             -14.00     2400.00
03657             -10.00     2400.00
03658              -8.00     2200.00
03659             -10.00     2000.00
03660              -8.00     2000.00
03661             -10.00     1800.00
03662             -10.00     1800.00
03663             -10.00     1800.00
03664              -6.00     1800.00
03665              -6.00     1600.00
03666              -8.00     1600.00
03667             -10.00     1600.00
03668             -10.00     1400.00
03669             -10.00     1400.00
03670              -8.00     1600.00
03671              -8.00     1400.00
03672              -6.00     1200.00
03673              -6.00     1200.00
03674             -10.00     1200.00
03675             -10.00     1200.00
03676              -8.00     1000.00
03677              -8.00      800.00
03678              -8.00      800.00
03679              -2.00      800.00
03680              -6.00      800.00
03681              -6.00      800.00
03682             -10.00      800.00
03683              -6.00      400.00
03684              -4.00      600.00
03685              -2.00      400.00
03686              -6.00      400.00
03687              -6.00      200.00
03688               0.00      200.00
03689               0.00      200.00
03690              -2.00        0.00
03691               2.00      200.00
03692               8.00        0.00
03693              -2.00        0.00
03694              -8.00        0.00
03695              -2.00     -200.00
03696               0.00     -400.00
03697              22.00     -400.00
03698             108.00     -600.00
03699             122.00     -600.00
03700            -194.00     -800.00
03701            -254.00     -600.00
03702             120.00     -600.00
03703             246.00     -800.00
03704              96.00    -1000.00
03705            -254.00    -1000.00
03706             -26.00     -800.00
03707             246.00    -1000.00
03708             -80.00    -1200.00
03709            -254.00    -1000.00
03710             130.00    -1200.00
03711             246.00    -1400.00
03712            -124.00    -1400.00
03713             -66.00    -1400.00
03714               0.00    -1600.00
03715             -88.00    -1400.00
03716             120.00    -1600.00
03717             152.00    -1800.00
03718            -194.00    -1600.00
03719             -90.00    -2000.00
03720             154.00    -2000.00
03721              28.00    -2000.00
03722             -40.00    -2000.00
03723             -34.00    -2200.00
03724             -34.00    -2000.00
03725              74.00    -2200.00
03726              70.00    -2400.00
03727            -122.00    -2200.00
03728             -14.00    -2200.00
03729             106.00    -2400.00
03730             -10.00    -2400.00
03731             -54.00    -2400.00
03732              14.00    -2600.00
03733              14.00    -2600.00
03734              10.00    -2800.00
03735               8.00    -2800.00
03736             -32.00    -2800.00
03737               6.00    -2800.00
03738              38.00    -2800.00
03739              10.00    -2800.00
03740             -18.00    -3000.00
03741              -6.00    -3000.00
03742               2.00    -3000.00
03743              16.00    -3000.00
03744               2.00    -3200.00
03745             -18.00    -3200.00
03746               6.00    -3200.00
03747              26.00    -3200.00
03748              -2.00    -3200.00
03749             -10.00    -3400.00
03750              16.00    -3200.00
03751              14.00    -3200.00
03752               2.00    -3400.00
03753               2.00    -3400.00
03754               0.00    -3600.00
03755               6.00    -3400.00
03756               8.00    -3600.00
03757               8.00    -3600.00
03758               6.00    -3600.00
03759               0.00    -3600.00
03760               4.00    -3600.00
03761              10.00    -3800.00
03762               2.00    -3800.00
03763              -2.00    -3600.00
03764              14.00    -3800.00
03765              16.00    -3800.00
03766               2.00    -3800.00
03767               0.00    -3800.00
03768               6.00    -3800.00
03769               8.00    -3800.00
03770               6.00    -3800.00
03771              10.00    -3800.00
03772              10.00    -4000.00
03773               6.00    -3800.00
03774              -2.00    -3800.00
03775               0.00    -4000.00
03776              10.00    -3800.00
03777              14.00    -4000.00
03778              10.00    -4000.00
03779               8.00    -3800.00
03780               0.00    -4000.00
03781               0.00    -4000.00
03782               8.00    -3800.00
03783              14.00    -4000.00
03784              10.00    -3800.00
03785               6.00    -4000.00
03786               0.00    -4000.00
03787               2.00    -3800.00
03788               2.00    -4000.00
03789               2.00    -4000.00
03790              10.00    -3800.00
03791               8.00    -4000.00
03792               0.00    -3800.00
03793               0.00    -4000.00
03794               0.00    -3800.00
03795               6.00    -4000.00
03796              12.00    -3800.00
03797               8.00    -3800.00
03798               0.00    -3800.00
03799               0.00    -3800.00
03800               2.00    -3800.00
03801               8.00    -3800.00
03802               6.00    -3800.00
03803               0.00    -3800.00
03804               6.00    -3600.00
03805               6.00    -3600.00
03806               6.00    -3600.00
03807               8.00    -3800.00
03808               2.00    -3600.00
03809               0.00    -3600.00
03810               2.00    -3600.00
03811               6.00    -3600.00
03812               8.00    -3600.00
03813               6.00    -3600.00
03814               6.00    -3400.00
03815               6.00    -3400.00
03816               6.00    -3400.00
03817               2.00    -3400.00
03818               2.00    -3400.00
03819               6.00    -3200.00
03820               8.00    -3200.00
03821               2.00    -3200.00
03822               0.00    -3200.00
03823              -4.00    -3200.00
03824               6.00    -3200.00
03825               8.00    -3000.00
03826               6.00    -3200.00
03827               0.00    -3000.00
03828               0.00    -2800.00
03829               2.00    -2800.00
03830               8.00    -2800.00
03831               8.00    -2800.00
03832               6.00    -2800.00
03833               0.00    -2800.00
03834              -2.00    -2800.00
03835              -2.00    -2600.00
03836               8.00    -2400.00
03837               8.00    -2400.00
03838               6.00    -2400.00
03839               0.00    -2400.00
03840               0.00    -2400.00
03841               0.00    -2400.00
03842               0.00    -2200.00
03843               6.00    -2200.00
03844               6.00    -2200.00
03845               2.00    -2200.00
03846               0.00    -2000.00
03847              -2.00    -2000.00
03848               0.00    -1800.00
03849               6.00    -1800.00
03850               4.00    -2000.00
03851               2.00    -1600.00
03852              -2.00    -1600.00
03853              -8.00    -1600.00
03854              -6.00    -1400.00
03855              -2.00    -1000.00
03856               0.00    -1400.00
03857               2.00    -1200.00
03858               2.00    -1000.00
03859              -2.00    -1200.00
03860              -6.00    -1000.00
03861              -2.00    -1000.00
03862               0.00     -800.00
03863               0.00     -800.00
03864               0.00     -800.00
03865              -2.00     -800.00
03866              -2.00     -800.00
03867              -2.00     -600.00
03868              -6.00     -600.00
03869              -2.00     -400.00
03870              -2.00     -600.00
03871              -2.00     -400.00
03872               0.00     -200.00
03873              -2.00     -400.00
03874              -6.00     -400.00
03875              -2.00     -200.00
03876              -4.00        0.00
03877              -2.00        0.00
03878              -6.00        0.00
03879              -2.00      200.00
03880               0.00      200.00
03881               2.00      400.00
03882              -2.00      200.00
03883               2.00      400.00
03884               0.00      400.00
03885              -6.00      400.00
03886              -6.00      400.00
03887              -2.00      600.00
03888               8.00      600.00
03889             106.00     1000.00
03890             158.00     1000.00
03891            -210.00      800.00
03892            -254.00      800.00
03893             156.00     1200.00
03894             246.00     1400.00
03895              40.00     1200.00
03896            -254.00      800.00
03897              46.00     1600.00
03898             246.00     1600.00
03899            -224.00     1200.00
03900            -254.00     1600.00
03901             246.00     1800.00
03902             246.00     1600.00
03903            -254.00     1400.00
03904             -74.00     2000.00
03905             210.00     1800.00
03906            -122.00     1600.00
03907               0.00     2000.00
03908             144.00     2000.00
03909            -178.00     2000.00
03910             -16.00     2000.00
03911             128.00     2400.00
03912            -104.00     2200.00
03913              10.00     2400.00
03914              62.00     2600.00
03915            -160.00     2400.00
03916              86.00     2600.00
03917             122.00     2600.00
03918            -226.00     2400.00
03919               8.00     2800.00
03920             160.00     2800.00
03921            -130.00     2600.00
03922             -22.00     3000.00
03923              74.00     2800.00
03924             -80.00     3000.00
03925              20.00     3000.00
03926              18.00     3200.00
03927             -86.00     3200.00
03928              32.00     3200.00
03929              -2.00     3200.00
03930             -48.00     3200.00
03931              50.00     3400.00
03932             -34.00     3400.00
03933             -54.00     3400.00
03934              40.00     3400.00
03935             -22.00     3400.00
03936             -38.00     3600.00
03937              22.00     3600.00
03938             -14.00     3600.00
03939             -32.00     3600.00
03940             -10.00     3600.00
03941              -6.00     3600.00
03942               0.00     3800.00
03943             -16.00     4000.00
03944             -24.00     3600.00
03945              -2.00     4000.00
03946             -10.00     3800.00
03947             -26.00     4000.00
03948               0.00     4000.00
03949               2.00     4000.00
03950             -26.00     4000.00
03951             -16.00     4200.00
03952               0.00     4000.00
03953             -24.00     4000.00
03954             -14.00     4000.00
03955               0.00     4200.00
03956              -8.00     4200.00
03957             -10.00     4200.00
03958             -18.00     4200.00
03959             -14.00     4200.00
03960              -6.00     4200.00
03961             -18.00     4200.00
03962             -10.00     4200.00
03963               0.00     4400.00
03964             -16.00     4400.00
03965             -22.00     4200.00
03966              -8.00     4200.00
03967             -10.00     4200.00
03968             -18.00     4400.00
03969              -8.00     4400.00
03970             -10.00     4400.00
03971             -16.00     4400.00
03972             -16.00     4400.00
03973             -16.00     4400.00
03974             -10.00     4400.00
03975             -10.00     4200.00
03976             -14.00     4400.00
03977              -8.00     4400.00
03978              -8.00     4400.00
03979             -18.00     4400.00
03980             -16.00     4400.00
03981             -14.00     4200.00
03982             -14.00     4400.00
03983             -10.00     4400.00
03984             -10.00     4400.00
03985             -16.00     4400.00
03986             -16.00     4400.00
03987             -14.00     4200.00
03988             -14.00     4400.00
03989             -10.00     4200.00
03990             -10.00     4200.00
03991             -12.00     4200.00
03992             -14.00     4200.00
03993             -18.00     4200.00
03994             -14.00     4200.00
03995             -10.00     4200.00
03996             -14.00     4000.00
03997             -10.00     4200.00
03998             -10.00     4000.00
03999             -16.00     4000.00
04000             -18.00     4000.00
04001             -14.00     4000.00
04002             -10.00     4000.00
04003             -10.00     4000.00
04004             -10.00     4000.00
04005             -12.00     4000.00
04006             -16.00     4000.00
04007             -16.00     3600.00
04008             -12.00     3600.00
04009              -8.00     3600.00
04010             -10.00     3600.00
04011             -14.00     3600.00
04012             -14.00     3600.00
04013             -12.00     3600.00
04014             -14.00     3600.00
04015             -10.00     3400.00
04016              -8.00     3400.00
04017             -12.00     3400.00
04018             -14.00     3400.00
04019             -10.00     3400.00
04020             -14.00     3400.00
04021             -10.00     3200.00
04022              -8.00     3200.00
04023              -8.00     3200.00
04024              -8.00     3200.00
04025             -10.00     3200.00
04026             -14.00     3200.00
04027              -8.00     3000.00
04028             -10.00     2800.00
04029              -8.00     2800.00
04030              -8.00     2800.00
04031              -8.00     2800.00
04032             -12.00     2600.00
04033              -6.00     2600.00
04034              -6.00     2600.00
04035              -8.00     2600.00
04036             -10.00     2600.00
04037              -8.00     2400.00
04038              -8.00     2400.00
04039             -10.00     2400.00
04040              -8.00     2200.00
04041              -6.00     2200.00
04042             -10.00     2200.00
04043              -6.00     2000.00
04044               0.00     2000.00
04045              -8.00     2000.00
04046             -14.00     1800.00
04047             -12.00     1800.00
04048              -8.00     1600.00
04049              -6.00     1600.00
04050              -6.00     1600.00
04051               0.00     1600.00
04052               0.00     1600.00
04053             -16.00     1400.00
04054             -24.00     1200.00
04055             -16.00     1200.00
04056               0.00     1200.00
04057              14.00     1200.00
04058               6.00     1000.00
04059             -18.00     1000.00
04060             -26.00      800.00
04061              -8.00      800.00
04062              12.00      800.00
04063              10.00      800.00
04064             -10.00      800.00
04065             -22.00      600.00
04066              -8.00      600.00
04067               0.00      400.00
04068              -2.00      400.00
04069              -2.00      400.00
04070              -6.00      400.00
04071              -2.00      200.00
04072              -2.00        0.00
04073               0.00      200.00
04074               2.00        0.00
04075               8.00        0.00
04076              -2.00        0.00
04077              -8.00     -200.00
04078              -6.00     -200.00
04079               0.00     -400.00
04080              22.00     -400.00
04081             110.00     -400.00
04082             128.00     -600.00
04083            -174.00     -800.00
04084            -254.00     -800.00
04085              80.00     -400.00
04086             246.00     -600.00
04087             164.00     -800.00
04088            -254.00     -800.00
04089             -90.00    -1000.00
04090             246.00    -1200.00
04091             -24.00    -1000.00
04092            -254.00    -1200.00
04093              96.00    -1200.00
04094             246.00    -1400.00
04095            -104.00    -1200.00
04096             -74.00    -1600.00
04097              -2.00    -1600.00
04098             -98.00    -1400.00
04099             102.00    -1600.00
04100             178.00    -1800.00
04101            -174.00    -1600.00
04102            -100.00    -2000.00
04103             144.00    -2000.00
04104              32.00    -1800.00
04105             -48.00    -2000.00
04106             -26.00    -2200.00
04107             -26.00    -2000.00
04108              78.00    -2000.00
04109              78.00    -2400.00
04110            -130.00    -2400.00
04111             -34.00    -2400.00
04112             102.00    -2600.00
04113               4.00    -2400.00
04114             -46.00    -2400.00
04115              10.00    -2600.00
04116              10.00    -2600.00
04117              10.00    -2800.00
04118              14.00    -2600.00
04119             -32.00    -3000.00
04120              -2.00    -2800.00
04121              32.00    -3000.00
04122              14.00    -3000.00
04123             -14.00    -3000.00
04124             -10.00    -3000.00
04125              -2.00    -3000.00
04126              16.00    -3000.00
04127               8.00    -3200.00
04128             -14.00    -3200.00
04129               8.00    -3200.00
04130              26.00    -3200.00
04131             -10.00    -3200.00
04132             -22.00    -3200.00
04133              14.00    -3400.00
04134              18.00    -3200.00
04135               6.00    -3400.00
04136               0.00    -3600.00
04137              -2.00    -3600.00
04138               0.00    -3600.00
04139               6.00    -3600.00
04140               8.00    -3600.00
04141               6.00    -3600.00
04142               2.00    -3600.00
04143               4.00    -3800.00
04144              10.00    -3800.00
04145               6.00    -3800.00
04146               0.00    -3600.00
04147               8.00    -3800.00
04148              10.00    -3800.00
04149               0.00    -3800.00
04150               6.00    -4000.00
04151              12.00    -3800.00
04152               8.00    -3800.00
04153               2.00    -3800.00
04154               2.00    -4000.00
04155               8.00    -3800.00
04156               8.00    -3800.00
04157               2.00    -3800.00
04158               2.00    -4000.00
04159               6.00    -3800.00
04160               6.00    -3800.00
04161              10.00    -4000.00
04162              10.00    -4000.00
04163               6.00    -4000.00
04164               0.00    -4000.00
04165               8.00    -4000.00
04166              10.00    -4000.00
04167               8.00    -3800.00
04168              10.00    -3800.00
04169               8.00    -3800.00
04170               4.00    -4000.00
04171               2.00    -4000.00
04172               6.00    -4000.00
04173              10.00    -3800.00
04174              10.00    -4000.00
04175               6.00    -3800.00
04176               6.00    -3800.00
04177               8.00    -4000.00
04178               0.00    -3800.00
04179              -2.00    -3800.00
04180              10.00    -3800.00
04181              10.00    -4000.00
04182              12.00    -4000.00
04183               6.00    -3800.00
04184              -6.00    -3800.00
04185               6.00    -3800.00
04186              14.00    -3800.00
04187               4.00    -3600.00
04188               2.00    -3800.00
04189               6.00    -3800.00
04190               8.00    -3800.00
04191               6.00    -3800.00
04192               0.00    -3600.00
04193               0.00    -3600.00
04194               8.00    -3600.00
04195               6.00    -3600.00
04196               0.00    -3600.00
04197               6.00    -3400.00
04198               0.00    -3600.00
04199               2.00    -3400.00
04200               6.00    -3200.00
04201              10.00    -3400.00
04202               2.00    -3200.00
04203               0.00    -3200.00
04204               0.00    -3200.00
04205               2.00    -3200.00
04206               4.00    -3000.00
04207               2.00    -3000.00
04208               6.00    -3000.00
04209               8.00    -3000.00
04210               0.00    -3000.00
04211               0.00    -3000.00
04212               0.00    -2800.00
04213               6.00    -2800.00
04214               8.00    -2800.00
04215               8.00    -2600.00
04216               6.00    -2800.00
04217               0.00    -2600.00
04218               0.00    -2600.00
04219               2.00    -2400.00
04220               6.00    -2400.00
04221               2.00    -2400.00
04222               4.00    -2400.00
04223               2.00    -2200.00
04224               2.00    -2200.00
04225               2.00    -2200.00
04226               6.00    -2200.00
04227               2.00    -2200.00
04228               2.00    -2000.00
04229               2.00    -2000.00
04230               2.00    -2000.00
04231               6.00    -2000.00
04232               4.00    -2000.00
04233               0.00    -1600.00
04234               0.00    -1800.00
04235               2.00    -1600.00
04236               2.00    -1600.00
04237               0.00    -1600.00
04238               0.00    -1400.00
04239               2.00    -1400.00
04240               0.00    -1000.00
04241              -2.00    -1400.00
04242              -2.00    -1400.00
04243               0.00    -1000.00
04244               2.00    -1000.00
04245               0.00    -1000.00
04246              -2.00    -1000.00
04247              -2.00     -800.00
04248              -2.00     -800.00
04249               0.00     -800.00
04250               0.00     -600.00
04251               0.00     -600.00
04252              -6.00     -600.00
04253              -6.00     -600.00
04254              -4.00     -400.00
04255              -2.00     -400.00
04256              -2.00     -400.00
04257               0.00        0.00
04258               2.00        0.00
04259               0.00        0.00
04260              -8.00      200.00
04261             -10.00      200.00
04262              -6.00      200.00
04263               2.00      200.00
04264               6.00      200.00
04265              -2.00      400.00
04266               2.00      400.00
04267               0.00      400.00
04268              -2.00      400.00
04269              -2.00      600.00
04270              -2.00      600.00
04271               0.00      800.00
04272              90.00      800.00
04273             164.00     1000.00
04274            -170.00     1000.00
04275            -254.00      800.00
04276             104.00     1000.00
04277             246.00     1200.00
04278             112.00     1200.00
04279            -254.00      800.00
04280             -14.00     1400.00
04281             246.00     1600.00
04282            -160.00     1200.00
04283            -254.00     1400.00
04284             246.00     1800.00
04285             246.00     1600.00
04286            -254.00     1400.00
04287            -106.00     1800.00
04288             214.00     1800.00
04289            -114.00     1800.00
04290             -18.00     1800.00
04291             154.00     2000.00
04292            -162.00     2000.00
04293             -34.00     2000.00
04294             130.00     2400.00
04295             -98.00     2000.00
04296              -2.00     2400.00
04297              78.00     2400.00
04298            -154.00     2400.00
04299              64.00     2600.00
04300             138.00     2600.00
04301            -214.00     2600.00
04302             -10.00     2800.00
04303             176.00     2800.00
04304            -118.00     2800.00
04305             -40.00     2800.00
04306              74.00     2800.00
04307             -80.00     2800.00
04308              16.00     3000.00
04309              34.00     3200.00
04310             -80.00     3000.00
04311              28.00     3200.00
04312              -2.00     3200.00
04313             -58.00     3200.00
04314              50.00     3200.00
04315             -18.00     3200.00
04316             -56.00     3400.00
04317              34.00     3600.00
04318             -20.00     3400.00
04319             -42.00     3600.00
04320              24.00     3600.00
04321              -6.00     3600.00
04322             -32.00     3600.00
04323             -14.00     3600.00
04324              -8.00     3600.00
04325              -2.00     3600.00
04326             -10.00     4000.00
04327             -24.00     3600.00
04328              -6.00     4000.00
04329              -8.00     4000.00
04330             -26.00     3800.00
04331              -6.00     4000.00
04332               2.00     4000.00
04333             -26.00     4000.00
04334             -16.00     4000.00
04335               2.00     4000.00
04336             -24.00     4000.00
04337             -18.00     4000.00
04338               0.00     4200.00
04339             -10.00     4200.00
04340             -16.00     4200.00
04341             -16.00     4200.00
04342             -14.00     4200.00
04343              -6.00     4200.00
04344             -18.00     4200.00
04345             -16.00     4200.00
04346               2.00     4400.00
04347             -16.00     4400.00
04348             -22.00     4400.00
04349              -6.00     4200.00
04350             -10.00     4400.00
04351             -16.00     4200.00
04352              -6.00     4400.00
04353              -8.00     4400.00
04354             -14.00     4400.00
04355             -16.00     4600.00
04356             -16.00     4200.00
04357              -8.00     4400.00
04358             -10.00     4400.00
04359             -16.00     4200.00
04360             -10.00     4400.00
04361             -10.00     4400.00
04362             -18.00     4400.00
04363             -16.00     4400.00
04364             -10.00     4400.00
04365             -12.00     4200.00
04366             -10.00     4400.00
04367             -10.00     4400.00
04368             -12.00     4400.00
04369             -16.00     4200.00
04370             -16.00     4400.00
04371             -10.00     4200.00
04372              -8.00     4200.00
04373             -10.00     4200.00
04374             -10.00     4200.00
04375             -22.00     4000.00
04376             -22.00     4000.00
04377             -12.00     4200.00
04378              -2.00     4000.00
04379              -6.00     4200.00
04380             -14.00     4000.00
04381             -22.00     4000.00
04382             -26.00     4000.00
04383             -14.00     4000.00
04384               0.00     4000.00
04385              -2.00     4000.00
04386             -14.00     4000.00
04387             -18.00     3800.00
04388             -16.00     4000.00
04389             -10.00     4000.00
04390              -6.00     4000.00
04391              -8.00     3800.00
04392             -12.00     3600.00
04393             -24.00     3800.00
04394             -24.00     3600.00
04395              -2.00     3600.00
04396               8.00     3600.00
04397              -8.00     3400.00
04398             -22.00     3400.00
04399             -26.00     3400.00
04400             -16.00     3400.00
04401              -2.00     3400.00
04402               0.00     3400.00
04403             -10.00     3200.00
04404             -16.00     3200.00
04405             -12.00     3200.00
04406              -8.00     3200.00
04407              -8.00     3200.00
04408             -14.00     3000.00
04409             -10.00     3000.00
04410              -6.00     2800.00
04411             -10.00     2800.00
04412             -14.00     2800.00
04413             -12.00     2800.00
04414              -6.00     2800.00
04415              -8.00     2800.00
04416              -8.00     2600.00
04417              -8.00     2600.00
04418              -8.00     2600.00
04419              -6.00     2400.00
04420              -6.00     2400.00
04421              -8.00     2400.00
04422             -16.00     2400.00
04423             -10.00     2400.00
04424             -10.00     2200.00
04425              -2.00     2000.00
04426              -6.00     2000.00
04427              -2.00     2000.00
04428              -8.00     2000.00
04429             -10.00     1800.00
04430             -10.00     1800.00
04431              -2.00     1600.00
04432               0.00     1600.00
04433              -2.00     1600.00
04434              -8.00     1600.00
04435             -10.00     1400.00
04436             -10.00     1600.00
04437              -6.00     1200.00
04438              -2.00     1200.00
04439               0.00     1200.00
04440              -6.00     1000.00
04441             -10.00     1000.00
04442             -10.00     1000.00
04443             -10.00     1000.00
04444              -4.00      800.00
04445               2.00     1000.00
04446               0.00      800.00
04447              -6.00      600.00
04448             -10.00      600.00
04449             -10.00      400.00
04450              -2.00      600.00
04451              -2.00      400.00
04452              -8.00      400.00
04453              -8.00      200.00
04454              -2.00      200.00
04455               0.00        0.00
04456               0.00      200.00
04457               4.00        0.00
04458               2.00        0.00
04459              -2.00     -200.00
04460              -6.00        0.00
04461              -2.00     -400.00
04462               2.00     -400.00
04463              16.00     -400.00
04464              90.00     -400.00
04465             136.00     -600.00
04466            -142.00     -800.00
04467            -254.00     -600.00
04468              30.00     -400.00
04469             246.00     -800.00
04470             224.00    -1000.00
04471            -254.00     -800.00
04472            -150.00     -800.00
04473             246.00    -1200.00
04474              40.00    -1000.00
04475            -254.00    -1200.00
04476              54.00    -1200.00
04477             246.00    -1200.00
04478             -94.00    -1200.00
04479             -86.00    -1400.00
04480               8.00    -1600.00
04481             -90.00    -1400.00
04482              88.00    -1600.00
04483             184.00    -1600.00
04484            -170.00    -1800.00
04485            -120.00    -2000.00
04486             136.00    -2000.00
04487              54.00    -1800.00
04488             -40.00    -2000.00
04489             -26.00    -2200.00
04490             -38.00    -2000.00
04491              60.00    -2200.00
04492              82.00    -2400.00
04493            -118.00    -2200.00
04494             -34.00    -2200.00
04495             106.00    -2400.00
04496              14.00    -2400.00
04497             -56.00    -2400.00
04498               8.00    -2600.00
04499              14.00    -2600.00
04500              14.00    -2800.00
04501              18.00    -2800.00
04502             -32.00    -2800.00
04503              -8.00    -2800.00
04504              30.00    -2800.00
04505              14.00    -3000.00
04506             -14.00    -3000.00
04507              -6.00    -3000.00
04508               6.00    -3000.00
04509              16.00    -3000.00
04510              10.00    -3000.00
04511             -16.00    -3200.00
04512               4.00    -3200.00
04513              26.00    -3400.00
04514              -6.00    -3200.00
04515             -22.00    -3200.00
04516              14.00    -3600.00
04517              22.00    -3400.00
04518               6.00    -3600.00
04519               0.00    -3600.00
04520              -2.00    -3400.00
04521               0.00    -3600.00
04522               6.00    -3600.00
04523               8.00    -3600.00
04524               8.00    -3600.00
04525               2.00    -3600.00
04526               0.00    -3600.00
04527               8.00    -3800.00
04528               2.00    -3600.00
04529              -2.00    -3800.00
04530              12.00    -3800.00
04531              14.00    -3800.00
04532               4.00    -3800.00
04533               0.00    -3800.00
04534               6.00    -3800.00
04535               6.00    -3800.00
04536               0.00    -3800.00
04537               2.00    -4000.00
04538              12.00    -4000.00
04539               8.00    -4000.00
04540               2.00    -3800.00
04541               4.00    -4000.00
04542               6.00    -4000.00
04543               4.00    -4000.00
04544               8.00    -4000.00
04545              14.00    -4000.00
04546               4.00    -3800.00
04547               2.00    -4000.00
04548               6.00    -3800.00
04549               8.00    -3800.00
04550               8.00    -3800.00
04551               6.00    -3800.00
04552              10.00    -3800.00
04553               8.00    -4000.00
04554               6.00    -4000.00
04555               6.00    -3800.00
04556               8.00    -4000.00
04557               8.00    -4000.00
04558               6.00    -3800.00
04559               8.00    -4000.00
04560               8.00    -3800.00
04561               2.00    -3800.00
04562               6.00    -3800.00
04563              10.00    -3800.00
04564               6.00    -4000.00
04565               8.00    -3800.00
04566               8.00    -3800.00
04567               6.00    -3800.00
04568               4.00    -3800.00
04569               6.00    -3600.00
04570               6.00    -3800.00
04571               8.00    -3600.00
04572               6.00    -3600.00
04573               0.00    -3600.00
04574               6.00    -3600.00
04575               4.00    -3600.00
04576               6.00    -3600.00
04577               8.00    -3600.00
04578               6.00    -3600.00
04579               2.00    -3600.00
04580               4.00    -3600.00
04581               6.00    -3600.00
04582               6.00    -3400.00
04583               6.00    -3400.00
04584               8.00    -3400.00
04585               6.00    -3200.00
04586               2.00    -3200.00
04587               6.00    -3200.00
04588               6.00    -3200.00
04589               2.00    -3200.00
04590               4.00    -3000.00
04591               8.00    -3000.00
04592               6.00    -3000.00
04593               2.00    -3200.00
04594               0.00    -2800.00
04595               2.00    -3000.00
04596               6.00    -2800.00
04597               4.00    -2800.00
04598               6.00    -2800.00
04599               6.00    -2800.00
04600               0.00    -2800.00
04601               0.00    -2600.00
04602               6.00    -2600.00
04603               6.00    -2400.00
04604               6.00    -2400.00
04605               6.00    -2400.00
04606               2.00    -2400.00
04607               2.00    -2200.00
04608               2.00    -2200.00
04609               2.00    -2200.00
04610               2.00    -2200.00
04611               2.00    -2000.00
04612               6.00    -2000.00
04613               6.00    -2000.00
04614               2.00    -2000.00
04615              -2.00    -2000.00
04616               0.00    -1600.00
04617               6.00    -1600.00
04618               8.00    -1600.00
04619               0.00    -1600.00
04620              -2.00    -1400.00
04621              -2.00    -1600.00
04622               0.00    -1400.00
04623               6.00    -1400.00
04624               6.00    -1000.00
04625              -2.00    -1200.00
04626              -6.00    -1000.00
04627               0.00    -1000.00
04628               6.00    -1000.00
04629               8.00     -800.00
04630               0.00     -800.00
04631              -2.00     -800.00
04632              -8.00     -800.00
04633              -2.00     -800.00
04634               2.00     -600.00
04635               2.00     -600.00
04636              -2.00     -400.00
04637              -6.00     -400.00
04638              -2.00     -400.00
04639               0.00     -400.00
04640               0.00     -200.00
04641              -2.00        0.00
04642              -6.00        0.00
04643              -2.00        0.00
04644              -2.00        0.00
04645               0.00      200.00
04646              -2.00      200.00
04647              -2.00      200.00
04648              -2.00      200.00
04649               8.00      400.00
04650               8.00      400.00
04651              -2.00      400.00
04652             -10.00      400.00
04653             -10.00      600.00
04654               2.00      600.00
04655              92.00      800.00
04656             176.00     1000.00
04657            -144.00     1000.00
04658            -254.00      400.00
04659              52.00     1000.00
04660             246.00     1400.00
04661             190.00     1200.00
04662            -254.00      800.00
04663             -82.00     1400.00
04664             246.00     1600.00
04665             -82.00     1400.00
04666            -254.00     1400.00
04667             244.00     1800.00
04668             246.00     1600.00
04669            -254.00     1400.00
04670            -138.00     2000.00
04671             230.00     1800.00
04672            -102.00     1800.00
04673             -38.00     1800.00
04674             156.00     2000.00
04675            -152.00     2000.00
04676             -48.00     2000.00
04677             142.00     2200.00
04678             -86.00     2000.00
04679             -20.00     2400.00
04680              84.00     2400.00
04681            -154.00     2400.00
04682              44.00     2600.00
04683             158.00     2600.00
04684            -202.00     2600.00
04685             -36.00     2800.00
04686             184.00     2800.00
04687            -106.00     2600.00
04688             -50.00     2800.00
04689              78.00     2800.00
04690             -74.00     2800.00
04691               2.00     3200.00
04692              44.00     3200.00
04693             -78.00     3200.00
04694              24.00     3200.00
04695               4.00     3400.00
04696             -56.00     3200.00
04697              46.00     3200.00
04698             -14.00     3400.00
04699             -62.00     3200.00
04700              36.00     3400.00
04701             -10.00     3400.00
04702             -46.00     3400.00
04703              24.00     3600.00
04704              -6.00     3600.00
04705             -34.00     3600.00
04706             -18.00     3800.00
04707              -4.00     3600.00
04708               6.00     3600.00
04709              -8.00     3800.00
04710             -26.00     3800.00
04711             -14.00     4000.00
04712             -10.00     4000.00
04713             -26.00     4000.00
04714              -2.00     3800.00
04715               6.00     4000.00
04716             -28.00     4000.00
04717             -20.00     4000.00
04718               2.00     4200.00
04719             -22.00     4000.00
04720             -22.00     4000.00
04721               0.00     4200.00
04722             -10.00     4200.00
04723             -14.00     4200.00
04724             -16.00     4200.00
04725             -16.00     4200.00
04726              -6.00     4200.00
04727             -18.00     4200.00
04728             -22.00     4400.00
04729              -2.00     4400.00
04730             -14.00     4200.00
04731             -20.00     4200.00
04732              -6.00     4200.00
04733             -10.00     4400.00
04734             -16.00     4400.00
04735             -10.00     4400.00
04736             -10.00     4200.00
04737             -16.00     4400.00
04738             -14.00     4400.00
04739             -10.00     4400.00
04740              -8.00     4400.00
04741             -10.00     4400.00
04742             -16.00     4200.00
04743             -10.00     4200.00
04744              -8.00     4200.00
04745             -18.00     4400.00
04746             -14.00     4200.00
04747             -10.00     4400.00
04748             -14.00     4400.00
04749              -8.00     4400.00
04750              -6.00     4200.00
04751             -14.00     4400.00
04752             -16.00     4200.00
04753             -14.00     4400.00
04754             -12.00     4200.00
04755              -8.00     4200.00
04756              -8.00     4200.00
04757             -12.00     4200.00
04758             -16.00     4200.00
04759             -18.00     4000.00
04760             -16.00     4200.00
04761              -8.00     4200.00
04762             -10.00     4000.00
04763             -10.00     4000.00
04764              -8.00     4000.00
04765             -16.00     4000.00
04766             -18.00     4000.00
04767             -14.00     4000.00
04768              -8.00     3800.00
04769              -8.00     4000.00
04770             -10.00     4000.00
04771             -10.00     3800.00
04772             -10.00     3800.00
04773             -16.00     3800.00
04774             -14.00     3800.00
04775             -10.00     3800.00
04776             -10.00     3600.00
04777             -10.00     3600.00
04778             -10.00     3600.00
04779             -10.00     3600.00
04780             -18.00     3600.00
04781             -14.00     3400.00
04782             -10.00     3200.00
04783             -10.00     3400.00
04784             -10.00     3200.00
04785              -8.00     3400.00
04786             -10.00     3400.00
04787             -16.00     3200.00
04788             -14.00     3200.00
04789              -8.00     3200.00
04790             -10.00     3200.00
04791             -10.00     3000.00
04792             -10.00     2800.00
04793              -8.00     3000.00
04794             -14.00     3000.00
04795              -8.00     2800.00
04796              -8.00     2800.00
04797              -8.00     2800.00
04798             -14.00     2800.00
04799             -10.00     2600.00
04800              -6.00     2600.00
04801              -8.00     2600.00
04802             -10.00     2600.00
04803              -8.00     2200.00
04804             -10.00     2400.00
04805             -10.00     2400.00
04806              -8.00     2400.00
04807              -6.00     2000.00
04808              -6.00     2200.00
04809              -8.00     2000.00
04810             -10.00     2000.00
04811              -8.00     2000.00
04812             -10.00     1800.00
04813              -8.00     1600.00
04814              -6.00     1800.00
04815              -6.00     1600.00
04816              -6.00     1600.00
04817              -6.00     1600.00
04818              -6.00     1400.00
04819              -6.00     1600.00
04820              -8.00     1200.00
04821              -4.00     1200.00
04822              -2.00     1200.00
04823              -6.00     1200.00
04824              -6.00     1000.00
04825              -6.00     1000.00
04826              -6.00     1000.00
04827              -8.00     1000.00
04828              -4.00      800.00
04829               0.00      800.00
04830              -2.00      800.00
04831              -6.00      400.00
04832              -6.00      600.00
04833              -6.00      400.00
04834              -6.00      400.00
04835              -6.00      400.00
04836              -6.00      200.00
04837              -2.00      200.00
04838              -2.00      400.00
04839              -2.00      200.00
04840               2.00      200.00
04841               6.00        0.00
04842               0.00        0.00
04843              -8.00        0.00
04844              -6.00     -400.00
04845               0.00     -400.00
04846              16.00     -400.00
04847              88.00     -400.00
04848             136.00     -600.00
04849            -120.00    -1000.00
04850            -254.00     -800.00
04851             -18.00     -400.00
04852             246.00     -600.00
04853             246.00    -1000.00
04854            -254.00    -1000.00
04855            -210.00     -800.00
04856             246.00    -1200.00
04857             102.00    -1000.00
04858            -254.00    -1000.00
04859               8.00    -1200.00
04860             246.00    -1400.00
04861             -78.00    -1200.00
04862            -100.00    -1400.00
04863              14.00    -1600.00
04864             -90.00    -1400.00
04865              70.00    -1600.00
04866             194.00    -1800.00
04867            -156.00    -1600.00
04868            -134.00    -2000.00
04869             136.00    -2000.00
04870              66.00    -1800.00
04871             -50.00    -2000.00
04872             -34.00    -2200.00
04873             -40.00    -2200.00
04874              62.00    -2200.00
04875             102.00    -2200.00
04876            -108.00    -2400.00
04877             -52.00    -2200.00
04878              98.00    -2600.00
04879              20.00    -2200.00
04880             -58.00    -2400.00
04881               8.00    -2600.00
04882              14.00    -2800.00
04883              16.00    -2600.00
04884              22.00    -2800.00
04885             -30.00    -2800.00
04886             -12.00    -2800.00
04887              28.00    -2800.00
04888              18.00    -2800.00
04889             -10.00    -3000.00
04890               0.00    -3000.00
04891               2.00    -3000.00
04892              14.00    -3000.00
04893               2.00    -3000.00
04894             -14.00    -3200.00
04895               6.00    -3200.00
04896              30.00    -3200.00
04897               0.00    -3400.00
04898             -22.00    -3200.00
04899               8.00    -3400.00
04900              16.00    -3400.00
04901               6.00    -3200.00
04902               2.00    -3400.00
04903               2.00    -3600.00
04904               2.00    -3600.00
04905               6.00    -3600.00
04906               6.00    -3600.00
04907               6.00    -3600.00
04908               2.00    -3600.00
04909               4.00    -3800.00
04910              14.00    -3800.00
04911               2.00    -3600.00
04912              -6.00    -3800.00
04913               8.00    -3800.00
04914              10.00    -3800.00
04915               6.00    -3800.00
04916               0.00    -3800.00
04917               8.00    -4000.00
04918               6.00    -3800.00
04919               2.00    -3800.00
04920               2.00    -3800.00
04921               8.00    -3800.00
04922              14.00    -4000.00
04923               6.00    -3800.00
04924               6.00    -4000.00
04925               0.00    -4000.00
04926               2.00    -4000.00
04927               8.00    -4000.00
04928              14.00    -4000.00
04929               6.00    -4000.00
04930               0.00    -4000.00
04931               0.00    -4000.00
04932               6.00    -4000.00
04933              10.00    -3800.00
04934              10.00    -4000.00
04935               8.00    -3800.00
04936               6.00    -4000.00
04937               2.00    -3800.00
04938               6.00    -4000.00
04939              10.00    -4000.00
04940              10.00    -3800.00
04941               8.00    -4000.00
04942               8.00    -4000.00
04943               6.00    -4000.00
04944               2.00    -3800.00
04945               6.00    -3800.00
04946              10.00    -3800.00
04947               8.00    -3800.00
04948               8.00    -3800.00
04949               8.00    -4000.00
04950               2.00    -3600.00
04951               4.00    -3800.00
04952               6.00    -3800.00
04953               8.00    -3800.00
04954               8.00    -3800.00
04955               6.00    -3600.00
04956               6.00    -3600.00
04957               6.00    -3600.00
04958               2.00    -3600.00
04959               6.00    -3600.00
04960               8.00    -3600.00
04961               6.00    -3400.00
04962               4.00    -3600.00
04963               4.00    -3600.00
04964               0.00    -3600.00
04965               2.00    -3200.00
04966               4.00    -3200.00
04967               6.00    -3200.00
04968               4.00    -3200.00
04969               2.00    -3200.00
04970               6.00    -3200.00
04971               2.00    -3200.00
04972               6.00    -3200.00
04973               2.00    -3200.00
04974               6.00    -3000.00
04975               4.00    -3000.00
04976               0.00    -3200.00
04977               0.00    -3000.00
04978               4.00    -3000.00
04979               0.00    -3000.00
04980               4.00    -2800.00
04981               0.00    -2600.00
04982               6.00    -2800.00
04983               2.00    -2800.00
04984              -2.00    -2800.00
04985               0.00    -2600.00
04986               6.00    -2600.00
04987               6.00    -2400.00
04988               2.00    -2400.00
04989               0.00    -2400.00
04990               0.00    -2400.00
04991               2.00    -2400.00
04992               8.00    -2200.00
04993               6.00    -2200.00
04994               0.00    -2200.00
04995               0.00    -2000.00
04996               0.00    -2000.00
04997               0.00    -2000.00
04998               2.00    -1800.00
04999               2.00    -1800.00
05000               4.00    -1600.00
