Unit:(mV)
                     CH1         CH2
Frequency              ? 261.062 kHz
00001               0.00    -2800.00
00002               6.00    -2800.00
00003              -8.00    -2800.00
00004             -10.00    -2600.00
00005               0.00    -2600.00
00006              -8.00    -2600.00
00007               2.00    -2400.00
00008               6.00    -2400.00
00009              -6.00    -2400.00
00010               4.00    -2400.00
00011              -2.00    -2200.00
00012             -14.00    -2400.00
00013               0.00    -2200.00
00014              -2.00    -2200.00
00015               8.00    -2200.00
00016              10.00    -2000.00
00017             -14.00    -2000.00
00018             -22.00    -2000.00
00019               2.00    -1600.00
00020              10.00    -2000.00
00021               6.00    -1600.00
00022               0.00    -1600.00
00023             -14.00    -1400.00
00024             -14.00    -1400.00
00025               2.00    -1600.00
00026              -2.00    -1400.00
00027               2.00    -1200.00
00028               4.00    -1000.00
00029              -6.00    -1200.00
00030              -4.00    -1000.00
00031              -6.00    -1200.00
00032              -8.00     -800.00
00033               0.00     -800.00
00034               2.00     -800.00
00035              -8.00     -800.00
00036              -6.00     -600.00
00037               0.00     -600.00
00038              -2.00     -600.00
00039               6.00     -400.00
00040              -6.00     -400.00
00041             -10.00     -600.00
00042               0.00     -200.00
00043              -4.00     -200.00
00044              -8.00     -400.00
00045              -2.00     -200.00
00046              -2.00        0.00
00047               0.00        0.00
00048               0.00        0.00
00049              -6.00      200.00
00050              -8.00      200.00
00051               0.00      200.00
00052               6.00      400.00
00053              14.00      400.00
00054               4.00      400.00
00055             -14.00      400.00
00056             -10.00      600.00
00057               0.00      800.00
00058              42.00      800.00
00059             166.00     1000.00
00060              48.00      800.00
00061            -254.00      800.00
00062            -254.00      800.00
00063             246.00     1200.00
00064             246.00     1400.00
00065            -254.00     1000.00
00066            -254.00     1200.00
00067             246.00     1600.00
00068             246.00     1600.00
00069            -254.00     1000.00
00070            -178.00     1600.00
00071             246.00     1800.00
00072             -34.00     1600.00
00073            -254.00     1600.00
00074             144.00     2000.00
00075              50.00     1800.00
00076            -122.00     1800.00
00077             122.00     2000.00
00078               8.00     2000.00
00079            -158.00     2000.00
00080             108.00     2200.00
00081              18.00     2000.00
00082            -102.00     2400.00
00083             104.00     2600.00
00084             -50.00     2400.00
00085             -96.00     2600.00
00086             184.00     2600.00
00087             -48.00     2600.00
00088            -178.00     2800.00
00089             158.00     2800.00
00090              38.00     2800.00
00091            -130.00     2800.00
00092              70.00     2800.00
00093              -8.00     3000.00
00094             -56.00     3000.00
00095              74.00     3200.00
00096             -40.00     3000.00
00097             -28.00     3200.00
00098              44.00     3200.00
00099             -50.00     3200.00
00100               6.00     3400.00
00101              42.00     3400.00
00102             -58.00     3400.00
00103              10.00     3600.00
00104              30.00     3400.00
00105             -48.00     3400.00
00106               6.00     3600.00
00107              22.00     3600.00
00108             -16.00     3600.00
00109             -14.00     3800.00
00110             -10.00     3600.00
00111               6.00     3600.00
00112               8.00     3800.00
00113             -22.00     3800.00
00114              -6.00     3800.00
00115               6.00     4000.00
00116             -16.00     3800.00
00117             -10.00     4000.00
00118              12.00     4000.00
00119             -10.00     4000.00
00120             -16.00     4000.00
00121               6.00     4000.00
00122              -4.00     4200.00
00123             -16.00     4000.00
00124              -2.00     4200.00
00125               0.00     4200.00
00126               0.00     4200.00
00127              -8.00     4000.00
00128             -12.00     4200.00
00129               0.00     4200.00
00130              -6.00     4200.00
00131             -14.00     4200.00
00132               4.00     4200.00
00133               0.00     4400.00
00134             -16.00     4200.00
00135              -8.00     4400.00
00136              -2.00     4400.00
00137              -8.00     4200.00
00138              -2.00     4400.00
00139               0.00     4400.00
00140              -2.00     4400.00
00141              -8.00     4200.00
00142             -10.00     4400.00
00143              -6.00     4400.00
00144              -2.00     4400.00
00145              -4.00     4400.00
00146              -2.00     4400.00
00147               0.00     4400.00
00148             -10.00     4400.00
00149              -6.00     4200.00
00150              -2.00     4200.00
00151              -6.00     4400.00
00152              -2.00     4400.00
00153               0.00     4400.00
00154              -6.00     4400.00
00155             -10.00     4200.00
00156              -8.00     4200.00
00157              -2.00     4400.00
00158              -2.00     4200.00
00159              -2.00     4200.00
00160               0.00     4200.00
00161              -2.00     4200.00
00162             -14.00     4200.00
00163              -8.00     4000.00
00164               6.00     4000.00
00165              -2.00     4200.00
00166              -6.00     4000.00
00167              -8.00     4000.00
00168              -4.00     4000.00
00169              -6.00     4200.00
00170             -10.00     4000.00
00171              -2.00     4000.00
00172               0.00     3800.00
00173              -6.00     4000.00
00174              -6.00     3800.00
00175              -8.00     3800.00
00176             -14.00     3800.00
00177              -8.00     3800.00
00178              -2.00     3800.00
00179               0.00     3600.00
00180               0.00     3600.00
00181              -8.00     3600.00
00182             -10.00     3600.00
00183             -10.00     3400.00
00184             -10.00     3400.00
00185               2.00     3400.00
00186               0.00     3400.00
00187             -10.00     3400.00
00188             -14.00     3400.00
00189              -8.00     3200.00
00190               0.00     3200.00
00191               0.00     3200.00
00192              -2.00     3200.00
00193              -8.00     3200.00
00194              -8.00     3200.00
00195              -8.00     3000.00
00196              -2.00     3000.00
00197              -6.00     2800.00
00198              -6.00     2800.00
00199              -6.00     3000.00
00200              -2.00     2800.00
00201              -6.00     2800.00
00202              -2.00     2600.00
00203              -8.00     2600.00
00204              -8.00     2600.00
00205              -8.00     2400.00
00206              -2.00     2400.00
00207               0.00     2400.00
00208              -2.00     2400.00
00209              -8.00     2000.00
00210              -8.00     2200.00
00211              -6.00     2000.00
00212              -4.00     1800.00
00213              -2.00     2000.00
00214               2.00     2000.00
00215              -2.00     1800.00
00216              -8.00     1800.00
00217             -10.00     1800.00
00218              -6.00     1800.00
00219              -2.00     1600.00
00220              -2.00     1600.00
00221               0.00     1600.00
00222              -6.00     1400.00
00223             -10.00     1200.00
00224              -6.00     1200.00
00225               0.00     1200.00
00226               0.00     1000.00
00227              -2.00     1200.00
00228              -2.00     1000.00
00229              -8.00      800.00
00230              -8.00     1000.00
00231              -2.00      800.00
00232               2.00      800.00
00233              -2.00      800.00
00234              -2.00      600.00
00235              -8.00      400.00
00236              -8.00      400.00
00237              -2.00      400.00
00238               2.00      200.00
00239              -2.00      400.00
00240              -2.00      200.00
00241               0.00        0.00
00242              -2.00      200.00
00243              -2.00        0.00
00244               2.00     -200.00
00245               6.00        0.00
00246              -6.00        0.00
00247             -10.00     -200.00
00248              -6.00     -200.00
00249               6.00     -400.00
00250              38.00     -400.00
00251             138.00     -600.00
00252              40.00     -800.00
00253            -254.00     -800.00
00254            -254.00     -600.00
00255             246.00     -600.00
00256             246.00     -800.00
00257            -254.00    -1200.00
00258            -254.00     -800.00
00259             246.00    -1200.00
00260             246.00     -800.00
00261            -254.00    -1000.00
00262            -254.00    -1000.00
00263             246.00    -1200.00
00264             114.00    -1200.00
00265            -152.00    -1400.00
00266             -14.00    -1600.00
00267             -56.00    -1400.00
00268             -38.00    -1400.00
00269             194.00    -1800.00
00270               6.00    -1600.00
00271            -206.00    -1800.00
00272              18.00    -2000.00
00273             136.00    -2000.00
00274             -30.00    -2000.00
00275             -32.00    -2200.00
00276             -46.00    -2200.00
00277              -2.00    -2000.00
00278             102.00    -2200.00
00279             -24.00    -2400.00
00280            -114.00    -2200.00
00281              50.00    -2600.00
00282              80.00    -2400.00
00283             -56.00    -2400.00
00284             -24.00    -2400.00
00285               8.00    -2600.00
00286               8.00    -2600.00
00287              16.00    -2800.00
00288              -6.00    -2800.00
00289             -34.00    -2800.00
00290              14.00    -2800.00
00291              26.00    -3000.00
00292              -8.00    -3000.00
00293             -16.00    -3000.00
00294              -6.00    -3000.00
00295               8.00    -3000.00
00296               8.00    -3200.00
00297              -8.00    -3000.00
00298             -16.00    -3200.00
00299              16.00    -3200.00
00300              14.00    -3200.00
00301             -22.00    -3400.00
00302             -14.00    -3200.00
00303              16.00    -3600.00
00304               6.00    -3400.00
00305              -8.00    -3600.00
00306              -2.00    -3400.00
00307              -8.00    -3600.00
00308              -6.00    -3600.00
00309               2.00    -3600.00
00310               2.00    -3600.00
00311              -2.00    -3800.00
00312              -4.00    -3600.00
00313               0.00    -3800.00
00314               0.00    -3800.00
00315              -6.00    -3600.00
00316              -6.00    -3800.00
00317               6.00    -3800.00
00318               6.00    -3800.00
00319              -8.00    -3800.00
00320              -4.00    -4000.00
00321               2.00    -4000.00
00322              -2.00    -3800.00
00323               0.00    -4000.00
00324               0.00    -4000.00
00325               2.00    -4000.00
00326              -2.00    -4000.00
00327              -8.00    -4000.00
00328              -4.00    -4000.00
00329              -2.00    -4000.00
00330               0.00    -4000.00
00331               4.00    -4000.00
00332               2.00    -4000.00
00333              -6.00    -4000.00
00334              -6.00    -3800.00
00335               0.00    -4000.00
00336               0.00    -4000.00
00337               0.00    -4000.00
00338               0.00    -4000.00
00339               0.00    -4000.00
00340              -2.00    -4200.00
00341              -2.00    -3800.00
00342               0.00    -4000.00
00343               6.00    -4000.00
00344               0.00    -4000.00
00345               2.00    -3800.00
00346               0.00    -4000.00
00347              -8.00    -4000.00
00348              -4.00    -4000.00
00349               2.00    -4000.00
00350               0.00    -3800.00
00351               4.00    -3800.00
00352               2.00    -4000.00
00353              -2.00    -3800.00
00354              -2.00    -3800.00
00355              -2.00    -3800.00
00356               0.00    -3800.00
00357               6.00    -3800.00
00358               0.00    -3600.00
00359               0.00    -3800.00
00360               0.00    -3800.00
00361               0.00    -3600.00
00362               0.00    -3600.00
00363               0.00    -3800.00
00364              -2.00    -3600.00
00365               2.00    -3600.00
00366               2.00    -3600.00
00367              -2.00    -3400.00
00368              -8.00    -3400.00
00369              -8.00    -3600.00
00370               0.00    -3400.00
00371               2.00    -3600.00
00372               0.00    -3400.00
00373              -2.00    -3200.00
00374              -6.00    -3400.00
00375              -2.00    -3200.00
00376              -2.00    -3200.00
00377               0.00    -3200.00
00378               0.00    -3200.00
00379              -2.00    -3000.00
00380              -6.00    -3000.00
00381              -2.00    -3000.00
00382               0.00    -2800.00
00383               0.00    -2800.00
00384               6.00    -2800.00
00385              -2.00    -3000.00
00386             -16.00    -2800.00
00387              -8.00    -2800.00
00388               2.00    -2600.00
00389              10.00    -2600.00
00390               8.00    -2400.00
00391             -10.00    -2600.00
00392             -14.00    -2400.00
00393              -2.00    -2400.00
00394               2.00    -2200.00
00395               0.00    -2200.00
00396              -6.00    -2200.00
00397              -6.00    -2200.00
00398               6.00    -2000.00
00399               0.00    -2000.00
00400             -10.00    -2000.00
00401              -8.00    -2000.00
00402               2.00    -1800.00
00403               2.00    -2000.00
00404               0.00    -1600.00
00405              -2.00    -1600.00
00406              -2.00    -1600.00
00407              -2.00    -1600.00
00408              -6.00    -1400.00
00409              -6.00    -1400.00
00410               2.00    -1200.00
00411               0.00    -1000.00
00412               2.00    -1000.00
00413               0.00    -1000.00
00414             -10.00    -1000.00
00415             -14.00    -1200.00
00416               2.00     -800.00
00417              10.00     -800.00
00418               2.00     -800.00
00419              -8.00     -600.00
00420             -14.00     -800.00
00421              -2.00     -600.00
00422               6.00     -600.00
00423               2.00     -600.00
00424               0.00     -400.00
00425              -6.00     -200.00
00426              -8.00     -200.00
00427              -2.00     -200.00
00428               2.00        0.00
00429               2.00        0.00
00430              -2.00        0.00
00431              -8.00        0.00
00432              -4.00      200.00
00433               2.00      200.00
00434               0.00      200.00
00435               0.00      200.00
00436               2.00      400.00
00437              -2.00      400.00
00438              -8.00      400.00
00439              -2.00      600.00
00440               2.00      600.00
00441              28.00      800.00
00442             152.00      800.00
00443              72.00     1000.00
00444            -254.00      800.00
00445            -254.00      800.00
00446             246.00     1400.00
00447             246.00     1400.00
00448            -254.00     1000.00
00449            -254.00     1000.00
00450             246.00     1600.00
00451             246.00     1400.00
00452            -254.00     1200.00
00453            -234.00     1600.00
00454             246.00     1800.00
00455              10.00     1400.00
00456            -254.00     1600.00
00457             120.00     2000.00
00458              82.00     1800.00
00459            -128.00     1800.00
00460             110.00     2000.00
00461              32.00     2000.00
00462            -174.00     2000.00
00463              98.00     2400.00
00464              42.00     2400.00
00465            -110.00     2400.00
00466              94.00     2400.00
00467             -38.00     2400.00
00468            -112.00     2400.00
00469             180.00     2600.00
00470             -24.00     2400.00
00471            -194.00     2600.00
00472             142.00     2800.00
00473              58.00     2800.00
00474            -136.00     2600.00
00475              64.00     3000.00
00476               8.00     2800.00
00477             -64.00     3000.00
00478              66.00     3200.00
00479             -34.00     3000.00
00480             -34.00     3200.00
00481              54.00     3200.00
00482             -40.00     3200.00
00483               2.00     3200.00
00484              42.00     3400.00
00485             -64.00     3200.00
00486               6.00     3400.00
00487              38.00     3600.00
00488             -34.00     3200.00
00489               0.00     3600.00
00490              20.00     3600.00
00491             -18.00     3400.00
00492             -14.00     3600.00
00493              -6.00     3800.00
00494               6.00     3600.00
00495               8.00     3600.00
00496             -16.00     3600.00
00497              -6.00     3600.00
00498               8.00     4000.00
00499             -16.00     3800.00
00500             -10.00     4000.00
00501              12.00     4000.00
00502              -8.00     4000.00
00503             -18.00     3800.00
00504               8.00     4200.00
00505               0.00     4000.00
00506             -16.00     4000.00
00507              -4.00     4200.00
00508               0.00     4000.00
00509               0.00     4200.00
00510              -8.00     4200.00
00511             -10.00     4000.00
00512               2.00     4200.00
00513              -8.00     4200.00
00514             -16.00     4200.00
00515               2.00     4200.00
00516               2.00     4400.00
00517             -14.00     4200.00
00518              -8.00     4200.00
00519              -2.00     4200.00
00520              -8.00     4200.00
00521              -2.00     4400.00
00522               0.00     4400.00
00523              -2.00     4400.00
00524              -8.00     4400.00
00525             -10.00     4200.00
00526              -2.00     4400.00
00527               0.00     4400.00
00528              -6.00     4200.00
00529              -4.00     4400.00
00530              -2.00     4400.00
00531              -8.00     4400.00
00532              -8.00     4400.00
00533              -2.00     4200.00
00534              -8.00     4200.00
00535               0.00     4200.00
00536               2.00     4200.00
00537              -6.00     4200.00
00538             -14.00     4200.00
00539              -6.00     4200.00
00540               0.00     4400.00
00541               0.00     4200.00
00542              -2.00     4200.00
00543              -6.00     4200.00
00544              -8.00     4000.00
00545             -10.00     4200.00
00546              -8.00     4200.00
00547               0.00     4200.00
00548               2.00     4000.00
00549              -6.00     4000.00
00550              -6.00     4200.00
00551              -4.00     4000.00
00552              -8.00     4000.00
00553              -8.00     4000.00
00554              -2.00     4000.00
00555              -2.00     4000.00
00556              -4.00     4000.00
00557              -6.00     3800.00
00558              -4.00     3600.00
00559              -8.00     3800.00
00560              -8.00     3800.00
00561              -2.00     3600.00
00562              -2.00     3800.00
00563              -8.00     3600.00
00564              -4.00     3600.00
00565              -6.00     3600.00
00566              -8.00     3400.00
00567              -6.00     3600.00
00568              -2.00     3600.00
00569              -2.00     3400.00
00570              -8.00     3400.00
00571              -8.00     3400.00
00572              -8.00     3200.00
00573              -6.00     3200.00
00574              -6.00     3200.00
00575              -2.00     3200.00
00576              -4.00     3200.00
00577              -8.00     3200.00
00578             -10.00     3200.00
00579              -6.00     2800.00
00580              -8.00     3000.00
00581              -4.00     2800.00
00582              -6.00     2800.00
00583              -6.00     2800.00
00584              -8.00     2600.00
00585              -4.00     2600.00
00586              -6.00     2600.00
00587              -4.00     2600.00
00588              -6.00     2600.00
00589              -6.00     2400.00
00590              -2.00     2400.00
00591              -6.00     2400.00
00592              -8.00     2000.00
00593              -2.00     2000.00
00594              -2.00     2000.00
00595              -2.00     2000.00
00596              -2.00     2000.00
00597              -4.00     2000.00
00598              -6.00     2000.00
00599              -8.00     1800.00
00600              -4.00     1800.00
00601              -2.00     1800.00
00602              -2.00     1600.00
00603              -4.00     1600.00
00604              -4.00     1600.00
00605               0.00     1400.00
00606              -6.00     1400.00
00607              -6.00     1200.00
00608               0.00     1200.00
00609              -2.00     1200.00
00610              -6.00     1200.00
00611              -2.00     1200.00
00612              -2.00     1000.00
00613              -6.00     1000.00
00614              -2.00      800.00
00615               0.00      800.00
00616              -2.00      800.00
00617              -2.00      600.00
00618              -6.00      800.00
00619              -2.00      400.00
00620               0.00      400.00
00621              -2.00      400.00
00622              -6.00      200.00
00623              -2.00      200.00
00624               0.00      200.00
00625               2.00      200.00
00626               0.00        0.00
00627               6.00      200.00
00628               4.00        0.00
00629              -2.00        0.00
00630              -8.00     -400.00
00631              -2.00     -400.00
00632               4.00     -400.00
00633              36.00     -400.00
00634             134.00     -400.00
00635              56.00     -800.00
00636            -254.00     -800.00
00637            -254.00     -400.00
00638             246.00     -600.00
00639             246.00     -600.00
00640            -254.00    -1200.00
00641            -254.00     -800.00
00642             246.00    -1200.00
00643             246.00    -1000.00
00644            -254.00    -1200.00
00645            -254.00    -1000.00
00646             246.00    -1200.00
00647             144.00    -1200.00
00648            -150.00    -1400.00
00649             -16.00    -1600.00
00650             -48.00    -1600.00
00651             -50.00    -1400.00
00652             184.00    -2000.00
00653              32.00    -1600.00
00654            -206.00    -1800.00
00655               0.00    -2000.00
00656             142.00    -2000.00
00657             -24.00    -2000.00
00658             -32.00    -2000.00
00659             -42.00    -2200.00
00660             -10.00    -2000.00
00661              98.00    -2200.00
00662             -10.00    -2400.00
00663            -118.00    -2200.00
00664              40.00    -2400.00
00665              86.00    -2400.00
00666             -50.00    -2400.00
00667             -30.00    -2400.00
00668               8.00    -2800.00
00669              10.00    -2600.00
00670              16.00    -2800.00
00671              -4.00    -2800.00
00672             -40.00    -2800.00
00673               8.00    -2800.00
00674              26.00    -3000.00
00675              -6.00    -3000.00
00676             -16.00    -3000.00
00677              -6.00    -3000.00
00678               8.00    -3000.00
00679               8.00    -3200.00
00680              -8.00    -3200.00
00681             -18.00    -3200.00
00682              14.00    -3200.00
00683              16.00    -3200.00
00684             -20.00    -3200.00
00685             -16.00    -3400.00
00686              16.00    -3400.00
00687              10.00    -3600.00
00688              -8.00    -3600.00
00689              -4.00    -3600.00
00690              -6.00    -3600.00
00691              -2.00    -3600.00
00692               6.00    -3600.00
00693               0.00    -3600.00
00694              -2.00    -3600.00
00695              -2.00    -3600.00
00696               0.00    -3600.00
00697               0.00    -3800.00
00698              -6.00    -4000.00
00699             -10.00    -3800.00
00700               2.00    -3800.00
00701               2.00    -3800.00
00702              -2.00    -3800.00
00703              -2.00    -3800.00
00704               0.00    -3800.00
00705              -8.00    -4000.00
00706              -6.00    -4000.00
00707               2.00    -4000.00
00708               6.00    -4000.00
00709               0.00    -4000.00
00710              -8.00    -4000.00
00711              -8.00    -3800.00
00712              -2.00    -4000.00
00713               2.00    -3800.00
00714               6.00    -4000.00
00715               0.00    -3800.00
00716              -8.00    -4000.00
00717              -6.00    -3800.00
00718               0.00    -4000.00
00719               0.00    -4200.00
00720               0.00    -4000.00
00721               0.00    -4000.00
00722               0.00    -4000.00
00723               0.00    -4000.00
00724              -2.00    -4000.00
00725               0.00    -4000.00
00726               2.00    -4000.00
00727              -2.00    -4000.00
00728              -2.00    -4000.00
00729               0.00    -3800.00
00730              -2.00    -4000.00
00731              -4.00    -4000.00
00732               0.00    -4000.00
00733               0.00    -3800.00
00734               0.00    -3800.00
00735               0.00    -3800.00
00736               0.00    -4000.00
00737              -6.00    -3800.00
00738              -2.00    -3800.00
00739               0.00    -3600.00
00740               4.00    -3800.00
00741               2.00    -3600.00
00742               0.00    -3800.00
00743              -2.00    -3600.00
00744              -6.00    -3600.00
00745              -6.00    -3800.00
00746               6.00    -3600.00
00747               2.00    -3600.00
00748               0.00    -3600.00
00749              -6.00    -3600.00
00750              -6.00    -3600.00
00751              -6.00    -3400.00
00752               6.00    -3400.00
00753               2.00    -3400.00
00754               6.00    -3400.00
00755              -2.00    -3400.00
00756              -6.00    -3400.00
00757              -6.00    -3200.00
00758               0.00    -3200.00
00759               0.00    -3200.00
00760               2.00    -3200.00
00761               0.00    -3000.00
00762              -8.00    -3200.00
00763              -2.00    -3200.00
00764              -2.00    -3000.00
00765              -2.00    -3200.00
00766              -2.00    -2800.00
00767              -2.00    -3000.00
00768               0.00    -2800.00
00769               0.00    -2800.00
00770              -4.00    -2800.00
00771              -2.00    -2600.00
00772               0.00    -2600.00
00773              -2.00    -2400.00
00774              -2.00    -2400.00
00775              -2.00    -2400.00
00776              -6.00    -2400.00
00777              -6.00    -2400.00
00778              -2.00    -2200.00
00779              -2.00    -2200.00
00780              -2.00    -2200.00
00781              -2.00    -2000.00
00782               0.00    -2000.00
00783              -2.00    -2000.00
00784              -6.00    -2000.00
00785              -8.00    -2000.00
00786              -2.00    -2000.00
00787               2.00    -1800.00
00788               2.00    -1600.00
00789               0.00    -1600.00
00790              -6.00    -1600.00
00791              -6.00    -1400.00
00792              -2.00    -1200.00
00793               0.00    -1000.00
00794               0.00    -1400.00
00795              -4.00    -1200.00
00796              -6.00    -1200.00
00797              -6.00    -1000.00
00798              -6.00     -800.00
00799               0.00    -1000.00
00800               0.00     -800.00
00801               0.00     -600.00
00802               0.00     -800.00
00803              -6.00     -800.00
00804              -4.00     -600.00
00805              -4.00     -400.00
00806              -2.00     -400.00
00807               2.00     -400.00
00808               0.00     -200.00
00809              -2.00     -200.00
00810              -2.00        0.00
00811              -2.00        0.00
00812               0.00        0.00
00813              -2.00        0.00
00814              -4.00        0.00
00815               0.00      200.00
00816               0.00      200.00
00817               0.00      200.00
00818               4.00      200.00
00819               8.00      400.00
00820               2.00      600.00
00821              -2.00      400.00
00822              -6.00      600.00
00823               0.00      600.00
00824              24.00      800.00
00825             146.00     1000.00
00826              94.00      800.00
00827            -254.00      800.00
00828            -254.00      800.00
00829             246.00     1000.00
00830             246.00     1400.00
00831            -254.00     1000.00
00832            -254.00     1000.00
00833             246.00     1600.00
00834             246.00     1600.00
00835            -254.00     1200.00
00836            -254.00     1600.00
00837             246.00     1800.00
00838              70.00     1400.00
00839            -254.00     1400.00
00840              90.00     1800.00
00841             106.00     2000.00
00842            -134.00     1600.00
00843              90.00     2000.00
00844              54.00     2000.00
00845            -178.00     2000.00
00846              80.00     2000.00
00847              62.00     2400.00
00848            -114.00     2400.00
00849              80.00     2400.00
00850             -18.00     2200.00
00851            -126.00     2400.00
00852             168.00     2600.00
00853               6.00     2600.00
00854            -204.00     2600.00
00855             126.00     2800.00
00856              80.00     2600.00
00857            -144.00     2800.00
00858              50.00     2800.00
00859              18.00     2800.00
00860             -68.00     2800.00
00861              64.00     3200.00
00862             -24.00     3000.00
00863             -42.00     3200.00
00864              54.00     3200.00
00865             -38.00     3200.00
00866             -10.00     3200.00
00867              48.00     3200.00
00868             -54.00     3400.00
00869              -6.00     3400.00
00870              36.00     3600.00
00871             -40.00     3400.00
00872              -2.00     3600.00
00873              26.00     3800.00
00874             -18.00     3600.00
00875             -14.00     3600.00
00876              -8.00     3600.00
00877               4.00     3600.00
00878              12.00     3800.00
00879             -16.00     3800.00
00880             -10.00     3800.00
00881              10.00     4000.00
00882             -16.00     3800.00
00883             -10.00     4000.00
00884              14.00     4000.00
00885              -2.00     4000.00
00886             -18.00     4000.00
00887               6.00     4000.00
00888               0.00     4000.00
00889             -16.00     4000.00
00890              -6.00     4200.00
00891               0.00     4200.00
00892              -2.00     4200.00
00893              -8.00     4200.00
00894             -14.00     4200.00
00895               0.00     4000.00
00896              -4.00     4200.00
00897             -14.00     4000.00
00898               2.00     4400.00
00899               2.00     4200.00
00900             -14.00     4200.00
00901              -8.00     4400.00
00902              -2.00     4400.00
00903             -10.00     4200.00
00904              -6.00     4400.00
00905              -2.00     4400.00
00906              -2.00     4400.00
00907              -8.00     4400.00
00908             -14.00     4200.00
00909              -6.00     4200.00
00910              -2.00     4400.00
00911              -6.00     4400.00
00912              -6.00     4200.00
00913              -2.00     4200.00
00914             -10.00     4400.00
00915             -10.00     4200.00
00916              -4.00     4400.00
00917              -8.00     4200.00
00918              -6.00     4200.00
00919               0.00     4400.00
00920              -2.00     4200.00
00921             -10.00     4200.00
00922              -8.00     4400.00
00923              -2.00     4200.00
00924              -2.00     4200.00
00925              -6.00     4200.00
00926              -2.00     4200.00
00927              -2.00     4200.00
00928             -10.00     4000.00
00929             -10.00     4200.00
00930              -2.00     4200.00
00931               0.00     4000.00
00932              -6.00     4200.00
00933              -6.00     4000.00
00934              -2.00     4200.00
00935              -6.00     4000.00
00936              -8.00     4000.00
00937              -2.00     4000.00
00938               0.00     4000.00
00939              -6.00     4000.00
00940              -2.00     4000.00
00941              -6.00     4000.00
00942              -6.00     3800.00
00943              -8.00     4000.00
00944              -2.00     3800.00
00945              -2.00     3600.00
00946              -2.00     3600.00
00947              -6.00     3600.00
00948              -6.00     3600.00
00949              -8.00     3600.00
00950              -6.00     3600.00
00951              -2.00     3400.00
00952               0.00     3400.00
00953              -6.00     3200.00
00954              -8.00     3400.00
00955              -8.00     3400.00
00956              -6.00     3200.00
00957              -4.00     3200.00
00958               0.00     3400.00
00959              -2.00     3200.00
00960              -8.00     3000.00
00961              -6.00     3000.00
00962              -6.00     2800.00
00963              -8.00     2800.00
00964              -4.00     2800.00
00965              -4.00     2800.00
00966              -2.00     2800.00
00967              -8.00     2800.00
00968              -8.00     2600.00
00969              -6.00     2600.00
00970              -2.00     2600.00
00971              -6.00     2600.00
00972              -6.00     2400.00
00973              -2.00     2400.00
00974              -8.00     2200.00
00975              -8.00     2400.00
00976              -6.00     2200.00
00977              -4.00     2000.00
00978              -4.00     2000.00
00979              -4.00     2000.00
00980              -2.00     2000.00
00981              -6.00     1800.00
00982              -8.00     1800.00
00983              -2.00     1600.00
00984              -2.00     1600.00
00985              -2.00     1600.00
00986              -6.00     1400.00
00987              -4.00     1600.00
00988              -2.00     1600.00
00989              -6.00     1400.00
00990              -6.00     1200.00
00991               0.00     1000.00
00992              -6.00     1200.00
00993              -4.00     1200.00
00994              -2.00     1000.00
00995              -6.00     1000.00
00996              -6.00      800.00
00997              -2.00      800.00
00998              -2.00      800.00
00999               0.00      800.00
01000               2.00      400.00
01001             -10.00      400.00
01002              -2.00      600.00
01003               0.00      400.00
01004              -2.00      400.00
01005              -2.00      400.00
01006              -2.00      200.00
01007              -2.00      200.00
01008               6.00      200.00
01009               2.00        0.00
01010               4.00        0.00
01011              10.00        0.00
01012              -8.00     -200.00
01013              -8.00     -200.00
01014               2.00     -400.00
01015               0.00     -400.00
01016              32.00     -400.00
01017             128.00     -600.00
01018              70.00     -800.00
01019            -254.00     -800.00
01020            -254.00     -600.00
01021             246.00     -600.00
01022             246.00     -800.00
01023            -202.00    -1200.00
01024            -254.00     -800.00
01025             218.00    -1200.00
01026             246.00    -1000.00
01027            -254.00    -1200.00
01028            -254.00    -1000.00
01029             246.00    -1400.00
01030             178.00    -1200.00
01031            -146.00    -1400.00
01032             -32.00    -1600.00
01033             -42.00    -1600.00
01034             -60.00    -1400.00
01035             170.00    -1800.00
01036              58.00    -1600.00
01037            -208.00    -1600.00
01038             -20.00    -2000.00
01039             144.00    -2000.00
01040             -16.00    -2000.00
01041             -34.00    -2200.00
01042             -40.00    -2200.00
01043             -14.00    -2000.00
01044              94.00    -2400.00
01045               2.00    -2400.00
01046            -128.00    -2400.00
01047              26.00    -2400.00
01048              96.00    -2400.00
01049             -42.00    -2400.00
01050             -34.00    -2400.00
01051               6.00    -2800.00
01052               6.00    -2800.00
01053              16.00    -2800.00
01054               2.00    -2800.00
01055             -34.00    -2800.00
01056               6.00    -2800.00
01057              26.00    -3000.00
01058              -4.00    -3000.00
01059             -16.00    -3000.00
01060              -2.00    -3000.00
01061               8.00    -3200.00
01062               8.00    -3000.00
01063              -6.00    -3200.00
01064             -22.00    -3200.00
01065              10.00    -3400.00
01066              18.00    -3200.00
01067             -18.00    -3200.00
01068             -16.00    -3200.00
01069              14.00    -3400.00
01070               8.00    -3200.00
01071              -4.00    -3400.00
01072               0.00    -3600.00
01073              -8.00    -3600.00
01074              -2.00    -3600.00
01075               2.00    -3600.00
01076               2.00    -3600.00
01077               0.00    -3600.00
01078              -6.00    -3800.00
01079               0.00    -3600.00
01080               2.00    -3600.00
01081              -6.00    -3800.00
01082              -6.00    -3800.00
01083               6.00    -3800.00
01084               2.00    -3800.00
01085              -8.00    -3800.00
01086              -6.00    -3800.00
01087               0.00    -3800.00
01088              -2.00    -4000.00
01089              -6.00    -3800.00
01090              -2.00    -4000.00
01091               2.00    -4000.00
01092               0.00    -4000.00
01093              -2.00    -4000.00
01094              -6.00    -4000.00
01095              -2.00    -4000.00
01096              -2.00    -4000.00
01097               0.00    -4000.00
01098              -2.00    -4000.00
01099              -6.00    -4000.00
01100              -2.00    -4200.00
01101               4.00    -4000.00
01102              -2.00    -4000.00
01103              -2.00    -4000.00
01104               0.00    -4000.00
01105               0.00    -4000.00
01106               2.00    -4000.00
01107              -2.00    -4000.00
01108              -6.00    -4000.00
01109              -4.00    -4000.00
01110               2.00    -4000.00
01111               6.00    -4000.00
01112               6.00    -4000.00
01113              -6.00    -4000.00
01114             -10.00    -3800.00
01115               0.00    -4000.00
01116               2.00    -4000.00
01117               0.00    -3800.00
01118               2.00    -3800.00
01119               0.00    -3800.00
01120             -10.00    -4000.00
01121             -10.00    -3800.00
01122               2.00    -3800.00
01123               6.00    -3800.00
01124               2.00    -3800.00
01125              -2.00    -3600.00
01126              -8.00    -3800.00
01127              -6.00    -3600.00
01128               0.00    -3600.00
01129              10.00    -3600.00
01130               6.00    -3600.00
01131              -4.00    -3600.00
01132             -16.00    -3600.00
01133             -10.00    -3600.00
01134               0.00    -3400.00
01135              16.00    -3400.00
01136               6.00    -3200.00
01137               0.00    -3400.00
01138              -8.00    -3200.00
01139             -10.00    -3400.00
01140              -2.00    -3200.00
01141               6.00    -3200.00
01142               6.00    -3200.00
01143               0.00    -3000.00
01144             -12.00    -3200.00
01145              -8.00    -3000.00
01146               8.00    -3000.00
01147              16.00    -3000.00
01148               2.00    -2800.00
01149             -14.00    -3000.00
01150             -16.00    -2800.00
01151              -2.00    -2800.00
01152               8.00    -2800.00
01153               2.00    -2600.00
01154              -2.00    -2800.00
01155              -4.00    -2600.00
01156              -6.00    -2400.00
01157               0.00    -2400.00
01158               0.00    -2400.00
01159              -2.00    -2400.00
01160              -2.00    -2200.00
01161              -6.00    -2200.00
01162              -8.00    -2400.00
01163              -6.00    -2200.00
01164               0.00    -2200.00
01165               2.00    -2000.00
01166               0.00    -2000.00
01167              -2.00    -2000.00
01168              -4.00    -1800.00
01169              -8.00    -1600.00
01170              -8.00    -1800.00
01171              -2.00    -1600.00
01172               2.00    -1600.00
01173               0.00    -1600.00
01174              -2.00    -1400.00
01175              -6.00    -1400.00
01176               0.00    -1400.00
01177               0.00    -1200.00
01178              -2.00    -1200.00
01179              -2.00    -1000.00
01180              -6.00    -1200.00
01181              -6.00    -1000.00
01182              -2.00     -800.00
01183               2.00    -1000.00
01184               2.00     -800.00
01185              -2.00     -600.00
01186              -6.00     -800.00
01187              -2.00     -600.00
01188              -2.00     -600.00
01189              -2.00     -400.00
01190               0.00     -400.00
01191               0.00     -400.00
01192              -2.00     -400.00
01193              -2.00     -200.00
01194              -6.00        0.00
01195               0.00     -200.00
01196               2.00        0.00
01197              -2.00        0.00
01198              -2.00      200.00
01199               2.00      200.00
01200               2.00      400.00
01201               6.00      400.00
01202               6.00      400.00
01203              -2.00      600.00
01204              -6.00      400.00
01205              -4.00      600.00
01206               2.00      800.00
01207              22.00      800.00
01208             138.00      800.00
01209             108.00     1000.00
01210            -254.00      800.00
01211            -254.00      800.00
01212             246.00     1200.00
01213             246.00     1400.00
01214            -254.00     1200.00
01215            -254.00     1000.00
01216             246.00     1600.00
01217             246.00     1600.00
01218            -254.00     1200.00
01219            -254.00     1600.00
01220             246.00     1800.00
01221             122.00     1400.00
01222            -254.00     1600.00
01223              62.00     2000.00
01224             130.00     1800.00
01225            -134.00     1600.00
01226              78.00     1800.00
01227              78.00     2000.00
01228            -186.00     2000.00
01229              66.00     2000.00
01230              78.00     2000.00
01231            -114.00     2200.00
01232              68.00     2400.00
01233               0.00     2400.00
01234            -136.00     2200.00
01235             152.00     2600.00
01236              26.00     2600.00
01237            -216.00     2600.00
01238             106.00     2800.00
01239              98.00     2600.00
01240            -144.00     2800.00
01241              38.00     2800.00
01242              30.00     3000.00
01243             -74.00     2800.00
01244              62.00     3200.00
01245             -12.00     3000.00
01246             -50.00     3000.00
01247              50.00     3200.00
01248             -32.00     3200.00
01249             -16.00     3200.00
01250              54.00     3200.00
01251             -50.00     3200.00
01252             -14.00     3400.00
01253              38.00     3600.00
01254             -36.00     3400.00
01255              -8.00     3400.00
01256              26.00     3600.00
01257             -16.00     3600.00
01258             -16.00     3600.00
01259              -8.00     3800.00
01260               2.00     3600.00
01261              14.00     3800.00
01262             -16.00     3800.00
01263             -10.00     3800.00
01264               6.00     3800.00
01265             -14.00     3800.00
01266             -14.00     4000.00
01267              14.00     4000.00
01268              -2.00     4000.00
01269             -18.00     4000.00
01270               2.00     4000.00
01271               0.00     4000.00
01272             -18.00     4200.00
01273              -4.00     4400.00
01274               2.00     4200.00
01275               0.00     4200.00
01276              -8.00     4200.00
01277             -10.00     4200.00
01278               0.00     4200.00
01279              -2.00     4200.00
01280             -14.00     4200.00
01281               2.00     4400.00
01282               6.00     4200.00
01283             -14.00     4200.00
01284              -8.00     4200.00
01285              -2.00     4400.00
01286             -10.00     4200.00
01287              -6.00     4200.00
01288               0.00     4400.00
01289              -2.00     4200.00
01290              -8.00     4200.00
01291             -14.00     4400.00
01292              -8.00     4200.00
01293               0.00     4400.00
01294              -8.00     4400.00
01295              -6.00     4400.00
01296              -6.00     4400.00
01297              -8.00     4200.00
01298             -10.00     4400.00
01299              -6.00     4400.00
01300              -6.00     4400.00
01301              -6.00     4400.00
01302               0.00     4200.00
01303              -2.00     4400.00
01304             -14.00     4200.00
01305              -8.00     4200.00
01306              -2.00     4400.00
01307              -8.00     4200.00
01308              -2.00     4200.00
01309              -2.00     4200.00
01310              -2.00     4200.00
01311             -10.00     4200.00
01312             -10.00     4200.00
01313               0.00     4200.00
01314               4.00     4200.00
01315              -6.00     4000.00
01316              -8.00     4000.00
01317              -8.00     4000.00
01318             -10.00     4200.00
01319              -8.00     4000.00
01320               0.00     3800.00
01321               0.00     4000.00
01322              -8.00     4000.00
01323             -10.00     4000.00
01324              -8.00     3800.00
01325               0.00     4000.00
01326               0.00     3800.00
01327              -2.00     3600.00
01328              -8.00     3600.00
01329              -6.00     3600.00
01330              -2.00     3600.00
01331               0.00     3600.00
01332              -4.00     3400.00
01333              -8.00     3600.00
01334              -6.00     3400.00
01335               0.00     3400.00
01336               0.00     3400.00
01337              -2.00     3400.00
01338              -8.00     3200.00
01339             -10.00     3200.00
01340              -6.00     3200.00
01341               2.00     3200.00
01342               0.00     3200.00
01343              -2.00     3200.00
01344             -10.00     3200.00
01345              -8.00     3000.00
01346              -6.00     2800.00
01347              -2.00     2800.00
01348              -2.00     2800.00
01349              -2.00     2800.00
01350             -10.00     2800.00
01351              -6.00     2600.00
01352              -2.00     2600.00
01353              -2.00     2400.00
01354              -6.00     2600.00
01355              -2.00     2400.00
01356              -6.00     2400.00
01357              -6.00     2400.00
01358              -8.00     2200.00
01359              -6.00     2200.00
01360              -2.00     2000.00
01361              -2.00     2000.00
01362              -6.00     2000.00
01363              -6.00     1800.00
01364              -6.00     1800.00
01365             -10.00     1800.00
01366              -2.00     1800.00
01367              -2.00     1600.00
01368              -6.00     1800.00
01369              -8.00     1600.00
01370              -2.00     1400.00
01371              -4.00     1600.00
01372              -2.00     1400.00
01373              -6.00     1200.00
01374              -2.00     1200.00
01375              -2.00     1200.00
01376              -6.00     1000.00
01377              -8.00     1200.00
01378               0.00     1000.00
01379              -2.00     1000.00
01380              -2.00      800.00
01381              -2.00      800.00
01382              -6.00      800.00
01383              -6.00      600.00
01384              -2.00      600.00
01385              -2.00      400.00
01386              -2.00      400.00
01387              -2.00      400.00
01388              -6.00      200.00
01389              -2.00      200.00
01390              -2.00      200.00
01391               0.00        0.00
01392               0.00      200.00
01393               8.00        0.00
01394              10.00        0.00
01395              -2.00        0.00
01396             -12.00     -200.00
01397              -6.00     -400.00
01398               6.00     -400.00
01399              32.00     -200.00
01400             126.00     -600.00
01401              88.00     -600.00
01402            -254.00     -800.00
01403            -254.00     -600.00
01404             246.00     -600.00
01405             246.00     -800.00
01406            -128.00    -1000.00
01407            -254.00     -800.00
01408             158.00    -1000.00
01409             246.00    -1200.00
01410            -248.00    -1000.00
01411            -254.00    -1000.00
01412             230.00    -1400.00
01413             206.00    -1400.00
01414            -152.00    -1400.00
01415             -42.00    -1600.00
01416             -24.00    -1600.00
01417             -62.00    -1600.00
01418             166.00    -1800.00
01419              76.00    -1600.00
01420            -218.00    -1800.00
01421             -42.00    -2000.00
01422             150.00    -2000.00
01423               0.00    -1800.00
01424             -32.00    -2000.00
01425             -42.00    -2200.00
01426             -26.00    -2000.00
01427              82.00    -2200.00
01428              22.00    -2400.00
01429            -122.00    -2200.00
01430              22.00    -2400.00
01431              94.00    -2600.00
01432             -40.00    -2400.00
01433             -42.00    -2400.00
01434               8.00    -2800.00
01435               8.00    -2800.00
01436              14.00    -2600.00
01437               0.00    -2800.00
01438             -42.00    -2800.00
01439               0.00    -2800.00
01440              26.00    -3000.00
01441              -2.00    -3000.00
01442             -18.00    -3000.00
01443              -6.00    -3200.00
01444               6.00    -3000.00
01445              14.00    -3200.00
01446               0.00    -3200.00
01447             -24.00    -3200.00
01448               4.00    -3400.00
01449              18.00    -3400.00
01450             -16.00    -3200.00
01451             -16.00    -3400.00
01452              18.00    -3400.00
01453               8.00    -3200.00
01454              -6.00    -3400.00
01455              -6.00    -3600.00
01456              -4.00    -3600.00
01457              -2.00    -3600.00
01458               6.00    -3600.00
01459               2.00    -3600.00
01460              -2.00    -3600.00
01461              -8.00    -3600.00
01462               0.00    -3800.00
01463               2.00    -3600.00
01464              -8.00    -3800.00
01465              -6.00    -3600.00
01466               8.00    -3800.00
01467               8.00    -3800.00
01468              -8.00    -3800.00
01469              -8.00    -3800.00
01470               2.00    -3800.00
01471               2.00    -3600.00
01472              -6.00    -4000.00
01473               0.00    -4000.00
01474               2.00    -4000.00
01475               0.00    -4000.00
01476              -2.00    -4000.00
01477              -6.00    -4000.00
01478              -8.00    -4000.00
01479               6.00    -4000.00
01480               8.00    -4000.00
01481               0.00    -4000.00
01482             -10.00    -4000.00
01483             -10.00    -4000.00
01484               0.00    -4000.00
01485               6.00    -4000.00
01486               0.00    -4000.00
01487              -6.00    -4000.00
01488              -6.00    -4000.00
01489              -2.00    -4000.00
01490               2.00    -4000.00
01491               2.00    -4000.00
01492              -2.00    -4000.00
01493              -8.00    -4000.00
01494               0.00    -4200.00
01495               2.00    -4000.00
01496               0.00    -4000.00
01497              -8.00    -4000.00
01498              -6.00    -3800.00
01499               2.00    -4000.00
01500               4.00    -3800.00
01501              -6.00    -4000.00
01502              -4.00    -4000.00
01503              -2.00    -3800.00
01504              -2.00    -3800.00
01505               0.00    -3800.00
01506               0.00    -3800.00
01507              -2.00    -3800.00
01508               2.00    -3600.00
01509               0.00    -3600.00
01510              -2.00    -3600.00
01511              -8.00    -3600.00
01512              -2.00    -3600.00
01513               2.00    -3400.00
01514               6.00    -3600.00
01515               2.00    -3600.00
01516              -2.00    -3600.00
01517              -6.00    -3400.00
01518              -2.00    -3200.00
01519               0.00    -3400.00
01520               2.00    -3400.00
01521               0.00    -3200.00
01522               0.00    -3200.00
01523              -4.00    -3200.00
01524              -2.00    -3200.00
01525              -6.00    -3200.00
01526               0.00    -3200.00
01527               2.00    -3000.00
01528               2.00    -3200.00
01529              -2.00    -3000.00
01530               0.00    -3000.00
01531              -2.00    -2800.00
01532              -6.00    -2800.00
01533               0.00    -2800.00
01534               4.00    -2800.00
01535               4.00    -2800.00
01536               0.00    -2800.00
01537              -6.00    -2400.00
01538              -6.00    -2600.00
01539              -2.00    -2400.00
01540              -2.00    -2400.00
01541               2.00    -2400.00
01542               0.00    -2400.00
01543              -2.00    -2400.00
01544              -6.00    -2200.00
01545              -2.00    -2200.00
01546              -2.00    -2200.00
01547               0.00    -2200.00
01548              -2.00    -2000.00
01549              -2.00    -2000.00
01550              -2.00    -2000.00
01551               0.00    -1600.00
01552               0.00    -1800.00
01553              -6.00    -1600.00
01554              -6.00    -1600.00
01555              -2.00    -1600.00
01556               0.00    -1400.00
01557              -4.00    -1400.00
01558              -2.00    -1200.00
01559               0.00    -1400.00
01560              -2.00    -1200.00
01561              -2.00    -1200.00
01562              -2.00    -1200.00
01563              -6.00    -1000.00
01564              -6.00    -1000.00
01565              -2.00    -1000.00
01566               0.00     -800.00
01567              -2.00     -800.00
01568              -6.00     -800.00
01569              -6.00     -800.00
01570              -2.00     -600.00
01571              -2.00     -400.00
01572              -2.00     -400.00
01573              -2.00     -400.00
01574              -2.00     -600.00
01575              -6.00     -400.00
01576              -6.00        0.00
01577              -2.00        0.00
01578              -2.00        0.00
01579              -2.00        0.00
01580              -6.00        0.00
01581               0.00      200.00
01582               2.00      200.00
01583               0.00      400.00
01584               0.00      400.00
01585               6.00      400.00
01586               4.00      600.00
01587              -2.00      400.00
01588              -6.00      400.00
01589              -2.00      800.00
01590              16.00      800.00
01591             128.00     1000.00
01592             126.00     1000.00
01593            -254.00      800.00
01594            -254.00      800.00
01595             246.00     1200.00
01596             246.00     1400.00
01597            -192.00     1200.00
01598            -254.00     1000.00
01599             240.00     1600.00
01600             246.00     1200.00
01601            -254.00     1200.00
01602            -254.00     1600.00
01603             246.00     1800.00
01604             182.00     1400.00
01605            -254.00     1600.00
01606              24.00     2000.00
01607             154.00     2000.00
01608            -128.00     1800.00
01609              60.00     1800.00
01610              90.00     2000.00
01611            -192.00     1800.00
01612              50.00     2400.00
01613              96.00     2200.00
01614            -114.00     2200.00
01615              56.00     2400.00
01616              18.00     2400.00
01617            -146.00     2400.00
01618             138.00     2800.00
01619              56.00     2600.00
01620            -222.00     2600.00
01621              86.00     2800.00
01622             118.00     2600.00
01623            -142.00     2600.00
01624              26.00     3000.00
01625              40.00     2800.00
01626             -76.00     2800.00
01627              48.00     3200.00
01628              -6.00     3200.00
01629             -58.00     3000.00
01630              50.00     3200.00
01631             -24.00     3200.00
01632             -26.00     3200.00
01633              52.00     3400.00
01634             -48.00     3200.00
01635             -16.00     3400.00
01636              46.00     3600.00
01637             -34.00     3400.00
01638             -16.00     3400.00
01639              24.00     3600.00
01640             -10.00     3400.00
01641             -14.00     3600.00
01642             -10.00     3800.00
01643               0.00     3600.00
01644               8.00     3600.00
01645             -14.00     4000.00
01646              -8.00     3800.00
01647               8.00     4000.00
01648             -14.00     3800.00
01649             -14.00     4000.00
01650              14.00     4000.00
01651               0.00     4000.00
01652             -18.00     4000.00
01653               0.00     4000.00
01654               2.00     4200.00
01655             -18.00     4200.00
01656              -6.00     4000.00
01657               2.00     4200.00
01658               0.00     4200.00
01659              -6.00     4000.00
01660             -10.00     4400.00
01661              -2.00     4200.00
01662               0.00     4200.00
01663             -16.00     4400.00
01664               0.00     4400.00
01665               8.00     4200.00
01666             -10.00     4400.00
01667             -10.00     4400.00
01668              -2.00     4400.00
01669              -6.00     4400.00
01670              -2.00     4200.00
01671               0.00     4400.00
01672               0.00     4200.00
01673              -8.00     4400.00
01674             -10.00     4400.00
01675             -10.00     4200.00
01676               0.00     4400.00
01677              -4.00     4200.00
01678              -4.00     4200.00
01679              -2.00     4200.00
01680              -6.00     4400.00
01681             -10.00     4200.00
01682              -6.00     4200.00
01683              -6.00     4400.00
01684              -6.00     4400.00
01685               0.00     4200.00
01686              -6.00     4400.00
01687             -14.00     4200.00
01688              -8.00     4200.00
01689              -2.00     4400.00
01690              -2.00     4200.00
01691              -6.00     4200.00
01692              -2.00     4200.00
01693              -4.00     4200.00
01694             -10.00     4000.00
01695             -10.00     4200.00
01696              -2.00     4200.00
01697               0.00     4200.00
01698              -6.00     4000.00
01699              -6.00     4000.00
01700              -4.00     4000.00
01701              -8.00     4000.00
01702              -8.00     4000.00
01703              -2.00     4000.00
01704              -2.00     4000.00
01705              -4.00     4000.00
01706              -6.00     3800.00
01707              -6.00     3800.00
01708              -8.00     3800.00
01709              -8.00     3800.00
01710               0.00     3600.00
01711               0.00     3800.00
01712              -4.00     3600.00
01713              -8.00     3600.00
01714              -6.00     3600.00
01715              -6.00     3600.00
01716              -6.00     3600.00
01717              -2.00     3600.00
01718               0.00     3400.00
01719              -4.00     3400.00
01720              -6.00     3200.00
01721              -2.00     3200.00
01722              -6.00     3400.00
01723              -2.00     3200.00
01724               0.00     3200.00
01725               0.00     3200.00
01726              -2.00     3000.00
01727              -8.00     3200.00
01728              -6.00     2800.00
01729              -4.00     3200.00
01730              -6.00     2800.00
01731              -2.00     2800.00
01732               0.00     2800.00
01733              -6.00     2600.00
01734              -6.00     2600.00
01735              -4.00     2800.00
01736              -2.00     2400.00
01737              -6.00     2600.00
01738              -6.00     2400.00
01739              -6.00     2400.00
01740              -2.00     2400.00
01741              -8.00     2200.00
01742              -2.00     2200.00
01743              -2.00     2000.00
01744              -2.00     2000.00
01745              -6.00     2000.00
01746              -2.00     2000.00
01747              -8.00     1800.00
01748              -6.00     1800.00
01749              -6.00     1600.00
01750              -6.00     1600.00
01751              -4.00     1600.00
01752              -6.00     1600.00
01753              -2.00     1400.00
01754              -8.00     1600.00
01755              -8.00     1200.00
01756              -8.00     1200.00
01757              -2.00     1200.00
01758              -2.00     1000.00
01759              -6.00     1200.00
01760              -2.00     1000.00
01761              -2.00     1000.00
01762              -6.00     1000.00
01763              -6.00      800.00
01764              -2.00      800.00
01765               0.00      800.00
01766              -6.00      800.00
01767              -6.00      400.00
01768              -6.00      400.00
01769              -2.00      400.00
01770              -2.00      400.00
01771              -6.00      200.00
01772              -6.00      200.00
01773              -2.00      200.00
01774               0.00        0.00
01775               0.00        0.00
01776               2.00        0.00
01777               6.00        0.00
01778              -2.00     -200.00
01779              -8.00        0.00
01780              -6.00     -200.00
01781               2.00     -400.00
01782              26.00     -200.00
01783             118.00     -400.00
01784             100.00     -600.00
01785            -246.00     -800.00
01786            -254.00     -800.00
01787             208.00     -600.00
01788             246.00     -800.00
01789             -48.00     -800.00
01790            -254.00    -1000.00
01791              88.00    -1000.00
01792             246.00    -1200.00
01793            -190.00    -1200.00
01794            -254.00    -1000.00
01795             196.00    -1400.00
01796             240.00    -1200.00
01797            -140.00    -1400.00
01798             -46.00    -1600.00
01799             -22.00    -1600.00
01800             -74.00    -1600.00
01801             146.00    -1800.00
01802             106.00    -1800.00
01803            -204.00    -1600.00
01804             -58.00    -2000.00
01805             146.00    -2000.00
01806               2.00    -2000.00
01807             -36.00    -2200.00
01808             -38.00    -2400.00
01809             -24.00    -2000.00
01810              80.00    -2400.00
01811              30.00    -2400.00
01812            -134.00    -2200.00
01813               6.00    -2400.00
01814              98.00    -2600.00
01815             -28.00    -2400.00
01816             -42.00    -2600.00
01817               2.00    -2800.00
01818               6.00    -2800.00
01819              10.00    -2800.00
01820               6.00    -2800.00
01821             -40.00    -2800.00
01822              -2.00    -2800.00
01823              26.00    -2800.00
01824               0.00    -3000.00
01825             -22.00    -3200.00
01826              -8.00    -3000.00
01827               2.00    -3000.00
01828              10.00    -3200.00
01829              -2.00    -3000.00
01830             -24.00    -3200.00
01831               6.00    -3200.00
01832              20.00    -3200.00
01833             -12.00    -3200.00
01834             -26.00    -3200.00
01835               8.00    -3600.00
01836              10.00    -3400.00
01837              -4.00    -3400.00
01838               4.00    -3600.00
01839              -6.00    -3600.00
01840             -10.00    -3600.00
01841              -2.00    -3400.00
01842              -2.00    -3600.00
01843               0.00    -3800.00
01844               6.00    -3600.00
01845               2.00    -3600.00
01846               2.00    -3800.00
01847              -8.00    -3800.00
01848             -14.00    -3600.00
01849               6.00    -3800.00
01850              10.00    -3800.00
01851              -2.00    -3800.00
01852              -2.00    -3800.00
01853               0.00    -3800.00
01854              -4.00    -4000.00
01855              -6.00    -4000.00
01856               0.00    -3800.00
01857               2.00    -4000.00
01858               2.00    -3800.00
01859              -2.00    -4000.00
01860              -2.00    -4000.00
01861               0.00    -4000.00
01862              -2.00    -4000.00
01863               2.00    -3800.00
01864               6.00    -4000.00
01865              -2.00    -4000.00
01866              -6.00    -4000.00
01867              -2.00    -4000.00
01868               0.00    -4000.00
01869              -2.00    -4000.00
01870               0.00    -4000.00
01871              -2.00    -4000.00
01872              -2.00    -4000.00
01873              -2.00    -4000.00
01874               0.00    -4000.00
01875               0.00    -4000.00
01876               0.00    -4000.00
01877              -2.00    -4000.00
01878               0.00    -4000.00
01879              -2.00    -4000.00
01880              -6.00    -4000.00
01881               0.00    -4000.00
01882               0.00    -4000.00
01883               0.00    -3800.00
01884              -2.00    -3800.00
01885              -2.00    -4000.00
01886              -4.00    -3800.00
01887              -2.00    -3800.00
01888               0.00    -3800.00
01889               2.00    -3800.00
01890               0.00    -3800.00
01891              -4.00    -3600.00
01892              -2.00    -3800.00
01893              -2.00    -3800.00
01894              -2.00    -3600.00
01895               0.00    -3600.00
01896               0.00    -3600.00
01897               0.00    -3600.00
01898               0.00    -3600.00
01899              -2.00    -3600.00
01900              -2.00    -3600.00
01901              -2.00    -3400.00
01902              -2.00    -3400.00
01903               0.00    -3600.00
01904              -2.00    -3600.00
01905              -2.00    -3200.00
01906              -2.00    -3200.00
01907              -2.00    -3200.00
01908               0.00    -3200.00
01909               0.00    -3200.00
01910               0.00    -3000.00
01911               0.00    -3200.00
01912              -6.00    -3000.00
01913              -4.00    -3000.00
01914               2.00    -3000.00
01915               0.00    -2800.00
01916              -2.00    -2800.00
01917               6.00    -2800.00
01918              -6.00    -2800.00
01919              -8.00    -2800.00
01920              -2.00    -2800.00
01921               2.00    -2400.00
01922               6.00    -2600.00
01923               6.00    -2400.00
01924              -8.00    -2400.00
01925             -10.00    -2400.00
01926               0.00    -2200.00
01927               2.00    -2200.00
01928               6.00    -2200.00
01929               0.00    -2200.00
01930             -14.00    -2200.00
01931              -6.00    -2000.00
01932               6.00    -2000.00
01933               0.00    -2000.00
01934              -2.00    -1800.00
01935              -6.00    -1600.00
01936              -8.00    -1800.00
01937               0.00    -1600.00
01938               0.00    -1600.00
01939              -2.00    -1600.00
01940              -6.00    -1400.00
01941              -8.00    -1400.00
01942              -4.00    -1200.00
01943               0.00    -1000.00
01944              -2.00    -1200.00
01945              -2.00    -1000.00
01946              -2.00    -1200.00
01947             -10.00    -1000.00
01948             -10.00     -800.00
01949               0.00     -800.00
01950              -2.00     -800.00
01951               0.00     -800.00
01952              -2.00     -600.00
01953              -6.00     -600.00
01954              -6.00     -600.00
01955              -2.00     -600.00
01956              -6.00     -400.00
01957              -2.00     -400.00
01958              -4.00     -400.00
01959              -2.00     -400.00
01960               2.00        0.00
01961              -2.00        0.00
01962             -10.00        0.00
01963              -8.00      200.00
01964              -2.00      200.00
01965               4.00      200.00
01966               6.00      400.00
01967               0.00      400.00
01968               0.00      200.00
01969              -2.00      400.00
01970              -4.00      400.00
01971              -6.00      400.00
01972               6.00      800.00
01973              16.00      800.00
01974             116.00      800.00
01975             134.00     1000.00
01976            -254.00      800.00
01977            -254.00      800.00
01978             240.00     1200.00
01979             246.00     1400.00
01980             -96.00     1000.00
01981            -254.00     1000.00
01982             166.00     1600.00
01983             246.00     1600.00
01984            -254.00     1200.00
01985            -254.00     1600.00
01986             246.00     1800.00
01987             238.00     1600.00
01988            -254.00     1400.00
01989             -12.00     2000.00
01990             176.00     1800.00
01991            -126.00     1600.00
01992              40.00     1800.00
01993             114.00     2000.00
01994            -186.00     2000.00
01995              30.00     2000.00
01996             108.00     2400.00
01997            -106.00     2000.00
01998              40.00     2400.00
01999              34.00     2400.00
02000            -152.00     2400.00
02001             124.00     2600.00
02002              80.00     2600.00
02003            -222.00     2600.00
02004              58.00     2800.00
02005             136.00     2600.00
02006            -138.00     2600.00
02007              10.00     3200.00
02008              56.00     3000.00
02009             -78.00     3000.00
02010              42.00     3000.00
02011               6.00     3200.00
02012             -66.00     3000.00
02013              48.00     3200.00
02014             -16.00     3200.00
02015             -26.00     3200.00
02016              54.00     3400.00
02017             -42.00     3200.00
02018             -34.00     3400.00
02019              42.00     3400.00
02020             -26.00     3400.00
02021             -16.00     3600.00
02022              24.00     3600.00
02023             -10.00     3600.00
02024             -18.00     3600.00
02025             -10.00     3600.00
02026               0.00     3600.00
02027              14.00     3600.00
02028             -16.00     3800.00
02029             -16.00     3800.00
02030               6.00     3800.00
02031             -10.00     3600.00
02032             -16.00     3600.00
02033              10.00     4000.00
02034               0.00     4000.00
02035             -18.00     4000.00
02036               0.00     4000.00
02037               2.00     4000.00
02038             -16.00     4200.00
02039              -8.00     4000.00
02040               2.00     4000.00
02041               2.00     4000.00
02042              -8.00     4200.00
02043             -14.00     4200.00
02044              -2.00     4200.00
02045               4.00     4200.00
02046             -10.00     4400.00
02047              -2.00     4400.00
02048               2.00     4200.00
02049             -12.00     4400.00
02050              -8.00     4200.00
02051               0.00     4200.00
02052              -6.00     4400.00
02053              -6.00     4400.00
02054              -2.00     4400.00
02055               0.00     4400.00
02056              -6.00     4400.00
02057              -8.00     4400.00
02058              -8.00     4200.00
02059              -2.00     4400.00
02060              -2.00     4200.00
02061              -6.00     4400.00
02062               0.00     4400.00
02063              -6.00     4400.00
02064              -8.00     4200.00
02065              -2.00     4400.00
02066              -6.00     4200.00
02067              -8.00     4200.00
02068               0.00     4400.00
02069              -2.00     4200.00
02070             -10.00     4200.00
02071              -8.00     4200.00
02072              -2.00     4400.00
02073              -2.00     4200.00
02074              -8.00     4200.00
02075              -6.00     4200.00
02076              -2.00     4200.00
02077              -8.00     4200.00
02078             -10.00     4000.00
02079              -4.00     4200.00
02080               0.00     4200.00
02081              -8.00     4000.00
02082             -10.00     4000.00
02083              -4.00     4000.00
02084              -8.00     4000.00
02085              -8.00     4000.00
02086              -6.00     4000.00
02087              -2.00     4000.00
02088              -6.00     3800.00
02089              -8.00     4000.00
02090             -10.00     3800.00
02091              -8.00     3600.00
02092              -6.00     3800.00
02093              -2.00     3800.00
02094              -2.00     3600.00
02095              -6.00     3600.00
02096              -8.00     3600.00
02097              -6.00     3600.00
02098              -8.00     3600.00
02099              -6.00     3400.00
02100              -2.00     3400.00
02101              -2.00     3400.00
02102              -6.00     3400.00
02103             -10.00     3400.00
02104              -8.00     3200.00
02105              -2.00     3200.00
02106              -2.00     3200.00
02107              -2.00     3200.00
02108              -4.00     3200.00
02109              -8.00     3200.00
02110              -6.00     3200.00
02111              -2.00     2800.00
02112              -6.00     2800.00
02113              -4.00     2800.00
02114              -6.00     2800.00
02115              -2.00     2800.00
02116              -6.00     2800.00
02117              -6.00     2600.00
02118              -6.00     2600.00
02119               0.00     2600.00
02120              -2.00     2400.00
02121              -2.00     2600.00
02122              -8.00     2400.00
02123              -8.00     2400.00
02124             -10.00     2000.00
02125              -2.00     2200.00
02126               0.00     2000.00
02127               0.00     2000.00
02128              -4.00     2000.00
02129              -8.00     1800.00
02130              -8.00     2000.00
02131              -8.00     1800.00
02132              -4.00     1800.00
02133               0.00     1600.00
02134              -6.00     1600.00
02135              -8.00     1600.00
02136              -8.00     1600.00
02137              -8.00     1400.00
02138              -4.00     1400.00
02139              -8.00     1400.00
02140              -2.00     1200.00
02141              -2.00     1000.00
02142              -8.00     1000.00
02143             -10.00     1000.00
02144              -6.00     1000.00
02145              -8.00      800.00
02146              -4.00     1000.00
02147              -2.00      800.00
02148              -2.00      800.00
02149              -6.00      600.00
02150             -10.00      400.00
02151             -10.00      600.00
02152              -2.00      400.00
02153              -2.00      400.00
02154              -2.00      400.00
02155              -6.00      200.00
02156              -2.00      200.00
02157              -2.00      200.00
02158               0.00      200.00
02159               4.00        0.00
02160               6.00        0.00
02161              -2.00        0.00
02162              -8.00        0.00
02163              -6.00     -200.00
02164               0.00     -400.00
02165              18.00     -400.00
02166             110.00     -400.00
02167             112.00     -600.00
02168            -214.00     -800.00
02169            -254.00     -600.00
02170             156.00     -600.00
02171             246.00     -800.00
02172              32.00    -1000.00
02173            -254.00     -800.00
02174              24.00     -800.00
02175             246.00    -1200.00
02176            -128.00    -1000.00
02177            -254.00    -1200.00
02178             154.00    -1200.00
02179             246.00    -1200.00
02180            -128.00    -1400.00
02181             -58.00    -1600.00
02182             -16.00    -1400.00
02183             -86.00    -1400.00
02184             130.00    -1600.00
02185             132.00    -1600.00
02186            -196.00    -1600.00
02187             -74.00    -1800.00
02188             144.00    -2000.00
02189              14.00    -1800.00
02190             -40.00    -2000.00
02191             -38.00    -2200.00
02192             -30.00    -2000.00
02193              78.00    -2200.00
02194              50.00    -2400.00
02195            -130.00    -2400.00
02196              -8.00    -2200.00
02197              98.00    -2600.00
02198             -22.00    -2600.00
02199             -48.00    -2400.00
02200               4.00    -2800.00
02201               6.00    -2600.00
02202              10.00    -2800.00
02203               6.00    -2800.00
02204             -42.00    -2800.00
02205              -6.00    -2800.00
02206              26.00    -2800.00
02207               4.00    -3000.00
02208             -18.00    -3000.00
02209             -10.00    -3200.00
02210               0.00    -3200.00
02211               8.00    -3200.00
02212               0.00    -3200.00
02213             -20.00    -3200.00
02214               2.00    -3200.00
02215              16.00    -3400.00
02216             -14.00    -3200.00
02217             -24.00    -3200.00
02218              10.00    -3400.00
02219              14.00    -3400.00
02220              -6.00    -3600.00
02221              -4.00    -3600.00
02222              -8.00    -3600.00
02223              -8.00    -3800.00
02224               0.00    -3600.00
02225               2.00    -3600.00
02226               0.00    -3800.00
02227               0.00    -3600.00
02228              -2.00    -3600.00
02229               0.00    -3800.00
02230              -4.00    -3600.00
02231              -6.00    -3800.00
02232               6.00    -3800.00
02233               8.00    -3800.00
02234              -6.00    -3800.00
02235              -8.00    -3800.00
02236               0.00    -4000.00
02237               0.00    -3800.00
02238              -2.00    -3800.00
02239               0.00    -4000.00
02240               0.00    -4000.00
02241               0.00    -3800.00
02242              -4.00    -3800.00
02243              -2.00    -4000.00
02244              -2.00    -4000.00
02245               0.00    -4000.00
02246               0.00    -4000.00
02247               4.00    -4000.00
02248              -2.00    -4000.00
02249              -6.00    -4200.00
02250               0.00    -4000.00
02251               0.00    -4000.00
02252               0.00    -4200.00
02253               0.00    -4000.00
02254               0.00    -4000.00
02255              -2.00    -4000.00
02256              -6.00    -4000.00
02257              -2.00    -4000.00
02258               2.00    -4000.00
02259               2.00    -4000.00
02260               0.00    -4000.00
02261               0.00    -4000.00
02262              -6.00    -4000.00
02263              -6.00    -3800.00
02264              -2.00    -3800.00
02265               0.00    -4000.00
02266              -2.00    -4000.00
02267              -2.00    -3800.00
02268              -2.00    -4000.00
02269              -6.00    -3800.00
02270              -4.00    -3800.00
02271               0.00    -3800.00
02272               0.00    -4000.00
02273               0.00    -3800.00
02274               0.00    -3800.00
02275              -2.00    -3600.00
02276              -8.00    -3800.00
02277              -8.00    -3600.00
02278              -2.00    -3600.00
02279               0.00    -3600.00
02280               0.00    -3600.00
02281              -2.00    -3600.00
02282              -2.00    -3400.00
02283              -2.00    -3600.00
02284              -6.00    -3600.00
02285              -2.00    -3200.00
02286               0.00    -3200.00
02287              -2.00    -3200.00
02288              -4.00    -3200.00
02289              -6.00    -3400.00
02290              -2.00    -3200.00
02291              -2.00    -3200.00
02292              -2.00    -3000.00
02293               0.00    -3000.00
02294              -2.00    -3200.00
02295              -2.00    -3000.00
02296              -2.00    -3000.00
02297              -2.00    -3000.00
02298              -2.00    -3000.00
02299              -2.00    -2800.00
02300               0.00    -2800.00
02301               0.00    -2800.00
02302              -2.00    -2600.00
02303              -2.00    -2800.00
02304              -2.00    -2600.00
02305               0.00    -2400.00
02306               0.00    -2600.00
02307               0.00    -2400.00
02308              -4.00    -2400.00
02309              -6.00    -2200.00
02310              -2.00    -2400.00
02311               6.00    -2200.00
02312               2.00    -2200.00
02313              -8.00    -2200.00
02314              -2.00    -2200.00
02315               0.00    -2000.00
02316               0.00    -2000.00
02317               0.00    -2000.00
02318              -6.00    -1800.00
02319              -6.00    -1600.00
02320               6.00    -1600.00
02321               8.00    -1600.00
02322             -10.00    -1400.00
02323             -10.00    -1600.00
02324              -2.00    -1400.00
02325               8.00    -1400.00
02326              10.00    -1400.00
02327             -16.00    -1400.00
02328             -14.00    -1000.00
02329              -2.00    -1000.00
02330              -2.00    -1000.00
02331               2.00     -800.00
02332               0.00     -800.00
02333              -6.00     -800.00
02334              -6.00     -800.00
02335             -10.00     -800.00
02336              -6.00     -600.00
02337              -2.00     -600.00
02338               0.00     -400.00
02339               0.00     -400.00
02340               2.00     -400.00
02341             -10.00     -400.00
02342             -14.00     -200.00
02343               0.00        0.00
02344               4.00        0.00
02345              -2.00        0.00
02346             -10.00        0.00
02347             -10.00        0.00
02348               2.00      200.00
02349               8.00      200.00
02350              -2.00      200.00
02351               0.00      400.00
02352               2.00      400.00
02353              -8.00      400.00
02354              -6.00      400.00
02355               2.00      600.00
02356              10.00      800.00
02357             106.00     1000.00
02358             146.00     1000.00
02359            -224.00      800.00
02360            -254.00      800.00
02361             186.00     1200.00
02362             246.00     1200.00
02363             -10.00     1000.00
02364            -254.00      800.00
02365              92.00     1600.00
02366             246.00     1600.00
02367            -254.00     1200.00
02368            -254.00     1200.00
02369             246.00     1600.00
02370             246.00     1600.00
02371            -254.00     1600.00
02372             -48.00     1800.00
02373             192.00     1800.00
02374            -122.00     1600.00
02375              18.00     2000.00
02376             130.00     2000.00
02377            -174.00     1800.00
02378               8.00     2000.00
02379             118.00     2400.00
02380            -104.00     2200.00
02381              30.00     2400.00
02382              56.00     2400.00
02383            -158.00     2200.00
02384             102.00     2600.00
02385             106.00     2600.00
02386            -216.00     2400.00
02387              34.00     2800.00
02388             154.00     2800.00
02389            -128.00     2600.00
02390              -8.00     3000.00
02391              58.00     3000.00
02392             -80.00     2800.00
02393              34.00     3200.00
02394              22.00     3200.00
02395             -66.00     3000.00
02396              46.00     3200.00
02397             -14.00     3200.00
02398             -40.00     3200.00
02399              54.00     3400.00
02400             -32.00     3200.00
02401             -34.00     3400.00
02402              44.00     3600.00
02403             -24.00     3400.00
02404             -26.00     3400.00
02405              26.00     3600.00
02406             -10.00     3400.00
02407             -16.00     3600.00
02408             -10.00     3600.00
02409               0.00     3600.00
02410              14.00     3600.00
02411             -10.00     3800.00
02412             -18.00     3800.00
02413               6.00     3800.00
02414             -10.00     3800.00
02415             -16.00     4000.00
02416               8.00     4000.00
02417               2.00     4000.00
02418             -20.00     3800.00
02419              -2.00     4000.00
02420               6.00     4000.00
02421             -14.00     4200.00
02422             -10.00     4000.00
02423               2.00     4000.00
02424              -2.00     4200.00
02425              -2.00     4200.00
02426             -10.00     4200.00
02427              -2.00     4200.00
02428               0.00     4200.00
02429             -14.00     4200.00
02430              -2.00     4200.00
02431               8.00     4200.00
02432              -8.00     4200.00
02433             -10.00     4400.00
02434              -2.00     4400.00
02435              -6.00     4400.00
02436              -6.00     4400.00
02437               0.00     4400.00
02438               0.00     4200.00
02439              -6.00     4400.00
02440              -8.00     4400.00
02441              -8.00     4200.00
02442               0.00     4400.00
02443              -2.00     4400.00
02444              -6.00     4400.00
02445              -2.00     4800.00
02446              -6.00     4200.00
02447             -10.00     4200.00
02448              -6.00     4400.00
02449              -2.00     4400.00
02450              -6.00     4200.00
02451               0.00     4400.00
02452               0.00     4400.00
02453             -10.00     4200.00
02454              -8.00     4200.00
02455              -2.00     4200.00
02456               0.00     4400.00
02457              -6.00     4200.00
02458              -8.00     4400.00
02459              -2.00     4200.00
02460              -8.00     4200.00
02461             -10.00     4200.00
02462              -8.00     4200.00
02463               0.00     4000.00
02464              -6.00     4000.00
02465              -6.00     4000.00
02466              -8.00     4000.00
02467              -8.00     4000.00
02468              -8.00     4000.00
02469              -6.00     4000.00
02470              -2.00     4000.00
02471              -6.00     4000.00
02472              -8.00     3800.00
02473              -6.00     3800.00
02474              -8.00     3800.00
02475             -10.00     3600.00
02476              -4.00     3600.00
02477              -2.00     3600.00
02478              -6.00     3600.00
02479              -8.00     3600.00
02480              -6.00     3600.00
02481              -8.00     3400.00
02482              -8.00     3400.00
02483              -6.00     3400.00
02484              -2.00     3400.00
02485              -4.00     3200.00
02486              -8.00     3400.00
02487              -6.00     3200.00
02488              -6.00     3200.00
02489              -8.00     3200.00
02490              -2.00     3200.00
02491              -2.00     3200.00
02492              -2.00     3200.00
02493              -8.00     3000.00
02494              -6.00     2800.00
02495              -6.00     3000.00
02496              -6.00     3000.00
02497              -2.00     2800.00
02498              -2.00     2600.00
02499              -6.00     2800.00
02500              -6.00     2800.00
02501              -6.00     2600.00
02502              -2.00     2600.00
02503              -6.00     2400.00
02504              -2.00     2600.00
02505              -2.00     2400.00
02506              -2.00     2200.00
02507             -10.00     2200.00
02508              -8.00     2200.00
02509              -2.00     2400.00
02510              -2.00     2000.00
02511              -2.00     2000.00
02512              -2.00     2000.00
02513              -6.00     1800.00
02514              -8.00     1800.00
02515              -6.00     1800.00
02516              -2.00     1600.00
02517              -2.00     1600.00
02518              -2.00     1600.00
02519              -6.00     1600.00
02520              -6.00     1400.00
02521              -8.00     1200.00
02522              -6.00     1400.00
02523              -2.00     1200.00
02524              -2.00     1200.00
02525              -6.00     1200.00
02526              -8.00      800.00
02527              -6.00     1000.00
02528              -6.00      800.00
02529              -6.00      800.00
02530              -2.00      800.00
02531               0.00      800.00
02532              -6.00      800.00
02533              -8.00      600.00
02534              -8.00      400.00
02535              -6.00      400.00
02536               0.00      400.00
02537              -2.00      400.00
02538              -6.00      200.00
02539              -2.00      200.00
02540               0.00      200.00
02541               0.00        0.00
02542               0.00        0.00
02543               4.00        0.00
02544              -2.00        0.00
02545              -2.00     -200.00
02546              -8.00     -200.00
02547               0.00     -400.00
02548              20.00     -400.00
02549             102.00     -600.00
02550             122.00     -600.00
02551            -182.00     -800.00
02552            -254.00     -800.00
02553             102.00     -600.00
02554             246.00     -800.00
02555             110.00    -1200.00
02556            -254.00     -800.00
02557             -50.00    -1000.00
02558             246.00    -1000.00
02559             -62.00    -1000.00
02560            -254.00    -1200.00
02561             112.00    -1400.00
02562             246.00    -1400.00
02563            -118.00    -1400.00
02564             -74.00    -1600.00
02565              -6.00    -1600.00
02566             -90.00    -1400.00
02567             112.00    -1800.00
02568             154.00    -1800.00
02569            -186.00    -1600.00
02570             -90.00    -1800.00
02571             142.00    -2000.00
02572              26.00    -2000.00
02573             -38.00    -2000.00
02574             -34.00    -2200.00
02575             -32.00    -2000.00
02576              70.00    -2200.00
02577              62.00    -2400.00
02578            -130.00    -2400.00
02579             -18.00    -2200.00
02580             102.00    -2400.00
02581              -8.00    -2400.00
02582             -50.00    -2400.00
02583               2.00    -2600.00
02584               6.00    -2600.00
02585              14.00    -2800.00
02586              12.00    -2800.00
02587             -34.00    -2800.00
02588             -10.00    -3000.00
02589              22.00    -2800.00
02590               8.00    -3000.00
02591             -22.00    -3000.00
02592              -6.00    -3000.00
02593               2.00    -3200.00
02594               6.00    -3200.00
02595              -2.00    -3200.00
02596             -18.00    -3200.00
02597               6.00    -3200.00
02598              22.00    -3400.00
02599             -10.00    -3200.00
02600             -32.00    -3600.00
02601               6.00    -3200.00
02602              14.00    -3400.00
02603               0.00    -3600.00
02604              -4.00    -3600.00
02605             -10.00    -3600.00
02606             -12.00    -3400.00
02607               0.00    -3600.00
02608               8.00    -3600.00
02609               2.00    -3600.00
02610              -4.00    -3600.00
02611              -8.00    -3800.00
02612               0.00    -3800.00
02613               0.00    -3800.00
02614              -4.00    -3600.00
02615               2.00    -3800.00
02616               2.00    -3800.00
02617             -10.00    -3800.00
02618              -2.00    -4000.00
02619               8.00    -3800.00
02620               0.00    -3800.00
02621              -8.00    -4000.00
02622              -4.00    -4000.00
02623               0.00    -3800.00
02624               6.00    -4000.00
02625               0.00    -4000.00
02626              -2.00    -4000.00
02627              -2.00    -4000.00
02628              -2.00    -4200.00
02629               0.00    -4000.00
02630               2.00    -4000.00
02631               0.00    -4000.00
02632              -6.00    -4000.00
02633              -4.00    -4000.00
02634               0.00    -4000.00
02635               0.00    -3800.00
02636               2.00    -4000.00
02637               0.00    -4000.00
02638              -2.00    -3800.00
02639              -6.00    -4000.00
02640               0.00    -4000.00
02641               6.00    -3800.00
02642               2.00    -4200.00
02643              -2.00    -4000.00
02644              -2.00    -4000.00
02645              -4.00    -4000.00
02646              -2.00    -4000.00
02647               2.00    -4000.00
02648               6.00    -3800.00
02649               0.00    -4000.00
02650              -4.00    -4000.00
02651              -6.00    -4000.00
02652              -2.00    -3800.00
02653               0.00    -3800.00
02654               2.00    -3800.00
02655              -2.00    -3800.00
02656              -2.00    -3800.00
02657              -2.00    -3800.00
02658              -2.00    -3600.00
02659               0.00    -3800.00
02660              -2.00    -3600.00
02661              -6.00    -3600.00
02662               0.00    -3600.00
02663               0.00    -3600.00
02664              -2.00    -3600.00
02665              -2.00    -3600.00
02666              -4.00    -3600.00
02667              -6.00    -3400.00
02668              -2.00    -3200.00
02669               0.00    -3400.00
02670               0.00    -3400.00
02671              -2.00    -3200.00
02672              -4.00    -3400.00
02673              -6.00    -3200.00
02674               0.00    -3200.00
02675               0.00    -3200.00
02676               2.00    -3000.00
02677              -2.00    -3200.00
02678              -8.00    -3000.00
02679              -8.00    -3000.00
02680              -2.00    -2800.00
02681               2.00    -3000.00
02682               2.00    -2800.00
02683               0.00    -2800.00
02684              -6.00    -2800.00
02685             -10.00    -2800.00
02686              -2.00    -2800.00
02687              -2.00    -2800.00
02688              -2.00    -2400.00
02689               0.00    -2400.00
02690               0.00    -2400.00
02691              -2.00    -2400.00
02692              -2.00    -2400.00
02693               0.00    -2200.00
02694               2.00    -2200.00
02695               0.00    -2200.00
02696              -2.00    -2000.00
02697              -4.00    -2000.00
02698              -2.00    -2000.00
02699              -2.00    -2000.00
02700              -2.00    -2000.00
02701               0.00    -1600.00
02702               0.00    -1800.00
02703               0.00    -1600.00
02704               0.00    -1600.00
02705              -2.00    -1600.00
02706              -2.00    -1400.00
02707              -2.00    -1200.00
02708              -2.00    -1400.00
02709              -2.00    -1000.00
02710               0.00    -1200.00
02711              -2.00    -1200.00
02712               0.00    -1000.00
02713              -4.00    -1000.00
02714              -6.00    -1000.00
02715               0.00     -800.00
02716              -2.00     -800.00
02717              -2.00     -800.00
02718              -2.00     -600.00
02719              -2.00     -600.00
02720              -2.00     -600.00
02721              -2.00     -400.00
02722              -2.00     -400.00
02723              -2.00     -400.00
02724              -2.00     -200.00
02725              -4.00     -400.00
02726              -6.00        0.00
02727              -4.00        0.00
02728              -2.00        0.00
02729              -6.00        0.00
02730              -2.00      200.00
02731               0.00      200.00
02732               0.00      200.00
02733               0.00      400.00
02734               6.00      400.00
02735               6.00      400.00
02736              -6.00      400.00
02737             -10.00      400.00
02738              -6.00      600.00
02739              10.00      800.00
02740             102.00      800.00
02741             160.00     1000.00
02742            -184.00     1000.00
02743            -254.00      800.00
02744             126.00     1000.00
02745             246.00     1400.00
02746              82.00     1200.00
02747            -254.00      800.00
02748              16.00     1400.00
02749             246.00     1600.00
02750            -182.00     1200.00
02751            -254.00     1400.00
02752             246.00     1800.00
02753             246.00     1600.00
02754            -254.00     1600.00
02755             -88.00     1800.00
02756             202.00     2000.00
02757            -112.00     1800.00
02758              -2.00     2000.00
02759             142.00     2000.00
02760            -162.00     2000.00
02761             -14.00     2000.00
02762             128.00     2400.00
02763             -96.00     2200.00
02764              14.00     2400.00
02765              72.00     2400.00
02766            -154.00     2200.00
02767              80.00     2600.00
02768             130.00     2400.00
02769            -210.00     2600.00
02770               8.00     2800.00
02771             166.00     2800.00
02772            -118.00     2600.00
02773             -22.00     2800.00
02774              72.00     3000.00
02775             -74.00     2800.00
02776              26.00     3000.00
02777              30.00     3200.00
02778             -70.00     3000.00
02779              40.00     3200.00
02780               0.00     3200.00
02781             -42.00     3200.00
02782              50.00     3400.00
02783             -26.00     3200.00
02784             -42.00     3400.00
02785              40.00     3400.00
02786             -16.00     3400.00
02787             -28.00     3400.00
02788              26.00     3600.00
02789              -6.00     3600.00
02790             -18.00     3600.00
02791             -10.00     3600.00
02792               0.00     3600.00
02793              14.00     3600.00
02794             -10.00     3800.00
02795             -18.00     3800.00
02796               6.00     3800.00
02797              -8.00     4000.00
02798             -18.00     3800.00
02799               8.00     4000.00
02800               4.00     4000.00
02801             -22.00     4000.00
02802              -6.00     4200.00
02803               6.00     4000.00
02804             -14.00     4000.00
02805             -10.00     4000.00
02806               0.00     4000.00
02807              -2.00     4000.00
02808              -6.00     4000.00
02809             -14.00     4200.00
02810              -2.00     4200.00
02811               2.00     4400.00
02812             -16.00     4000.00
02813              -6.00     4200.00
02814               8.00     4200.00
02815             -10.00     4400.00
02816             -12.00     4200.00
02817              -2.00     4200.00
02818              -6.00     4200.00
02819              -6.00     4200.00
02820              -2.00     4400.00
02821              -2.00     4400.00
02822              -2.00     4200.00
02823             -10.00     4400.00
02824              -6.00     4200.00
02825              -2.00     4400.00
02826              -2.00     4400.00
02827              -6.00     4400.00
02828              -2.00     4400.00
02829              -6.00     4200.00
02830             -10.00     4200.00
02831              -6.00     4400.00
02832              -4.00     4400.00
02833              -8.00     4200.00
02834              -2.00     4400.00
02835               0.00     4200.00
02836              -8.00     4400.00
02837             -10.00     4400.00
02838              -2.00     4200.00
02839               0.00     4200.00
02840              -6.00     4200.00
02841              -8.00     4200.00
02842              -4.00     4200.00
02843              -2.00     4200.00
02844             -10.00     4200.00
02845              -6.00     4200.00
02846               0.00     4200.00
02847               0.00     4000.00
02848              -8.00     4000.00
02849              -2.00     4000.00
02850              -6.00     4000.00
02851             -10.00     4000.00
02852              -8.00     4000.00
02853               0.00     4000.00
02854             -10.00     3800.00
02855              -2.00     4000.00
02856              -6.00     3800.00
02857             -10.00     3800.00
02858              -2.00     3600.00
02859              -6.00     3600.00
02860              -8.00     3600.00
02861              -2.00     3600.00
02862             -10.00     3600.00
02863              -8.00     3600.00
02864              -2.00     3600.00
02865             -10.00     3400.00
02866              -6.00     3600.00
02867               0.00     3400.00
02868              -8.00     3400.00
02869             -12.00     3400.00
02870              -6.00     3400.00
02871             -10.00     3200.00
02872              -2.00     3200.00
02873               0.00     3200.00
02874              -6.00     3200.00
02875              -2.00     3200.00
02876             -10.00     3000.00
02877              -6.00     3000.00
02878              -2.00     2800.00
02879              -8.00     2800.00
02880              -8.00     2800.00
02881               0.00     2800.00
02882              -6.00     2800.00
02883              -6.00     2800.00
02884              -2.00     2600.00
02885              -6.00     2600.00
02886              -8.00     2400.00
02887               0.00     2400.00
02888              -2.00     2400.00
02889               0.00     2400.00
02890              -6.00     2400.00
02891              -8.00     2000.00
02892              -4.00     2200.00
02893              -2.00     2000.00
02894              -4.00     2000.00
02895              -2.00     2000.00
02896              -2.00     2000.00
02897              -6.00     1800.00
02898              -6.00     1800.00
02899              -2.00     1600.00
02900              -2.00     1600.00
02901              -2.00     1600.00
02902              -2.00     1600.00
02903              -4.00     1400.00
02904              -6.00     1600.00
02905              -2.00     1400.00
02906              -2.00     1200.00
02907               2.00     1200.00
02908              -6.00     1000.00
02909              -6.00     1200.00
02910              -8.00     1000.00
02911              -2.00     1000.00
02912              -2.00      800.00
02913               0.00      800.00
02914               0.00      800.00
02915              -6.00      800.00
02916             -10.00      600.00
02917              -6.00      600.00
02918               0.00      600.00
02919               0.00      400.00
02920              -2.00      400.00
02921              -8.00      200.00
02922              -2.00      200.00
02923               0.00        0.00
02924               0.00        0.00
02925               0.00        0.00
02926               6.00        0.00
02927               0.00        0.00
02928              -8.00        0.00
02929              -6.00     -200.00
02930               2.00     -400.00
02931              16.00     -400.00
02932              94.00     -400.00
02933             130.00     -600.00
02934            -150.00     -800.00
02935            -254.00     -800.00
02936              50.00     -600.00
02937             246.00     -600.00
02938             184.00    -1200.00
02939            -254.00     -800.00
02940            -114.00     -800.00
02941             246.00    -1200.00
02942               8.00    -1000.00
02943            -254.00    -1000.00
02944              66.00    -1200.00
02945             246.00    -1400.00
02946            -100.00    -1400.00
02947             -86.00    -1600.00
02948              -2.00    -1600.00
02949             -90.00    -1400.00
02950              96.00    -1600.00
02951             166.00    -2000.00
02952            -174.00    -1600.00
02953            -112.00    -2000.00
02954             134.00    -2000.00
02955              46.00    -2000.00
02956             -40.00    -2000.00
02957             -34.00    -2200.00
02958             -40.00    -2000.00
02959              62.00    -2200.00
02960              74.00    -2400.00
02961            -120.00    -2200.00
02962             -32.00    -2200.00
02963              98.00    -2400.00
02964               2.00    -2400.00
02965             -54.00    -2600.00
02966               2.00    -2600.00
02967               6.00    -2600.00
02968              10.00    -2600.00
02969              14.00    -2800.00
02970             -34.00    -2800.00
02971             -10.00    -3000.00
02972              24.00    -2800.00
02973              10.00    -2800.00
02974             -18.00    -3200.00
02975              -8.00    -3000.00
02976               2.00    -3200.00
02977               8.00    -3200.00
02978               0.00    -3200.00
02979             -16.00    -3200.00
02980              -2.00    -3200.00
02981              22.00    -3200.00
02982              -8.00    -3400.00
02983             -26.00    -3200.00
02984               8.00    -3600.00
02985              14.00    -3400.00
02986              -6.00    -3600.00
02987              -6.00    -3600.00
02988              -4.00    -3600.00
02989             -10.00    -3600.00
02990               0.00    -3600.00
02991               6.00    -3600.00
02992              -2.00    -3800.00
02993              -2.00    -3600.00
02994              -2.00    -3600.00
02995               0.00    -3800.00
02996              -2.00    -3800.00
02997             -10.00    -3800.00
02998               2.00    -3800.00
02999               8.00    -3800.00
03000              -6.00    -3800.00
03001              -8.00    -3800.00
03002               0.00    -4000.00
03003              -2.00    -4000.00
03004              -2.00    -4000.00
03005               0.00    -3800.00
03006               2.00    -4000.00
03007               0.00    -4000.00
03008              -6.00    -4000.00
03009              -4.00    -4000.00
03010              -2.00    -4000.00
03011               0.00    -4000.00
03012               2.00    -4000.00
03013               6.00    -4000.00
03014              -2.00    -4000.00
03015              -8.00    -4000.00
03016              -2.00    -4000.00
03017               0.00    -4000.00
03018               0.00    -3800.00
03019               2.00    -4000.00
03020               4.00    -4000.00
03021               0.00    -4000.00
03022              -8.00    -3800.00
03023              -6.00    -4000.00
03024               0.00    -4000.00
03025               6.00    -4000.00
03026               0.00    -4000.00
03027               0.00    -4000.00
03028              -2.00    -4000.00
03029              -4.00    -4000.00
03030              -2.00    -4000.00
03031               2.00    -4000.00
03032               0.00    -3800.00
03033               0.00    -4000.00
03034               2.00    -3800.00
03035              -2.00    -3800.00
03036              -2.00    -3800.00
03037              -2.00    -3800.00
03038               0.00    -3800.00
03039               2.00    -3800.00
03040               0.00    -3800.00
03041               0.00    -3800.00
03042              -4.00    -3600.00
03043              -6.00    -3800.00
03044               0.00    -3600.00
03045               4.00    -3600.00
03046              -2.00    -3600.00
03047              -6.00    -3600.00
03048              -2.00    -3600.00
03049              -4.00    -3600.00
03050              -2.00    -3400.00
03051              -2.00    -3400.00
03052               2.00    -3400.00
03053               0.00    -3400.00
03054              -4.00    -3200.00
03055              -6.00    -3200.00
03056              -6.00    -3200.00
03057              -2.00    -3200.00
03058               0.00    -3000.00
03059               2.00    -3200.00
03060              -2.00    -3000.00
03061              -8.00    -3000.00
03062              -6.00    -3000.00
03063              -2.00    -2800.00
03064               0.00    -3000.00
03065               0.00    -2800.00
03066               0.00    -2800.00
03067              -2.00    -3000.00
03068              -8.00    -2800.00
03069              -2.00    -2600.00
03070              -2.00    -2800.00
03071               0.00    -2400.00
03072               0.00    -2600.00
03073               0.00    -2400.00
03074              -2.00    -2400.00
03075              -2.00    -2200.00
03076              -2.00    -2400.00
03077              -2.00    -2200.00
03078               0.00    -2200.00
03079               0.00    -2200.00
03080              -2.00    -2000.00
03081              -2.00    -2000.00
03082              -4.00    -2000.00
03083              -2.00    -1800.00
03084               2.00    -1800.00
03085               2.00    -1600.00
03086              -2.00    -1600.00
03087              -2.00    -1600.00
03088               0.00    -1600.00
03089              -8.00    -1400.00
03090              -6.00    -1400.00
03091               4.00    -1200.00
03092               2.00    -1400.00
03093              -2.00    -1200.00
03094              -4.00    -1000.00
03095               0.00    -1200.00
03096              -2.00    -1000.00
03097              -6.00    -1000.00
03098              -2.00     -800.00
03099               0.00     -800.00
03100              -2.00     -600.00
03101               0.00     -600.00
03102              10.00     -600.00
03103              -6.00     -600.00
03104             -10.00     -400.00
03105             -10.00     -400.00
03106               0.00     -400.00
03107               2.00     -200.00
03108             -10.00     -200.00
03109               6.00     -200.00
03110               2.00        0.00
03111               8.00        0.00
03112             -10.00      200.00
03113               6.00        0.00
03114               4.00      200.00
03115             -10.00      200.00
03116             -24.00      200.00
03117              -8.00      200.00
03118              14.00      400.00
03119              18.00      400.00
03120               8.00      400.00
03121              -2.00      600.00
03122               0.00      800.00
03123              78.00      800.00
03124             166.00     1000.00
03125            -144.00      800.00
03126            -254.00      800.00
03127              60.00     1000.00
03128             246.00     1200.00
03129             162.00     1200.00
03130            -254.00     1000.00
03131             -52.00     1600.00
03132             246.00     1600.00
03133             -96.00     1200.00
03134            -254.00     1200.00
03135             246.00     2000.00
03136             246.00     1600.00
03137            -254.00     1600.00
03138            -122.00     1800.00
03139             216.00     2000.00
03140             -96.00     1800.00
03141             -22.00     1800.00
03142             158.00     2000.00
03143            -152.00     2000.00
03144             -34.00     2000.00
03145             134.00     2400.00
03146             -94.00     2200.00
03147             -14.00     2200.00
03148              78.00     2400.00
03149            -150.00     2200.00
03150              66.00     2600.00
03151             154.00     2600.00
03152            -202.00     2600.00
03153             -16.00     2800.00
03154             174.00     2800.00
03155            -110.00     2600.00
03156             -40.00     3000.00
03157              80.00     3000.00
03158             -68.00     2800.00
03159              22.00     3200.00
03160              38.00     3200.00
03161             -74.00     3000.00
03162              34.00     3200.00
03163               6.00     3200.00
03164             -48.00     3200.00
03165              48.00     3400.00
03166             -18.00     3400.00
03167             -48.00     3400.00
03168              44.00     3400.00
03169             -10.00     3400.00
03170             -32.00     3400.00
03171              30.00     3600.00
03172              -2.00     3600.00
03173             -18.00     3600.00
03174             -12.00     3600.00
03175              -6.00     3600.00
03176              10.00     3600.00
03177              -6.00     3600.00
03178             -18.00     3800.00
03179               8.00     3800.00
03180              -4.00     4000.00
03181             -20.00     3800.00
03182               6.00     4000.00
03183               6.00     4000.00
03184             -18.00     4000.00
03185              -6.00     4000.00
03186               6.00     4000.00
03187             -14.00     4000.00
03188             -10.00     4200.00
03189               0.00     4000.00
03190               0.00     4000.00
03191              -4.00     4200.00
03192             -14.00     4200.00
03193              -8.00     4000.00
03194              -2.00     4200.00
03195             -14.00     4200.00
03196              -6.00     4200.00
03197               8.00     4200.00
03198              -6.00     4200.00
03199             -10.00     4200.00
03200              -2.00     4400.00
03201              -6.00     4200.00
03202              -8.00     4400.00
03203              -2.00     4400.00
03204              -2.00     4200.00
03205              -8.00     4400.00
03206             -10.00     4400.00
03207              -8.00     4200.00
03208              -2.00     4400.00
03209              -6.00     4200.00
03210              -8.00     4200.00
03211              -4.00     4400.00
03212              -8.00     4400.00
03213             -10.00     4200.00
03214              -4.00     4400.00
03215              -6.00     4200.00
03216              -6.00     4200.00
03217               0.00     4200.00
03218               0.00     4400.00
03219              -2.00     4200.00
03220             -14.00     4400.00
03221              -8.00     4200.00
03222               0.00     4200.00
03223              -2.00     4200.00
03224              -8.00     4200.00
03225               0.00     4200.00
03226              -8.00     4200.00
03227             -10.00     4200.00
03228              -6.00     4200.00
03229              -2.00     4000.00
03230               0.00     4000.00
03231              -4.00     4200.00
03232              -8.00     4000.00
03233              -6.00     4000.00
03234             -10.00     4000.00
03235              -2.00     4000.00
03236               0.00     4000.00
03237               0.00     4000.00
03238              -6.00     3800.00
03239              -6.00     3800.00
03240             -10.00     3600.00
03241              -8.00     3800.00
03242               2.00     3600.00
03243               0.00     3800.00
03244             -10.00     3600.00
03245             -14.00     3600.00
03246              -8.00     3600.00
03247               0.00     3600.00
03248              -2.00     3600.00
03249             -10.00     3400.00
03250             -10.00     3400.00
03251              -6.00     3400.00
03252              -2.00     3200.00
03253               2.00     3400.00
03254              -6.00     3400.00
03255             -10.00     3200.00
03256              -6.00     3200.00
03257               0.00     3200.00
03258               0.00     3000.00
03259              -8.00     3000.00
03260              -8.00     3200.00
03261              -8.00     3000.00
03262              -6.00     2800.00
03263              -2.00     2800.00
03264              -2.00     2600.00
03265              -8.00     2600.00
03266              -8.00     2600.00
03267              -6.00     2600.00
03268              -4.00     2600.00
03269              -6.00     2600.00
03270              -2.00     2400.00
03271              -8.00     2400.00
03272              -2.00     2400.00
03273              -8.00     2200.00
03274              -2.00     2000.00
03275              -2.00     2000.00
03276              -6.00     2000.00
03277              -6.00     2000.00
03278              -6.00     2000.00
03279              -6.00     1800.00
03280              -2.00     1800.00
03281              -6.00     1800.00
03282              -2.00     1800.00
03283               0.00     1600.00
03284              -6.00     1600.00
03285              -4.00     1400.00
03286              -4.00     1400.00
03287              -6.00     1400.00
03288              -2.00     1200.00
03289               0.00     1200.00
03290              -2.00     1200.00
03291              -6.00     1200.00
03292              -6.00     1000.00
03293              -2.00     1000.00
03294              -2.00     1000.00
03295              -6.00      800.00
03296              -2.00      800.00
03297              -2.00      800.00
03298              -6.00      800.00
03299              -6.00      600.00
03300              -6.00      400.00
03301              -2.00      400.00
03302              -2.00      400.00
03303              -6.00      400.00
03304              -6.00      200.00
03305              -2.00      200.00
03306               0.00      200.00
03307               0.00        0.00
03308               0.00        0.00
03309               6.00        0.00
03310               0.00        0.00
03311              -8.00        0.00
03312              -6.00     -400.00
03313               0.00     -200.00
03314              14.00     -400.00
03315              86.00     -600.00
03316             136.00     -600.00
03317            -126.00     -800.00
03318            -254.00     -800.00
03319              -2.00     -400.00
03320             246.00     -800.00
03321             246.00     -800.00
03322            -254.00     -800.00
03323            -178.00     -800.00
03324             246.00    -1200.00
03325              72.00    -1000.00
03326            -254.00    -1200.00
03327              22.00    -1400.00
03328             246.00    -1400.00
03329             -82.00    -1200.00
03330             -96.00    -1600.00
03331               0.00    -1600.00
03332             -92.00    -1400.00
03333              76.00    -1800.00
03334             182.00    -1800.00
03335            -158.00    -1600.00
03336            -128.00    -2000.00
03337             126.00    -2000.00
03338              54.00    -1800.00
03339             -44.00    -2000.00
03340             -32.00    -2400.00
03341             -42.00    -2200.00
03342              56.00    -2200.00
03343              78.00    -2400.00
03344            -114.00    -2200.00
03345             -42.00    -2400.00
03346              98.00    -2600.00
03347              14.00    -2400.00
03348             -58.00    -2400.00
03349              -2.00    -2600.00
03350               8.00    -2600.00
03351              14.00    -2800.00
03352              14.00    -2800.00
03353             -34.00    -2800.00
03354             -14.00    -2800.00
03355              24.00    -3000.00
03356              16.00    -3000.00
03357             -18.00    -3000.00
03358             -14.00    -3000.00
03359               2.00    -3000.00
03360              12.00    -3200.00
03361               0.00    -3200.00
03362             -18.00    -3200.00
03363              -6.00    -3200.00
03364              24.00    -3400.00
03365               2.00    -3200.00
03366             -26.00    -3200.00
03367               0.00    -3600.00
03368              10.00    -3400.00
03369              -2.00    -3200.00
03370               0.00    -3600.00
03371               0.00    -3600.00
03372             -10.00    -3600.00
03373              -2.00    -3600.00
03374               2.00    -3800.00
03375               2.00    -3800.00
03376              -6.00    -3600.00
03377              -6.00    -3800.00
03378               0.00    -3800.00
03379               0.00    -3800.00
03380              -6.00    -3800.00
03381              -2.00    -3800.00
03382               6.00    -4000.00
03383              -4.00    -4000.00
03384              -8.00    -3800.00
03385              -2.00    -4000.00
03386              -2.00    -4000.00
03387              -4.00    -4000.00
03388               2.00    -3800.00
03389               0.00    -4000.00
03390              -2.00    -4000.00
03391             -10.00    -4000.00
03392              -6.00    -4000.00
03393              -2.00    -4000.00
03394               0.00    -4000.00
03395               0.00    -4000.00
03396              -2.00    -3800.00
03397              -6.00    -4000.00
03398              -8.00    -4000.00
03399               0.00    -4000.00
03400               2.00    -3800.00
03401              -2.00    -4000.00
03402               0.00    -4000.00
03403               0.00    -4000.00
03404              -2.00    -4000.00
03405              -4.00    -4000.00
03406              -4.00    -4000.00
03407               0.00    -4000.00
03408               2.00    -3800.00
03409               0.00    -4000.00
03410               0.00    -4000.00
03411              -2.00    -3800.00
03412              -8.00    -4000.00
03413              -2.00    -4000.00
03414               4.00    -4000.00
03415               6.00    -3800.00
03416               0.00    -4000.00
03417              -2.00    -4000.00
03418              -6.00    -3800.00
03419              -4.00    -3800.00
03420               0.00    -3800.00
03421               6.00    -3800.00
03422               4.00    -3600.00
03423              -2.00    -3800.00
03424              -6.00    -3600.00
03425              -2.00    -3800.00
03426              -2.00    -3600.00
03427               2.00    -3800.00
03428               4.00    -3600.00
03429               0.00    -3600.00
03430              -2.00    -3600.00
03431              -2.00    -3600.00
03432               0.00    -3400.00
03433               0.00    -3400.00
03434              -2.00    -3200.00
03435               0.00    -3200.00
03436               0.00    -3400.00
03437              -4.00    -3400.00
03438              -2.00    -3200.00
03439              -2.00    -3200.00
03440              -2.00    -3200.00
03441              -2.00    -3200.00
03442              -2.00    -3000.00
03443               0.00    -3000.00
03444               0.00    -3000.00
03445              -2.00    -3000.00
03446              -2.00    -3000.00
03447               0.00    -3000.00
03448               0.00    -3000.00
03449              -2.00    -2800.00
03450              -2.00    -2800.00
03451              -2.00    -2800.00
03452              -2.00    -2400.00
03453              -2.00    -2800.00
03454              -6.00    -2600.00
03455               0.00    -2400.00
03456               0.00    -2600.00
03457              -2.00    -2400.00
03458              -6.00    -2400.00
03459              -2.00    -2400.00
03460              -2.00    -2400.00
03461               0.00    -2000.00
03462              -2.00    -2200.00
03463              -2.00    -2000.00
03464              -4.00    -2000.00
03465              -2.00    -2000.00
03466              -2.00    -2000.00
03467              -2.00    -1800.00
03468              -4.00    -1800.00
03469              -6.00    -1600.00
03470              -2.00    -1600.00
03471               0.00    -1400.00
03472              -2.00    -1600.00
03473              -6.00    -1400.00
03474              -2.00    -1400.00
03475               0.00    -1200.00
03476               0.00    -1200.00
03477              -2.00    -1200.00
03478              -4.00    -1000.00
03479              -6.00    -1000.00
03480              -4.00    -1000.00
03481               2.00     -800.00
03482               6.00     -800.00
03483               0.00     -600.00
03484              -2.00     -800.00
03485             -10.00     -600.00
03486             -10.00     -800.00
03487              -6.00     -400.00
03488               6.00     -400.00
03489              14.00     -400.00
03490              10.00     -400.00
03491             -10.00     -400.00
03492             -18.00     -200.00
03493             -10.00        0.00
03494               4.00        0.00
03495               8.00      200.00
03496               6.00      200.00
03497              -2.00      200.00
03498              -8.00      400.00
03499             -10.00      400.00
03500               6.00      400.00
03501              14.00      400.00
03502               2.00      400.00
03503              -8.00      400.00
03504             -10.00      400.00
03505               0.00      800.00
03506              80.00      800.00
03507             174.00     1000.00
03508            -112.00      800.00
03509            -254.00      800.00
03510              14.00     1000.00
03511             246.00     1400.00
03512             246.00     1200.00
03513            -254.00      800.00
03514            -142.00     1200.00
03515             246.00     1600.00
03516             -10.00     1400.00
03517            -254.00     1200.00
03518             200.00     1600.00
03519             246.00     1600.00
03520            -254.00     1400.00
03521            -168.00     1800.00
03522             218.00     2000.00
03523             -78.00     1800.00
03524             -40.00     1800.00
03525             152.00     2000.00
03526            -138.00     1800.00
03527             -62.00     2000.00
03528             136.00     2200.00
03529             -74.00     2000.00
03530             -18.00     2400.00
03531              94.00     2400.00
03532            -148.00     2200.00
03533              30.00     2600.00
03534             162.00     2800.00
03535            -184.00     2400.00
03536             -44.00     2800.00
03537             182.00     2800.00
03538             -90.00     2600.00
03539             -54.00     2800.00
03540              86.00     3000.00
03541             -64.00     2800.00
03542               6.00     3200.00
03543              50.00     3200.00
03544             -78.00     3200.00
03545              24.00     3200.00
03546              16.00     3200.00
03547             -48.00     3200.00
03548              48.00     3400.00
03549              -8.00     3200.00
03550             -56.00     3400.00
03551              40.00     3600.00
03552              -2.00     3400.00
03553             -32.00     3600.00
03554              26.00     3600.00
03555              -2.00     3600.00
03556             -26.00     3600.00
03557             -10.00     3600.00
03558              -2.00     3600.00
03559              16.00     3800.00
03560              -2.00     4000.00
03561             -22.00     4000.00
03562               6.00     4000.00
03563              -2.00     4000.00
03564             -22.00     3800.00
03565               0.00     4000.00
03566              10.00     4000.00
03567             -16.00     4000.00
03568              -6.00     4000.00
03569              10.00     4200.00
03570             -16.00     4000.00
03571             -14.00     4200.00
03572               0.00     4000.00
03573               0.00     4200.00
03574              -2.00     4000.00
03575             -14.00     4200.00
03576              -8.00     4200.00
03577               2.00     4200.00
03578             -16.00     4200.00
03579             -10.00     4200.00
03580               8.00     4400.00
03581              -8.00     4200.00
03582             -12.00     4200.00
03583              -2.00     4200.00
03584             -10.00     4400.00
03585             -10.00     4200.00
03586               0.00     4400.00
03587               2.00     4400.00
03588              -8.00     4200.00
03589             -10.00     4400.00
03590             -10.00     4200.00
03591              -2.00     4200.00
03592              -2.00     4200.00
03593              -6.00     4400.00
03594              -2.00     4400.00
03595              -6.00     4200.00
03596             -10.00     4400.00
03597              -2.00     4400.00
03598              -2.00     4200.00
03599              -8.00     4400.00
03600              -2.00     4200.00
03601               0.00     4200.00
03602              -8.00     4400.00
03603             -10.00     4400.00
03604              -8.00     4200.00
03605               0.00     4200.00
03606              -2.00     4200.00
03607              -8.00     4200.00
03608              -6.00     4200.00
03609              -4.00     4000.00
03610              -8.00     4200.00
03611              -6.00     4200.00
03612               0.00     4200.00
03613              -2.00     4200.00
03614             -10.00     4000.00
03615              -4.00     4200.00
03616              -6.00     4000.00
03617              -2.00     4000.00
03618              -2.00     4000.00
03619              -2.00     4000.00
03620              -6.00     4000.00
03621              -6.00     4000.00
03622              -4.00     3800.00
03623              -2.00     3800.00
03624              -6.00     3600.00
03625              -4.00     3800.00
03626              -2.00     3600.00
03627              -6.00     3600.00
03628              -6.00     3600.00
03629              -2.00     3600.00
03630              -6.00     3600.00
03631              -8.00     3600.00
03632              -6.00     3600.00
03633              -2.00     3400.00
03634              -2.00     3400.00
03635              -6.00     3400.00
03636              -8.00     3200.00
03637              -8.00     3200.00
03638              -6.00     3200.00
03639              -4.00     3200.00
03640              -2.00     3200.00
03641              -2.00     3200.00
03642              -8.00     3200.00
03643              -8.00     3000.00
03644              -6.00     2800.00
03645              -6.00     3000.00
03646              -2.00     2800.00
03647               0.00     2800.00
03648              -8.00     2800.00
03649              -6.00     2800.00
03650              -8.00     2600.00
03651              -4.00     2600.00
03652              -6.00     2400.00
03653              -6.00     2400.00
03654              -6.00     2400.00
03655              -6.00     2400.00
03656              -8.00     2200.00
03657              -6.00     2400.00
03658              -2.00     2000.00
03659              -6.00     2000.00
03660              -6.00     1800.00
03661              -6.00     2000.00
03662              -6.00     1800.00
03663              -6.00     1800.00
03664              -4.00     1800.00
03665              -4.00     1800.00
03666              -6.00     1600.00
03667              -4.00     1800.00
03668              -6.00     1600.00
03669              -6.00     1600.00
03670              -2.00     1400.00
03671              -6.00     1200.00
03672              -2.00     1200.00
03673               0.00     1200.00
03674              -6.00     1200.00
03675              -6.00     1000.00
03676              -6.00     1000.00
03677              -4.00     1000.00
03678              -2.00     1000.00
03679              -2.00      800.00
03680               0.00      800.00
03681              -2.00      800.00
03682              -6.00      600.00
03683              -6.00      800.00
03684              -2.00      400.00
03685              -2.00      400.00
03686               0.00      400.00
03687              -6.00      200.00
03688              -2.00      200.00
03689               2.00      200.00
03690              -2.00        0.00
03691               0.00        0.00
03692               8.00        0.00
03693               0.00     -200.00
03694              -6.00        0.00
03695              -6.00     -200.00
03696              -2.00     -400.00
03697              10.00     -400.00
03698              78.00     -400.00
03699             138.00     -600.00
03700             -96.00     -800.00
03701            -254.00     -800.00
03702             -52.00     -600.00
03703             246.00     -800.00
03704             246.00    -1200.00
03705            -254.00    -1000.00
03706            -240.00     -800.00
03707             246.00    -1200.00
03708             140.00    -1000.00
03709            -254.00    -1200.00
03710             -24.00    -1400.00
03711             246.00    -1400.00
03712             -62.00    -1400.00
03713            -110.00    -1600.00
03714               2.00    -1800.00
03715             -90.00    -1200.00
03716              58.00    -1600.00
03717             192.00    -2000.00
03718            -138.00    -1800.00
03719            -144.00    -1800.00
03720             112.00    -2000.00
03721              66.00    -2000.00
03722             -46.00    -2200.00
03723             -32.00    -2200.00
03724             -42.00    -2000.00
03725              48.00    -2000.00
03726              88.00    -2400.00
03727            -108.00    -2200.00
03728             -58.00    -2400.00
03729              94.00    -2400.00
03730              22.00    -2400.00
03731             -62.00    -2400.00
03732              -2.00    -2800.00
03733               6.00    -2600.00
03734              10.00    -2800.00
03735              16.00    -2800.00
03736             -30.00    -2800.00
03737             -16.00    -3000.00
03738              24.00    -2800.00
03739              16.00    -3000.00
03740             -18.00    -3000.00
03741             -10.00    -3200.00
03742               0.00    -3000.00
03743              10.00    -3200.00
03744               6.00    -3200.00
03745             -14.00    -3000.00
03746              -6.00    -3400.00
03747              18.00    -3200.00
03748              -2.00    -3200.00
03749             -30.00    -3400.00
03750               4.00    -3200.00
03751              16.00    -3400.00
03752              -2.00    -3400.00
03753              -8.00    -3600.00
03754              -2.00    -3600.00
03755              -4.00    -3600.00
03756               0.00    -3600.00
03757               6.00    -3600.00
03758              -2.00    -3600.00
03759              -8.00    -3800.00
03760              -2.00    -3600.00
03761               6.00    -3600.00
03762               6.00    -3800.00
03763              -8.00    -3800.00
03764              -8.00    -3800.00
03765               0.00    -3800.00
03766              -2.00    -3800.00
03767              -2.00    -3800.00
03768               6.00    -3800.00
03769               0.00    -4000.00
03770              -8.00    -4000.00
03771              -6.00    -4000.00
03772               0.00    -4000.00
03773               2.00    -3800.00
03774               0.00    -4000.00
03775              -2.00    -4000.00
03776              -2.00    -4000.00
03777              -2.00    -4000.00
03778              -2.00    -4000.00
03779               0.00    -4000.00
03780              -2.00    -4000.00
03781              -6.00    -4000.00
03782              -2.00    -4000.00
03783               0.00    -4200.00
03784              -2.00    -4000.00
03785              -2.00    -4000.00
03786              -2.00    -4000.00
03787              -2.00    -4000.00
03788              -2.00    -4000.00
03789              -4.00    -4000.00
03790               0.00    -4000.00
03791               2.00    -4000.00
03792               0.00    -4000.00
03793               0.00    -4000.00
03794              -2.00    -4000.00
03795              -6.00    -3800.00
03796              -2.00    -4000.00
03797               4.00    -4000.00
03798               0.00    -4000.00
03799               0.00    -4000.00
03800              -2.00    -3800.00
03801              -6.00    -3800.00
03802              -2.00    -3800.00
03803               2.00    -3800.00
03804               6.00    -3800.00
03805               0.00    -3800.00
03806              -2.00    -3800.00
03807              -2.00    -3600.00
03808              -2.00    -3800.00
03809              -2.00    -3800.00
03810               0.00    -3600.00
03811               4.00    -3600.00
03812               0.00    -3600.00
03813               0.00    -3600.00
03814               0.00    -3400.00
03815              -2.00    -3600.00
03816              -2.00    -3400.00
03817               2.00    -3400.00
03818               0.00    -3400.00
03819               0.00    -3200.00
03820              -2.00    -3200.00
03821              -2.00    -3200.00
03822               0.00    -3200.00
03823               0.00    -3200.00
03824               0.00    -3200.00
03825               0.00    -3000.00
03826               0.00    -3200.00
03827              -6.00    -3000.00
03828              -2.00    -3000.00
03829              -2.00    -3000.00
03830               0.00    -2800.00
03831              -2.00    -2800.00
03832              -2.00    -3000.00
03833              -2.00    -2800.00
03834              -2.00    -2800.00
03835              -2.00    -2800.00
03836              -2.00    -2600.00
03837              -2.00    -2600.00
03838              -2.00    -2600.00
03839              -2.00    -2400.00
03840              -2.00    -2400.00
03841              -6.00    -2400.00
03842              -2.00    -2400.00
03843              -2.00    -2200.00
03844               0.00    -2200.00
03845              -2.00    -2200.00
03846              -2.00    -2000.00
03847              -6.00    -2000.00
03848              -4.00    -2000.00
03849              -2.00    -2000.00
03850              -4.00    -2000.00
03851              -2.00    -1600.00
03852              -2.00    -1600.00
03853              -2.00    -1600.00
03854              -2.00    -1400.00
03855              -2.00    -1400.00
03856              -2.00    -1400.00
03857              -6.00    -1200.00
03858              -2.00    -1400.00
03859               4.00    -1200.00
03860               0.00    -1200.00
03861               0.00    -1000.00
03862              -2.00    -1200.00
03863             -10.00     -800.00
03864              -8.00     -800.00
03865               0.00     -800.00
03866               2.00     -800.00
03867               6.00     -800.00
03868              -2.00     -600.00
03869             -14.00     -800.00
03870             -10.00     -600.00
03871               2.00     -400.00
03872               6.00     -200.00
03873               6.00     -200.00
03874             -10.00     -400.00
03875             -16.00        0.00
03876              -2.00      200.00
03877               8.00        0.00
03878              -2.00        0.00
03879              -6.00      200.00
03880              -6.00      200.00
03881               0.00      200.00
03882               6.00      200.00
03883               8.00      400.00
03884               8.00      400.00
03885              -2.00      400.00
03886             -10.00      600.00
03887              -2.00      400.00
03888               8.00      600.00
03889              74.00      800.00
03890             176.00     1000.00
03891             -82.00      800.00
03892            -254.00      800.00
03893             -42.00     1000.00
03894             246.00     1200.00
03895             246.00     1200.00
03896            -254.00      800.00
03897            -214.00     1200.00
03898             246.00     1600.00
03899              74.00     1200.00
03900            -254.00     1200.00
03901             132.00     1600.00
03902             246.00     1600.00
03903            -254.00     1400.00
03904            -194.00     1800.00
03905             224.00     1800.00
03906             -64.00     1800.00
03907             -66.00     1800.00
03908             152.00     2200.00
03909            -112.00     2000.00
03910             -72.00     2000.00
03911             142.00     2200.00
03912             -64.00     2000.00
03913             -44.00     2400.00
03914              96.00     2400.00
03915            -136.00     2400.00
03916              12.00     2600.00
03917             182.00     2800.00
03918            -168.00     2400.00
03919             -78.00     2800.00
03920             182.00     2800.00
03921             -74.00     2600.00
03922             -70.00     2800.00
03923              90.00     3000.00
03924             -50.00     2800.00
03925              -6.00     3000.00
03926              50.00     3200.00
03927             -80.00     3200.00
03928              16.00     3200.00
03929              24.00     3200.00
03930             -48.00     3200.00
03931              42.00     3400.00
03932               0.00     3400.00
03933             -64.00     3200.00
03934              38.00     3400.00
03935               0.00     3400.00
03936             -34.00     3400.00
03937              26.00     3600.00
03938               6.00     3600.00
03939             -24.00     3600.00
03940             -16.00     3800.00
03941               0.00     3600.00
03942              18.00     3600.00
03943               2.00     3800.00
03944             -24.00     3800.00
03945               0.00     3800.00
03946               0.00     3800.00
03947             -14.00     4000.00
03948               2.00     4000.00
03949               8.00     3800.00
03950             -16.00     4000.00
03951             -10.00     4000.00
03952              10.00     4200.00
03953             -10.00     4200.00
03954             -10.00     4200.00
03955               2.00     4000.00
03956               0.00     4200.00
03957              -8.00     4000.00
03958             -16.00     4400.00
03959              -4.00     4000.00
03960               6.00     4200.00
03961              -8.00     4200.00
03962             -10.00     4200.00
03963               0.00     4200.00
03964             -10.00     4400.00
03965             -16.00     4200.00
03966               0.00     4400.00
03967              -2.00     4200.00
03968              -8.00     4400.00
03969              -4.00     4200.00
03970              -2.00     4200.00
03971              -6.00     4400.00
03972              -8.00     4400.00
03973             -10.00     4400.00
03974              -2.00     4400.00
03975              -2.00     4200.00
03976              -8.00     4400.00
03977              -6.00     4200.00
03978              -6.00     4400.00
03979             -10.00     4400.00
03980              -6.00     4400.00
03981              -6.00     4400.00
03982              -8.00     4400.00
03983              -2.00     4200.00
03984               2.00     4200.00
03985              -8.00     4200.00
03986             -10.00     4400.00
03987              -8.00     4200.00
03988               0.00     4200.00
03989               0.00     4200.00
03990              -2.00     4200.00
03991              -6.00     4200.00
03992              -6.00     4000.00
03993             -14.00     4200.00
03994             -10.00     4200.00
03995               0.00     4200.00
03996               2.00     4200.00
03997              -2.00     4000.00
03998              -6.00     4200.00
03999              -6.00     4000.00
04000              -8.00     4000.00
04001              -6.00     4000.00
04002              -2.00     4000.00
04003              -2.00     4000.00
04004              -2.00     4000.00
04005              -6.00     3800.00
04006              -6.00     4000.00
04007             -10.00     3800.00
04008              -2.00     4000.00
04009               0.00     3600.00
04010              -2.00     3600.00
04011              -6.00     3600.00
04012              -6.00     3600.00
04013              -6.00     3600.00
04014              -6.00     3600.00
04015              -2.00     3400.00
04016               0.00     3400.00
04017              -2.00     3400.00
04018              -8.00     3400.00
04019              -8.00     3400.00
04020              -2.00     3200.00
04021              -6.00     3200.00
04022              -2.00     3200.00
04023              -2.00     3200.00
04024              -6.00     3000.00
04025              -8.00     3200.00
04026              -6.00     2800.00
04027              -8.00     3200.00
04028              -6.00     2800.00
04029              -6.00     2800.00
04030              -2.00     2800.00
04031              -6.00     2600.00
04032              -6.00     2800.00
04033              -8.00     2800.00
04034              -4.00     2600.00
04035              -4.00     2400.00
04036              -6.00     2600.00
04037              -2.00     2400.00
04038               0.00     2600.00
04039              -6.00     2400.00
04040             -10.00     2200.00
04041              -8.00     2000.00
04042              -8.00     2000.00
04043              -6.00     2000.00
04044               0.00     2000.00
04045               0.00     1800.00
04046              -6.00     1800.00
04047             -10.00     1800.00
04048              -8.00     1600.00
04049              -8.00     1800.00
04050               0.00     1600.00
04051               0.00     1600.00
04052              -6.00     1600.00
04053              -6.00     1200.00
04054             -10.00     1400.00
04055              -2.00     1200.00
04056               0.00     1200.00
04057              -2.00     1200.00
04058              -6.00     1000.00
04059              -4.00     1000.00
04060              -6.00     1000.00
04061              -6.00      800.00
04062              -2.00      800.00
04063               0.00      800.00
04064              -2.00      800.00
04065              -2.00      600.00
04066              -2.00      600.00
04067              -2.00      400.00
04068              -4.00      400.00
04069              -8.00      400.00
04070              -6.00      400.00
04071               0.00      200.00
04072               6.00      200.00
04073               0.00        0.00
04074               0.00        0.00
04075               4.00        0.00
04076               0.00        0.00
04077              -6.00        0.00
04078              -6.00        0.00
04079               2.00     -400.00
04080              14.00     -400.00
04081              72.00     -400.00
04082             142.00     -400.00
04083             -72.00     -800.00
04084            -254.00     -800.00
04085             -98.00     -600.00
04086             246.00     -600.00
04087             246.00     -800.00
04088            -254.00    -1000.00
04089            -254.00     -800.00
04090             246.00    -1200.00
04091             208.00    -1000.00
04092            -254.00    -1200.00
04093             -70.00    -1200.00
04094             246.00    -1400.00
04095             -38.00    -1200.00
04096            -118.00    -1400.00
04097               6.00    -1600.00
04098             -88.00    -1400.00
04099              40.00    -1600.00
04100             200.00    -1800.00
04101            -120.00    -2000.00
04102            -160.00    -2000.00
04103              96.00    -2000.00
04104              84.00    -2000.00
04105             -42.00    -2000.00
04106             -32.00    -2400.00
04107             -48.00    -2000.00
04108              34.00    -2000.00
04109              92.00    -2400.00
04110             -98.00    -2400.00
04111             -70.00    -2400.00
04112              92.00    -2400.00
04113              38.00    -2400.00
04114             -62.00    -2400.00
04115              -2.00    -2400.00
04116               6.00    -2600.00
04117              10.00    -2800.00
04118              18.00    -2800.00
04119             -26.00    -2800.00
04120             -22.00    -2800.00
04121              18.00    -2800.00
04122              14.00    -2800.00
04123             -22.00    -3000.00
04124             -10.00    -3200.00
04125               2.00    -3200.00
04126              14.00    -3000.00
04127               6.00    -3200.00
04128             -10.00    -3200.00
04129              -6.00    -3200.00
04130              18.00    -3200.00
04131              -8.00    -3200.00
04132             -38.00    -3400.00
04133             -10.00    -3400.00
04134              16.00    -3200.00
04135               6.00    -3400.00
04136               6.00    -3600.00
04137               8.00    -3600.00
04138               0.00    -3600.00
04139              -2.00    -3600.00
04140              -2.00    -3600.00
04141             -10.00    -3600.00
04142             -10.00    -3600.00
04143              -6.00    -3600.00
04144               6.00    -3800.00
04145               6.00    -3600.00
04146               0.00    -3800.00
04147               4.00    -3800.00
04148              10.00    -4000.00
04149               0.00    -3800.00
04150             -10.00    -3800.00
04151              -2.00    -3800.00
04152              -2.00    -4000.00
04153              -6.00    -4000.00
04154              -6.00    -3800.00
04155               6.00    -4000.00
04156               8.00    -4000.00
04157               0.00    -4000.00
04158               0.00    -4000.00
04159              -2.00    -4000.00
04160              -4.00    -4000.00
04161              -2.00    -4000.00
04162              -2.00    -4000.00
04163              -6.00    -4000.00
04164              -8.00    -4000.00
04165              -2.00    -4000.00
04166               6.00    -4200.00
04167               6.00    -4000.00
04168               0.00    -4000.00
04169               0.00    -4000.00
04170              -8.00    -4000.00
04171              -8.00    -4000.00
04172              -4.00    -4000.00
04173              -6.00    -3800.00
04174               2.00    -4000.00
04175               0.00    -4000.00
04176               0.00    -4000.00
04177               4.00    -4000.00
04178              -8.00    -4000.00
04179              -6.00    -3800.00
04180              -2.00    -4000.00
04181              -4.00    -3800.00
04182               0.00    -4000.00
04183               0.00    -3800.00
04184              -2.00    -3800.00
04185              -2.00    -3800.00
04186               2.00    -3800.00
04187               0.00    -3800.00
04188               0.00    -3800.00
04189              -6.00    -3800.00
04190              -6.00    -3600.00
04191              -2.00    -3800.00
04192              -2.00    -3600.00
04193              -2.00    -3800.00
04194               2.00    -3600.00
04195               2.00    -3600.00
04196              -2.00    -3600.00
04197              -4.00    -3400.00
04198              -8.00    -3600.00
04199              -2.00    -3600.00
04200               6.00    -3200.00
04201               2.00    -3200.00
04202               2.00    -3400.00
04203              -2.00    -3200.00
04204              -6.00    -3200.00
04205              -2.00    -3200.00
04206               0.00    -3200.00
04207               0.00    -3200.00
04208               2.00    -3200.00
04209               2.00    -3000.00
04210              -6.00    -3000.00
04211              -2.00    -3000.00
04212              -2.00    -3000.00
04213              -2.00    -2800.00
04214               0.00    -2800.00
04215               0.00    -2800.00
04216              -2.00    -2800.00
04217              -8.00    -2800.00
04218              -6.00    -2800.00
04219               0.00    -2600.00
04220               6.00    -2600.00
04221              -2.00    -2600.00
04222              -6.00    -2400.00
04223              -6.00    -2400.00
04224              -6.00    -2400.00
04225               0.00    -2200.00
04226               0.00    -2200.00
04227              -2.00    -2000.00
04228              -4.00    -2000.00
04229              -4.00    -2200.00
04230              -2.00    -2000.00
04231              -2.00    -2000.00
04232              -2.00    -1800.00
04233              -6.00    -2000.00
04234              -4.00    -1600.00
04235              -4.00    -1600.00
04236               0.00    -1600.00
04237               0.00    -1600.00
04238              -2.00    -1600.00
04239              -6.00    -1600.00
04240              -6.00    -1400.00
04241              -2.00    -1200.00
04242              -2.00    -1400.00
04243               0.00    -1000.00
04244              -2.00    -1000.00
04245              -8.00    -1000.00
04246              -8.00    -1000.00
04247              -2.00     -800.00
04248               2.00     -800.00
04249               6.00     -800.00
04250              -2.00     -600.00
04251              -6.00     -800.00
04252              -8.00     -600.00
04253              -8.00     -600.00
04254               0.00     -600.00
04255               0.00     -400.00
04256               0.00     -400.00
04257              -6.00     -200.00
04258              -4.00     -200.00
04259              -6.00        0.00
04260               0.00        0.00
04261              -2.00        0.00
04262              -2.00      200.00
04263               0.00      200.00
04264               6.00      400.00
04265              -4.00      400.00
04266               2.00      400.00
04267               6.00      400.00
04268               0.00      400.00
04269               0.00      600.00
04270              -4.00      600.00
04271              -6.00      600.00
04272              62.00      800.00
04273             176.00     1000.00
04274             -48.00     1000.00
04275            -254.00      800.00
04276            -102.00     1200.00
04277             246.00     1200.00
04278             246.00     1200.00
04279            -254.00      800.00
04280            -254.00     1200.00
04281             246.00     1600.00
04282             154.00     1600.00
04283            -254.00     1200.00
04284              80.00     1800.00
04285             246.00     1600.00
04286            -232.00     1200.00
04287            -230.00     1600.00
04288             214.00     2000.00
04289             -38.00     1600.00
04290             -74.00     2000.00
04291             154.00     2000.00
04292             -94.00     2000.00
04293            -102.00     2000.00
04294             134.00     2200.00
04295             -40.00     2200.00
04296             -52.00     2400.00
04297             110.00     2400.00
04298            -118.00     2400.00
04299             -24.00     2600.00
04300             176.00     2600.00
04301            -144.00     2600.00
04302             -88.00     2600.00
04303             186.00     2800.00
04304             -58.00     2600.00
04305             -96.00     2800.00
04306              90.00     2800.00
04307             -42.00     2800.00
04308             -16.00     2800.00
04309              56.00     3000.00
04310             -74.00     3000.00
04311               8.00     3200.00
04312              30.00     3200.00
04313             -48.00     3200.00
04314              38.00     3200.00
04315               8.00     3200.00
04316             -66.00     3200.00
04317              32.00     3400.00
04318              10.00     3400.00
04319             -38.00     3600.00
04320              20.00     3600.00
04321               6.00     3600.00
04322             -24.00     3600.00
04323             -10.00     3600.00
04324              -2.00     3600.00
04325              14.00     3600.00
04326               2.00     3600.00
04327             -22.00     3800.00
04328               0.00     3800.00
04329               0.00     3800.00
04330             -22.00     4000.00
04331               0.00     4000.00
04332              14.00     4000.00
04333             -10.00     4000.00
04334             -10.00     4000.00
04335               8.00     4000.00
04336              -8.00     4000.00
04337             -10.00     4000.00
04338               2.00     4000.00
04339               0.00     4000.00
04340              -2.00     4200.00
04341             -10.00     4200.00
04342              -8.00     4200.00
04343               6.00     4200.00
04344              -8.00     4200.00
04345             -10.00     4200.00
04346               6.00     4200.00
04347              -6.00     4200.00
04348             -14.00     4400.00
04349              -6.00     4400.00
04350              -6.00     4200.00
04351             -10.00     4400.00
04352              -6.00     4200.00
04353               0.00     4200.00
04354              -2.00     4400.00
04355              -8.00     4400.00
04356             -10.00     4200.00
04357              -2.00     4400.00
04358              -6.00     4400.00
04359              -8.00     4400.00
04360              -2.00     4400.00
04361              -4.00     4400.00
04362             -12.00     4200.00
04363              -8.00     4400.00
04364              -8.00     4200.00
04365              -8.00     4200.00
04366              -2.00     4400.00
04367               2.00     4400.00
04368              -8.00     4200.00
04369             -14.00     4200.00
04370              -8.00     4200.00
04371               0.00     4200.00
04372              -2.00     4200.00
04373             -10.00     4200.00
04374              -2.00     4200.00
04375              -6.00     4200.00
04376              -8.00     4200.00
04377              -8.00     4200.00
04378               0.00     4200.00
04379              -2.00     4000.00
04380              -6.00     4200.00
04381             -10.00     4000.00
04382              -8.00     4000.00
04383              -8.00     4000.00
04384              -6.00     4000.00
04385              -2.00     4000.00
04386              -4.00     4000.00
04387              -4.00     4000.00
04388              -4.00     4000.00
04389              -2.00     4000.00
04390              -8.00     3800.00
04391              -6.00     3800.00
04392              -2.00     3600.00
04393              -2.00     3600.00
04394              -8.00     3600.00
04395              -4.00     3600.00
04396              -6.00     3600.00
04397              -8.00     3600.00
04398              -2.00     3600.00
04399               0.00     3400.00
04400              -2.00     3400.00
04401              -6.00     3400.00
04402              -8.00     3400.00
04403              -6.00     3200.00
04404              -2.00     3400.00
04405               0.00     3200.00
04406              -2.00     3200.00
04407              -2.00     3200.00
04408              -8.00     3000.00
04409              -8.00     3000.00
04410              -6.00     2800.00
04411              -2.00     3000.00
04412              -4.00     2800.00
04413               0.00     2800.00
04414              -6.00     2800.00
04415              -8.00     2600.00
04416              -8.00     2600.00
04417              -2.00     2800.00
04418              -6.00     2400.00
04419              -6.00     2600.00
04420              -6.00     2200.00
04421              -6.00     2200.00
04422              -6.00     2400.00
04423              -8.00     2000.00
04424              -2.00     2200.00
04425              -2.00     2000.00
04426              -6.00     2000.00
04427              -6.00     1800.00
04428              -6.00     1800.00
04429              -8.00     1800.00
04430              -8.00     1800.00
04431              -4.00     1800.00
04432              -2.00     1600.00
04433              -6.00     1600.00
04434              -6.00     1600.00
04435              -6.00     1600.00
04436              -4.00     1400.00
04437              -8.00     1400.00
04438              -6.00     1200.00
04439              -2.00     1200.00
04440              -6.00     1000.00
04441              -6.00     1000.00
04442              -2.00     1000.00
04443              -6.00     1000.00
04444              -4.00      800.00
04445              -2.00      800.00
04446               0.00      800.00
04447              -2.00      800.00
04448              -6.00      800.00
04449              -6.00      600.00
04450              -2.00      600.00
04451              -2.00      400.00
04452              -2.00      400.00
04453              -6.00      400.00
04454              -2.00      200.00
04455               2.00      200.00
04456               0.00        0.00
04457               2.00        0.00
04458               6.00        0.00
04459               2.00        0.00
04460              -6.00     -400.00
04461              -8.00     -200.00
04462               2.00     -400.00
04463               8.00     -400.00
04464              64.00     -400.00
04465             144.00     -600.00
04466             -44.00     -800.00
04467            -254.00     -600.00
04468            -150.00     -600.00
04469             246.00     -600.00
04470             246.00     -800.00
04471            -254.00    -1000.00
04472            -254.00     -800.00
04473             246.00    -1200.00
04474             246.00    -1200.00
04475            -254.00    -1200.00
04476            -116.00    -1200.00
04477             246.00    -1400.00
04478              -4.00    -1200.00
04479            -126.00    -1600.00
04480               6.00    -1600.00
04481             -86.00    -1400.00
04482              20.00    -1800.00
04483             206.00    -1800.00
04484             -92.00    -1600.00
04485            -168.00    -1800.00
04486              82.00    -2000.00
04487              90.00    -2000.00
04488             -48.00    -2000.00
04489             -30.00    -2200.00
04490             -40.00    -2200.00
04491              30.00    -2200.00
04492              96.00    -2200.00
04493             -88.00    -2400.00
04494             -80.00    -2400.00
04495              86.00    -2400.00
04496              48.00    -2600.00
04497             -66.00    -2600.00
04498             -10.00    -2600.00
04499               6.00    -2800.00
04500               8.00    -2800.00
04501              18.00    -2800.00
04502             -26.00    -2800.00
04503             -24.00    -2800.00
04504              18.00    -2800.00
04505              18.00    -2800.00
04506             -18.00    -3000.00
04507             -10.00    -2800.00
04508              -2.00    -3200.00
04509              10.00    -3000.00
04510               6.00    -3200.00
04511             -10.00    -3200.00
04512              -8.00    -3200.00
04513              18.00    -3200.00
04514               0.00    -3200.00
04515             -26.00    -3200.00
04516              -2.00    -3200.00
04517              18.00    -3600.00
04518               0.00    -3200.00
04519              -6.00    -3600.00
04520               0.00    -3600.00
04521              -6.00    -3600.00
04522              -2.00    -3400.00
04523               2.00    -3600.00
04524               0.00    -3600.00
04525              -2.00    -3600.00
04526               2.00    -3600.00
04527               6.00    -3800.00
04528              -2.00    -3600.00
04529             -10.00    -3800.00
04530              -6.00    -3600.00
04531              14.00    -3800.00
04532               8.00    -3800.00
04533              -2.00    -4000.00
04534              -6.00    -3800.00
04535              -6.00    -4000.00
04536              -6.00    -3800.00
04537               6.00    -3800.00
04538               6.00    -4000.00
04539               2.00    -3800.00
04540              -6.00    -4000.00
04541              -8.00    -4000.00
04542              -2.00    -3800.00
04543               2.00    -4000.00
04544               0.00    -4000.00
04545               0.00    -4000.00
04546              -6.00    -4000.00
04547              -8.00    -4000.00
04548               0.00    -4000.00
04549               2.00    -4000.00
04550               0.00    -4000.00
04551              -2.00    -4000.00
04552              -2.00    -4000.00
04553               0.00    -4000.00
04554              -2.00    -4000.00
04555              -2.00    -4200.00
04556               0.00    -4000.00
04557              -4.00    -4000.00
04558              -4.00    -4000.00
04559               0.00    -3800.00
04560               2.00    -4200.00
04561              -2.00    -3800.00
04562              -2.00    -3800.00
04563               0.00    -3800.00
04564               0.00    -4000.00
04565               2.00    -3800.00
04566               0.00    -3800.00
04567              -2.00    -4000.00
04568              -6.00    -3800.00
04569              -4.00    -3800.00
04570               0.00    -3800.00
04571               4.00    -3800.00
04572               0.00    -3800.00
04573               0.00    -3800.00
04574              -6.00    -3600.00
04575              -8.00    -3600.00
04576              -2.00    -3600.00
04577               6.00    -3600.00
04578               2.00    -3600.00
04579               0.00    -3600.00
04580              -6.00    -3600.00
04581              -4.00    -3400.00
04582              -2.00    -3400.00
04583               0.00    -3400.00
04584               2.00    -3200.00
04585               0.00    -3200.00
04586              -2.00    -3400.00
04587              -2.00    -3200.00
04588              -2.00    -3200.00
04589               0.00    -3200.00
04590               0.00    -3200.00
04591               2.00    -3000.00
04592               0.00    -3200.00
04593               0.00    -3000.00
04594              -2.00    -2800.00
04595               0.00    -3000.00
04596               0.00    -3000.00
04597               0.00    -2800.00
04598              -2.00    -2800.00
04599               0.00    -2800.00
04600              -4.00    -2600.00
04601              -2.00    -2800.00
04602              -2.00    -2600.00
04603              -2.00    -2400.00
04604              -2.00    -2400.00
04605               0.00    -2400.00
04606               0.00    -2400.00
04607               0.00    -2400.00
04608              -2.00    -2200.00
04609              -2.00    -2400.00
04610              -2.00    -2200.00
04611              -2.00    -2000.00
04612               0.00    -2200.00
04613               0.00    -2000.00
04614              -6.00    -2000.00
04615              -6.00    -2000.00
04616              -4.00    -2000.00
04617               0.00    -1600.00
04618               0.00    -1600.00
04619               0.00    -1600.00
04620              -2.00    -1600.00
04621              -6.00    -1400.00
04622              -6.00    -1400.00
04623              -2.00    -1400.00
04624               0.00    -1200.00
04625               0.00    -1200.00
04626              -2.00    -1400.00
04627              -6.00    -1000.00
04628              -6.00    -1000.00
04629              -6.00    -1000.00
04630              -2.00     -800.00
04631               0.00     -800.00
04632               0.00     -600.00
04633              -2.00     -800.00
04634              -6.00     -800.00
04635              -6.00     -600.00
04636               0.00     -400.00
04637              -2.00     -400.00
04638               0.00     -400.00
04639               0.00     -200.00
04640              -6.00     -200.00
04641              -6.00        0.00
04642              -2.00        0.00
04643               0.00        0.00
04644              -6.00      200.00
04645              -6.00        0.00
04646               0.00        0.00
04647               4.00      200.00
04648               0.00      400.00
04649               6.00      400.00
04650               6.00      400.00
04651              -2.00      400.00
04652              -6.00      600.00
04653               0.00      600.00
04654               8.00      800.00
04655              56.00      800.00
04656             168.00     1000.00
04657             -24.00      800.00
04658            -254.00      800.00
04659            -144.00      800.00
04660             246.00     1200.00
04661             246.00     1400.00
04662            -254.00      800.00
04663            -254.00     1400.00
04664             246.00     1600.00
04665             238.00     1200.00
04666            -254.00     1200.00
04667              14.00     1800.00
04668             246.00     1600.00
04669            -184.00     1200.00
04670            -254.00     1800.00
04671             206.00     2000.00
04672             -18.00     1800.00
04673             -90.00     1800.00
04674             152.00     2000.00
04675             -66.00     1800.00
04676            -118.00     2000.00
04677             134.00     2400.00
04678             -28.00     2000.00
04679             -70.00     2000.00
04680             106.00     2400.00
04681            -106.00     2000.00
04682             -38.00     2400.00
04683             190.00     2600.00
04684            -128.00     2400.00
04685            -120.00     2600.00
04686             182.00     2800.00
04687             -32.00     2600.00
04688            -100.00     2800.00
04689              86.00     3000.00
04690             -38.00     2800.00
04691             -30.00     3000.00
04692              64.00     3000.00
04693             -66.00     3000.00
04694               0.00     3200.00
04695              32.00     3200.00
04696             -54.00     3200.00
04697              26.00     3400.00
04698              18.00     3400.00
04699             -66.00     3400.00
04700              30.00     3600.00
04701              14.00     3400.00
04702             -42.00     3400.00
04703              14.00     3600.00
04704              10.00     3600.00
04705             -22.00     3400.00
04706             -14.00     3800.00
04707              -4.00     3600.00
04708              10.00     3600.00
04709               2.00     4000.00
04710             -22.00     3800.00
04711              -2.00     3600.00
04712               0.00     3800.00
04713             -16.00     4000.00
04714               0.00     4000.00
04715              14.00     4000.00
04716             -10.00     4000.00
04717             -14.00     4000.00
04718              10.00     4200.00
04719              -8.00     4000.00
04720             -14.00     4000.00
04721               0.00     4200.00
04722               0.00     4000.00
04723              -4.00     4200.00
04724             -10.00     4200.00
04725              -8.00     4200.00
04726               2.00     4200.00
04727             -10.00     4200.00
04728             -10.00     4200.00
04729              10.00     4400.00
04730               0.00     4400.00
04731             -14.00     4200.00
04732              -2.00     4400.00
04733              -2.00     4200.00
04734              -8.00     4400.00
04735              -2.00     4400.00
04736               0.00     4400.00
04737              -2.00     4200.00
04738              -8.00     4400.00
04739             -10.00     4400.00
04740              -6.00     4200.00
04741              -2.00     4400.00
04742              -6.00     4200.00
04743              -6.00     4200.00
04744              -4.00     4400.00
04745              -8.00     4400.00
04746              -6.00     4200.00
04747              -6.00     4400.00
04748              -8.00     4200.00
04749              -2.00     4000.00
04750               0.00     4400.00
04751              -6.00     4200.00
04752             -14.00     4200.00
04753              -6.00     4400.00
04754              -2.00     4400.00
04755              -2.00     4200.00
04756             -10.00     4200.00
04757              -4.00     4200.00
04758              -2.00     4200.00
04759             -10.00     4200.00
04760              -8.00     4000.00
04761               0.00     4000.00
04762              -2.00     4200.00
04763              -6.00     4000.00
04764              -8.00     4200.00
04765              -6.00     4000.00
04766              -8.00     4000.00
04767              -8.00     4000.00
04768              -2.00     4000.00
04769              -2.00     4000.00
04770              -6.00     4000.00
04771              -6.00     4000.00
04772              -4.00     3800.00
04773              -8.00     3800.00
04774              -6.00     3600.00
04775              -2.00     3800.00
04776              -6.00     3600.00
04777              -8.00     3600.00
04778              -6.00     3800.00
04779              -6.00     3600.00
04780              -6.00     3600.00
04781              -4.00     3600.00
04782              -2.00     3400.00
04783              -2.00     3400.00
04784              -8.00     3400.00
04785              -8.00     3400.00
04786              -6.00     3400.00
04787              -2.00     3400.00
04788              -6.00     3200.00
04789              -2.00     3200.00
04790               0.00     3200.00
04791              -6.00     3000.00
04792              -6.00     3000.00
04793              -6.00     3000.00
04794              -6.00     3000.00
04795              -6.00     2800.00
04796              -2.00     3000.00
04797              -2.00     2800.00
04798              -8.00     2600.00
04799              -6.00     2600.00
04800              -2.00     2400.00
04801              -2.00     2600.00
04802              -2.00     2600.00
04803              -2.00     2400.00
04804              -4.00     2400.00
04805              -6.00     2400.00
04806              -8.00     2000.00
04807              -2.00     2000.00
04808              -2.00     2000.00
04809              -2.00     2000.00
04810              -4.00     2000.00
04811              -2.00     1800.00
04812              -8.00     1800.00
04813              -4.00     1800.00
04814              -4.00     1800.00
04815              -2.00     1600.00
04816              -4.00     1400.00
04817              -4.00     1600.00
04818              -6.00     1600.00
04819              -2.00     1600.00
04820              -8.00     1200.00
04821              -6.00     1200.00
04822               2.00     1200.00
04823              -6.00     1200.00
04824              -8.00     1000.00
04825              -2.00     1000.00
04826              -6.00      800.00
04827              -8.00     1000.00
04828               0.00      800.00
04829              -8.00      800.00
04830              -6.00      600.00
04831              -2.00      600.00
04832              -8.00      600.00
04833              -2.00      400.00
04834              -2.00      400.00
04835             -10.00      400.00
04836              -2.00      200.00
04837               0.00      200.00
04838              -2.00        0.00
04839               2.00        0.00
04840              -2.00      200.00
04841               2.00        0.00
04842               8.00        0.00
04843              -8.00        0.00
04844              -8.00        0.00
04845               0.00     -200.00
04846               8.00     -400.00
04847              58.00     -400.00
04848             148.00     -600.00
04849             -22.00     -800.00
04850            -254.00     -600.00
04851            -192.00     -400.00
04852             246.00     -600.00
04853             246.00     -800.00
04854            -254.00    -1000.00
04855            -254.00     -800.00
04856             246.00    -1200.00
04857             246.00    -1000.00
04858            -254.00    -1200.00
04859            -154.00    -1000.00
04860             246.00    -1400.00
04861              16.00    -1000.00
04862            -134.00    -1400.00
04863               2.00    -1600.00
04864             -74.00    -1400.00
04865              10.00    -1600.00
04866             206.00    -1800.00
04867             -74.00    -1800.00
04868            -178.00    -2000.00
04869              70.00    -2000.00
04870             106.00    -2000.00
04871             -42.00    -2200.00
04872             -32.00    -2200.00
04873             -46.00    -2200.00
04874              18.00    -2200.00
04875             100.00    -2400.00
04876             -70.00    -2400.00
04877             -90.00    -2400.00
04878              74.00    -2400.00
04879              54.00    -2400.00
04880             -64.00    -2400.00
04881             -10.00    -2600.00
04882               6.00    -2600.00
04883               8.00    -2600.00
04884              14.00    -2800.00
04885             -22.00    -2800.00
04886             -28.00    -2800.00
04887              16.00    -3000.00
04888              22.00    -3000.00
04889             -10.00    -3000.00
04890             -16.00    -3000.00
04891             -10.00    -3000.00
04892               8.00    -3000.00
04893               6.00    -3200.00
04894             -10.00    -3200.00
04895             -14.00    -3200.00
04896              16.00    -3200.00
04897               0.00    -3200.00
04898             -26.00    -3400.00
04899               0.00    -3400.00
04900              24.00    -3200.00
04901               0.00    -3400.00
04902             -16.00    -3600.00
04903             -10.00    -3600.00
04904              -6.00    -3600.00
04905               8.00    -3600.00
04906              10.00    -3600.00
04907              -2.00    -3800.00
04908              -8.00    -3600.00
04909              -8.00    -3800.00
04910               0.00    -3800.00
04911               6.00    -3800.00
04912              -2.00    -3800.00
04913              -6.00    -3800.00
04914               0.00    -3800.00
04915              -6.00    -3800.00
04916               0.00    -3800.00
04917              16.00    -3800.00
04918               6.00    -3800.00
04919             -14.00    -3800.00
04920             -14.00    -3800.00
04921               0.00    -4000.00
04922              10.00    -4000.00
04923               6.00    -3800.00
04924              -6.00    -4000.00
04925              -2.00    -4200.00
04926               0.00    -4000.00
04927               2.00    -4000.00
04928               6.00    -4000.00
04929               2.00    -4000.00
04930              -6.00    -4000.00
04931              -6.00    -4000.00
04932              -6.00    -4000.00
04933              -4.00    -4000.00
04934               6.00    -4000.00
04935              10.00    -4000.00
04936               2.00    -4200.00
04937              -8.00    -4000.00
04938             -10.00    -4200.00
04939              -2.00    -4000.00
04940               0.00    -4000.00
04941               0.00    -3800.00
04942               2.00    -4000.00
04943               0.00    -4000.00
04944              -8.00    -3800.00
04945              -8.00    -4000.00
04946               2.00    -3800.00
04947               2.00    -3800.00
04948               2.00    -4000.00
04949              -4.00    -3800.00
04950              -6.00    -3800.00
04951              -8.00    -3800.00
04952              -2.00    -3800.00
04953               2.00    -3800.00
04954               4.00    -3800.00
04955               0.00    -3800.00
04956              -2.00    -3800.00
04957              -4.00    -3600.00
04958              -6.00    -3600.00
04959              -2.00    -3600.00
04960               2.00    -3800.00
04961               0.00    -3600.00
04962              -2.00    -3600.00
04963              -6.00    -3600.00
04964              -6.00    -3600.00
04965              -2.00    -3600.00
04966               2.00    -3600.00
04967              -2.00    -3200.00
04968              -2.00    -3200.00
04969              -2.00    -3200.00
04970              -2.00    -3200.00
04971              -2.00    -3200.00
04972              -2.00    -3200.00
04973              -4.00    -3200.00
04974               2.00    -3000.00
04975               2.00    -3000.00
04976              -2.00    -3000.00
04977              -4.00    -3000.00
04978              -2.00    -2800.00
04979               0.00    -3000.00
04980               0.00    -2800.00
04981               0.00    -2800.00
04982               2.00    -2800.00
04983              -2.00    -2800.00
04984              -4.00    -2800.00
04985              -2.00    -2800.00
04986              -2.00    -2400.00
04987               0.00    -2400.00
04988               2.00    -2400.00
04989               0.00    -2400.00
04990              -6.00    -2400.00
04991              -6.00    -2200.00
04992              -2.00    -2200.00
04993               0.00    -2200.00
04994               2.00    -2200.00
04995               2.00    -2200.00
04996              -2.00    -2000.00
04997              -2.00    -2000.00
04998              -6.00    -2000.00
04999              -2.00    -1800.00
05000               0.00    -2000.00
