Unit:(mV)
                     CH1         CH2
Frequency              ? 261.320 kHz
00001               4.00    -4400.00
00002               4.00    -4000.00
00003               6.00    -4000.00
00004               6.00    -3600.00
00005               4.00    -3600.00
00006               0.00    -3400.00
00007               0.00    -3200.00
00008               0.00    -3000.00
00009               4.00    -2800.00
00010               2.00    -2800.00
00011               4.00    -2600.00
00012               0.00    -2400.00
00013              -2.00    -2200.00
00014              -4.00    -2000.00
00015              -2.00    -1800.00
00016              -2.00    -1600.00
00017              -2.00    -1400.00
00018               0.00    -1200.00
00019              -4.00    -1000.00
00020              -4.00     -800.00
00021              -6.00     -600.00
00022              -4.00     -400.00
00023              -4.00     -400.00
00024              -2.00     -200.00
00025              -2.00        0.00
00026               0.00      400.00
00027              16.00      400.00
00028              14.00      600.00
00029             -16.00      800.00
00030             -20.00     1000.00
00031               4.00     1200.00
00032               6.00     1200.00
00033              22.00     1400.00
00034             206.00     1600.00
00035             244.00     2000.00
00036            -248.00     2200.00
00037            -248.00     2400.00
00038             -76.00     2400.00
00039             134.00     2400.00
00040             252.00     2800.00
00041             252.00     2800.00
00042            -248.00     3000.00
00043             -50.00     3200.00
00044             252.00     3200.00
00045            -248.00     3800.00
00046            -248.00     3600.00
00047             252.00     3800.00
00048            -200.00     4600.00
00049             -98.00     4000.00
00050             236.00     4600.00
00051            -248.00     5200.00
00052             112.00     4400.00
00053             212.00     5200.00
00054            -248.00     5600.00
00055              32.00     4800.00
00056              48.00     5800.00
00057             -90.00     6000.00
00058              48.00     5600.00
00059              26.00     6400.00
00060             -84.00     6200.00
00061            -134.00     6000.00
00062             150.00     7000.00
00063              28.00     6400.00
00064            -220.00     6800.00
00065             132.00     7000.00
00066             -20.00     7200.00
00067            -144.00     7400.00
00068             108.00     7000.00
00069             -58.00     7800.00
00070             -42.00     7400.00
00071              32.00     7800.00
00072             -74.00     8200.00
00073             -40.00     7600.00
00074              22.00     8400.00
00075              12.00     8200.00
00076             -84.00     8400.00
00077             -12.00     8800.00
00078               8.00     8600.00
00079             -88.00     8800.00
00080              36.00     8800.00
00081             -10.00     9000.00
00082             -98.00     9200.00
00083              28.00     9200.00
00084              -4.00     9600.00
00085             -72.00     9200.00
00086             -20.00     9400.00
00087              -4.00     9600.00
00088             -40.00     9400.00
00089             -26.00     9800.00
00090             -18.00    10000.00
00091             -56.00    10000.00
00092             -12.00    10000.00
00093             -10.00    10000.00
00094             -60.00    10200.00
00095             -16.00    10200.00
00096             -10.00    10400.00
00097             -44.00    10400.00
00098             -24.00    10400.00
00099             -20.00    10600.00
00100             -52.00    10600.00
00101             -26.00    10600.00
00102               0.00    10800.00
00103             -48.00    10800.00
00104             -40.00    10800.00
00105             -12.00    11000.00
00106             -42.00    11000.00
00107             -28.00    11000.00
00108             -10.00    11000.00
00109             -40.00    11000.00
00110             -36.00    11200.00
00111             -20.00    11200.00
00112             -40.00    11200.00
00113             -34.00    11200.00
00114             -18.00    11200.00
00115             -34.00    11200.00
00116             -28.00    11200.00
00117             -20.00    11200.00
00118             -40.00    11200.00
00119             -34.00    11200.00
00120             -18.00    11200.00
00121             -32.00    11200.00
00122             -32.00    11200.00
00123             -20.00    11200.00
00124             -34.00    11200.00
00125             -34.00    11200.00
00126             -20.00    11000.00
00127             -30.00    11200.00
00128             -32.00    11200.00
00129             -20.00    11200.00
00130             -26.00    11200.00
00131             -32.00    11000.00
00132             -26.00    11000.00
00133             -28.00    11000.00
00134             -26.00    11000.00
00135             -20.00    10800.00
00136             -28.00    10800.00
00137             -28.00    10800.00
00138             -26.00    10600.00
00139             -28.00    10600.00
00140             -28.00    10400.00
00141             -18.00    10400.00
00142             -26.00    10400.00
00143             -28.00    10200.00
00144             -24.00    10400.00
00145             -26.00    10200.00
00146             -30.00    10200.00
00147             -20.00    10000.00
00148             -20.00    10000.00
00149             -24.00     9800.00
00150             -24.00     9800.00
00151             -24.00     9800.00
00152             -28.00     9600.00
00153             -20.00     9400.00
00154             -20.00     9400.00
00155             -24.00     9400.00
00156             -20.00     9200.00
00157             -26.00     9200.00
00158             -26.00     9000.00
00159             -20.00     8800.00
00160             -22.00     8800.00
00161             -24.00     8600.00
00162             -20.00     8600.00
00163             -20.00     8400.00
00164             -24.00     8400.00
00165             -24.00     8200.00
00166             -20.00     8000.00
00167             -22.00     7800.00
00168             -18.00     7800.00
00169             -18.00     7600.00
00170             -20.00     7600.00
00171             -20.00     7400.00
00172             -20.00     7200.00
00173             -18.00     7400.00
00174             -16.00     7000.00
00175             -16.00     7000.00
00176             -18.00     6800.00
00177             -10.00     6800.00
00178             -20.00     6400.00
00179             -20.00     6200.00
00180             -16.00     6000.00
00181             -12.00     6000.00
00182             -12.00     5800.00
00183             -12.00     5600.00
00184             -16.00     5400.00
00185             -12.00     5400.00
00186             -12.00     5200.00
00187             -10.00     5000.00
00188             -10.00     4800.00
00189             -10.00     4800.00
00190             -10.00     4600.00
00191             -12.00     4400.00
00192             -10.00     4200.00
00193             -10.00     4000.00
00194              -8.00     3800.00
00195              -4.00     3800.00
00196              -8.00     3400.00
00197             -10.00     3200.00
00198             -10.00     3200.00
00199              -8.00     2800.00
00200              -8.00     2800.00
00201              -4.00     2600.00
00202              -2.00     2400.00
00203              -4.00     2200.00
00204              -8.00     2000.00
00205              -4.00     2000.00
00206              -4.00     1600.00
00207              -4.00     1600.00
00208               0.00     1400.00
00209               2.00     1200.00
00210              -2.00     1000.00
00211              -4.00      800.00
00212              -2.00      600.00
00213               0.00      600.00
00214              -2.00      200.00
00215               4.00        0.00
00216               4.00        0.00
00217               4.00     -400.00
00218              20.00     -400.00
00219              28.00     -800.00
00220               0.00     -800.00
00221             -12.00    -1000.00
00222               6.00    -1200.00
00223              20.00    -1400.00
00224              20.00    -1600.00
00225              64.00    -1600.00
00226             240.00    -1800.00
00227             166.00    -2400.00
00228            -248.00    -2600.00
00229            -248.00    -2600.00
00230              28.00    -2800.00
00231             122.00    -2600.00
00232             252.00    -2600.00
00233             252.00    -3600.00
00234            -248.00    -3400.00
00235            -248.00    -3200.00
00236             252.00    -4400.00
00237               4.00    -3600.00
00238            -248.00    -4000.00
00239             188.00    -4800.00
00240              86.00    -4000.00
00241              12.00    -4600.00
00242              68.00    -5200.00
00243            -194.00    -4400.00
00244              24.00    -5000.00
00245             212.00    -5400.00
00246             -10.00    -5000.00
00247             -98.00    -5800.00
00248             -24.00    -5600.00
00249             100.00    -5800.00
00250              76.00    -6200.00
00251              -8.00    -6200.00
00252             -60.00    -6400.00
00253             -28.00    -6400.00
00254             138.00    -6600.00
00255              60.00    -6800.00
00256            -108.00    -6800.00
00257              14.00    -7400.00
00258              72.00    -7200.00
00259              32.00    -7400.00
00260               4.00    -7600.00
00261              -4.00    -7600.00
00262              38.00    -7800.00
00263              34.00    -8000.00
00264              12.00    -8000.00
00265              -4.00    -8200.00
00266              20.00    -8200.00
00267              68.00    -8400.00
00268              22.00    -8600.00
00269             -10.00    -8800.00
00270              12.00    -9000.00
00271              28.00    -8800.00
00272              46.00    -9200.00
00273              28.00    -9200.00
00274               2.00    -9200.00
00275              16.00    -9200.00
00276              44.00    -9600.00
00277              24.00    -9600.00
00278               2.00    -9600.00
00279              30.00    -9800.00
00280              40.00    -9800.00
00281              20.00    -9800.00
00282              22.00   -10000.00
00283              20.00   -10000.00
00284              20.00   -10400.00
00285              32.00   -10400.00
00286              28.00   -10400.00
00287              16.00   -10400.00
00288              26.00   -10600.00
00289              28.00   -10600.00
00290              14.00   -10600.00
00291              22.00   -10800.00
00292              28.00   -10600.00
00293              24.00   -10800.00
00294              36.00   -10800.00
00295              28.00   -10800.00
00296               8.00   -11000.00
00297              20.00   -11000.00
00298              28.00   -11200.00
00299              20.00   -11200.00
00300              32.00   -11200.00
00301              38.00   -11200.00
00302              22.00   -11200.00
00303              14.00   -11200.00
00304              16.00   -11200.00
00305              20.00   -11200.00
00306              30.00   -11200.00
00307              36.00   -11400.00
00308              24.00   -11200.00
00309              16.00   -11600.00
00310              20.00   -11400.00
00311              22.00   -11400.00
00312              28.00   -11200.00
00313              30.00   -11200.00
00314              22.00   -11200.00
00315              22.00   -11400.00
00316              24.00   -11400.00
00317              22.00   -11400.00
00318              22.00   -11200.00
00319              28.00   -11200.00
00320              28.00   -11200.00
00321              22.00   -11200.00
00322              24.00   -11000.00
00323              20.00   -11200.00
00324              20.00   -11000.00
00325              26.00   -11000.00
00326              24.00   -10800.00
00327              26.00   -11000.00
00328              26.00   -10800.00
00329              20.00   -10800.00
00330              16.00   -10800.00
00331              22.00   -10600.00
00332              24.00   -10600.00
00333              22.00   -10600.00
00334              24.00   -10400.00
00335              20.00   -10400.00
00336              16.00   -10400.00
00337              20.00   -10200.00
00338              22.00   -10400.00
00339              22.00   -10200.00
00340              22.00   -10000.00
00341              20.00    -9800.00
00342              20.00    -9800.00
00343              20.00    -9800.00
00344              16.00    -9600.00
00345              16.00    -9600.00
00346              22.00    -9600.00
00347              20.00    -9400.00
00348              16.00    -9200.00
00349              14.00    -9200.00
00350              14.00    -9000.00
00351              14.00    -9000.00
00352              16.00    -9000.00
00353              20.00    -8800.00
00354              16.00    -8800.00
00355              12.00    -8800.00
00356              12.00    -8600.00
00357              12.00    -8400.00
00358              12.00    -8200.00
00359              16.00    -8000.00
00360              14.00    -7800.00
00361              14.00    -7800.00
00362               8.00    -7600.00
00363               8.00    -7400.00
00364               8.00    -7200.00
00365              12.00    -7200.00
00366              12.00    -7000.00
00367              12.00    -6800.00
00368               8.00    -6800.00
00369               6.00    -6800.00
00370               6.00    -6600.00
00371               8.00    -6200.00
00372               8.00    -6000.00
00373              10.00    -6000.00
00374               8.00    -5800.00
00375               6.00    -5600.00
00376               6.00    -5400.00
00377               4.00    -5400.00
00378               6.00    -5200.00
00379               6.00    -5000.00
00380               6.00    -4800.00
00381               4.00    -4800.00
00382               4.00    -4400.00
00383               0.00    -4400.00
00384               0.00    -4200.00
00385               4.00    -4000.00
00386               6.00    -3800.00
00387               4.00    -3600.00
00388               6.00    -3400.00
00389               2.00    -3400.00
00390              -2.00    -3200.00
00391              -2.00    -2800.00
00392               4.00    -2800.00
00393               0.00    -2600.00
00394               0.00    -2400.00
00395               2.00    -2200.00
00396              -4.00    -2000.00
00397              -4.00    -1800.00
00398               0.00    -1600.00
00399              -4.00    -1600.00
00400              -2.00    -1200.00
00401               0.00    -1000.00
00402              -4.00    -1000.00
00403              -8.00     -800.00
00404              -4.00     -400.00
00405              -4.00     -400.00
00406              -4.00     -200.00
00407               0.00     -200.00
00408              -4.00        0.00
00409               6.00      400.00
00410              22.00      400.00
00411               4.00      600.00
00412             -20.00     1000.00
00413             -10.00     1000.00
00414               6.00     1200.00
00415              10.00     1400.00
00416              60.00     1600.00
00417             252.00     1800.00
00418              94.00     2200.00
00419            -248.00     2200.00
00420            -248.00     2400.00
00421              24.00     2200.00
00422             246.00     2600.00
00423             252.00     2800.00
00424            -198.00     2800.00
00425            -248.00     3200.00
00426             252.00     3200.00
00427             252.00     3600.00
00428            -248.00     4000.00
00429              38.00     3600.00
00430             252.00     4000.00
00431            -248.00     4400.00
00432             152.00     3800.00
00433              30.00     5200.00
00434            -248.00     4800.00
00435             252.00     4400.00
00436              -4.00     5400.00
00437            -226.00     5200.00
00438             108.00     4800.00
00439             -38.00     6200.00
00440             -40.00     5600.00
00441              56.00     5600.00
00442              -4.00     6400.00
00443            -130.00     6000.00
00444             -60.00     6400.00
00445             196.00     6800.00
00446            -124.00     6400.00
00447            -122.00     7000.00
00448             164.00     7000.00
00449            -140.00     7200.00
00450             -42.00     7200.00
00451              88.00     7600.00
00452            -100.00     7800.00
00453              12.00     7400.00
00454              -4.00     8000.00
00455             -80.00     8000.00
00456             -16.00     7800.00
00457              30.00     8400.00
00458             -22.00     8200.00
00459             -86.00     8400.00
00460              24.00     8800.00
00461             -36.00     8600.00
00462             -58.00     8800.00
00463              58.00     8800.00
00464             -70.00     9000.00
00465             -60.00     9000.00
00466              44.00     9400.00
00467             -42.00     9400.00
00468             -60.00     9200.00
00469              -4.00     9600.00
00470              -8.00     9600.00
00471             -44.00     9600.00
00472             -16.00    10000.00
00473             -24.00    10000.00
00474             -50.00    10000.00
00475               4.00    10000.00
00476             -26.00    10200.00
00477             -58.00    10200.00
00478              -4.00    10200.00
00479             -26.00    10400.00
00480             -44.00    10200.00
00481             -10.00    10400.00
00482             -34.00    10600.00
00483             -56.00    10600.00
00484              -4.00    10600.00
00485             -10.00    10800.00
00486             -58.00    10600.00
00487             -26.00    11000.00
00488             -20.00    11000.00
00489             -46.00    11000.00
00490             -20.00    11000.00
00491             -18.00    11000.00
00492             -42.00    11000.00
00493             -24.00    11000.00
00494             -26.00    11200.00
00495             -42.00    11200.00
00496             -26.00    11200.00
00497             -18.00    11200.00
00498             -36.00    11200.00
00499             -26.00    11200.00
00500             -26.00    11200.00
00501             -42.00    11200.00
00502             -26.00    11200.00
00503             -22.00    11200.00
00504             -36.00    11200.00
00505             -26.00    11200.00
00506             -20.00    11200.00
00507             -40.00    11200.00
00508             -32.00    11200.00
00509             -18.00    11200.00
00510             -32.00    11200.00
00511             -28.00    11200.00
00512             -20.00    11000.00
00513             -34.00    11000.00
00514             -32.00    11000.00
00515             -26.00    11000.00
00516             -32.00    10800.00
00517             -24.00    11000.00
00518             -20.00    10800.00
00519             -28.00    10800.00
00520             -28.00    10800.00
00521             -26.00    10600.00
00522             -28.00    10600.00
00523             -26.00    10400.00
00524             -20.00    10400.00
00525             -28.00    10400.00
00526             -28.00    10200.00
00527             -26.00    10400.00
00528             -26.00    10200.00
00529             -20.00    10000.00
00530             -20.00    10000.00
00531             -24.00    10000.00
00532             -32.00    10000.00
00533             -24.00     9800.00
00534             -22.00     9600.00
00535             -24.00     9600.00
00536             -20.00     9600.00
00537             -26.00     9400.00
00538             -26.00     9200.00
00539             -20.00     9200.00
00540             -20.00     9200.00
00541             -20.00     9000.00
00542             -20.00     8800.00
00543             -24.00     8800.00
00544             -24.00     8600.00
00545             -16.00     8600.00
00546             -20.00     8400.00
00547             -24.00     8200.00
00548             -22.00     8000.00
00549             -20.00     8000.00
00550             -20.00     8000.00
00551             -16.00     7800.00
00552             -20.00     7600.00
00553             -24.00     7600.00
00554             -20.00     7400.00
00555             -20.00     7200.00
00556             -18.00     7000.00
00557             -12.00     7000.00
00558             -18.00     6800.00
00559             -18.00     6600.00
00560             -16.00     6400.00
00561             -18.00     6400.00
00562             -18.00     6200.00
00563             -16.00     6000.00
00564             -12.00     6000.00
00565             -16.00     6000.00
00566             -18.00     5600.00
00567             -12.00     5600.00
00568             -14.00     5200.00
00569             -12.00     5200.00
00570             -10.00     5000.00
00571             -12.00     4800.00
00572             -12.00     4600.00
00573             -10.00     4400.00
00574             -12.00     4000.00
00575             -10.00     4000.00
00576             -10.00     4000.00
00577              -8.00     3600.00
00578              -8.00     3600.00
00579              -8.00     3400.00
00580             -10.00     3200.00
00581              -8.00     3200.00
00582              -8.00     3000.00
00583              -8.00     2800.00
00584              -4.00     2400.00
00585              -4.00     2400.00
00586              -8.00     2200.00
00587              -4.00     2000.00
00588              -4.00     2000.00
00589              -4.00     1600.00
00590              -4.00     1400.00
00591              -2.00     1200.00
00592              -2.00     1200.00
00593              -2.00     1000.00
00594              -4.00      800.00
00595              -2.00      600.00
00596              -2.00      400.00
00597               0.00      200.00
00598               4.00     -200.00
00599               4.00     -200.00
00600               8.00     -200.00
00601              28.00     -400.00
00602              20.00     -600.00
00603              -8.00     -800.00
00604              -8.00    -1000.00
00605              16.00    -1200.00
00606              22.00    -1400.00
00607              22.00    -1600.00
00608             112.00    -1600.00
00609             252.00    -2000.00
00610               6.00    -2600.00
00611            -248.00    -2600.00
00612            -248.00    -2800.00
00613             114.00    -2800.00
00614             126.00    -2400.00
00615             252.00    -2800.00
00616              70.00    -3600.00
00617            -248.00    -3000.00
00618             174.00    -3600.00
00619             252.00    -4200.00
00620            -248.00    -3400.00
00621            -212.00    -4200.00
00622             248.00    -4600.00
00623             -14.00    -4000.00
00624              76.00    -5000.00
00625             -28.00    -4800.00
00626            -180.00    -4600.00
00627             140.00    -5400.00
00628             152.00    -5200.00
00629             -68.00    -5200.00
00630             -84.00    -5800.00
00631              22.00    -5800.00
00632             112.00    -5800.00
00633              42.00    -6000.00
00634             -26.00    -6400.00
00635             -68.00    -6400.00
00636              28.00    -6600.00
00637             158.00    -6800.00
00638             -20.00    -6800.00
00639             -84.00    -7000.00
00640              54.00    -7400.00
00641              56.00    -7200.00
00642              22.00    -7600.00
00643              -4.00    -7600.00
00644               6.00    -7600.00
00645              44.00    -8000.00
00646              26.00    -8000.00
00647               6.00    -8200.00
00648              -8.00    -8200.00
00649              40.00    -8400.00
00650              60.00    -8600.00
00651               0.00    -8800.00
00652              -2.00    -8800.00
00653              16.00    -9000.00
00654              38.00    -8800.00
00655              46.00    -9200.00
00656              16.00    -9200.00
00657               6.00    -9400.00
00658              28.00    -9400.00
00659              36.00    -9400.00
00660              12.00    -9600.00
00661               8.00    -9600.00
00662              38.00    -9800.00
00663              32.00   -10000.00
00664              20.00   -10000.00
00665              18.00   -10200.00
00666              16.00   -10000.00
00667              30.00   -10400.00
00668              34.00   -10200.00
00669              20.00   -10400.00
00670              24.00   -10400.00
00671              32.00   -10600.00
00672              20.00   -10600.00
00673              20.00   -10800.00
00674              30.00   -10800.00
00675              22.00   -10600.00
00676              26.00   -10800.00
00677              36.00   -11000.00
00678              20.00   -11000.00
00679              12.00   -11000.00
00680              28.00   -11200.00
00681              28.00   -10800.00
00682              22.00   -11000.00
00683              28.00   -11200.00
00684              28.00   -11200.00
00685              20.00   -11200.00
00686              22.00   -11400.00
00687              22.00   -11200.00
00688              20.00   -11200.00
00689              30.00   -11200.00
00690              32.00   -11200.00
00691              20.00   -11200.00
00692              20.00   -11200.00
00693              22.00   -11200.00
00694              24.00   -11400.00
00695              32.00   -11200.00
00696              28.00   -11200.00
00697              20.00   -11400.00
00698              22.00   -11400.00
00699              20.00   -11200.00
00700              22.00   -11400.00
00701              28.00   -11200.00
00702              24.00   -11200.00
00703              24.00   -11200.00
00704              22.00   -11000.00
00705              22.00   -11000.00
00706              20.00   -11000.00
00707              20.00   -11000.00
00708              24.00   -10800.00
00709              28.00   -11200.00
00710              24.00   -10800.00
00711              24.00   -10800.00
00712              16.00   -10800.00
00713              20.00   -10800.00
00714              22.00   -10800.00
00715              22.00   -10400.00
00716              24.00   -10600.00
00717              24.00   -10600.00
00718              20.00   -10400.00
00719              16.00   -10400.00
00720              20.00   -10400.00
00721              22.00   -10200.00
00722              22.00   -10000.00
00723              22.00   -10000.00
00724              22.00   -10000.00
00725              16.00    -9800.00
00726              16.00    -9800.00
00727              16.00    -9600.00
00728              22.00    -9600.00
00729              22.00    -9600.00
00730              20.00    -9400.00
00731              14.00    -9200.00
00732              16.00    -9200.00
00733              14.00    -9000.00
00734              16.00    -9000.00
00735              16.00    -8800.00
00736              16.00    -8800.00
00737              20.00    -8400.00
00738              16.00    -8600.00
00739              12.00    -8400.00
00740               8.00    -8200.00
00741               8.00    -8000.00
00742              16.00    -8000.00
00743              16.00    -7800.00
00744              14.00    -7600.00
00745              12.00    -7400.00
00746               2.00    -7400.00
00747               8.00    -7200.00
00748              20.00    -7200.00
00749              16.00    -7000.00
00750               8.00    -6800.00
00751               8.00    -6600.00
00752               4.00    -6600.00
00753               6.00    -6400.00
00754              12.00    -6400.00
00755              12.00    -6000.00
00756               8.00    -5800.00
00757               6.00    -5800.00
00758               6.00    -5600.00
00759               4.00    -5400.00
00760               6.00    -5400.00
00761               4.00    -5200.00
00762               6.00    -4800.00
00763               6.00    -4800.00
00764               4.00    -4600.00
00765               0.00    -4400.00
00766               4.00    -4400.00
00767               4.00    -4200.00
00768               4.00    -4000.00
00769               6.00    -3800.00
00770               4.00    -3600.00
00771               0.00    -3400.00
00772              -2.00    -3200.00
00773              -2.00    -3200.00
00774              -2.00    -2800.00
00775               2.00    -2800.00
00776               2.00    -2400.00
00777               2.00    -2400.00
00778              -4.00    -2200.00
00779              -4.00    -2000.00
00780              -4.00    -1800.00
00781              -2.00    -1800.00
00782               0.00    -1400.00
00783              -2.00    -1200.00
00784              -2.00    -1000.00
00785              -4.00     -800.00
00786              -8.00     -800.00
00787              -4.00     -600.00
00788              -4.00     -200.00
00789              -2.00     -200.00
00790              -2.00        0.00
00791              -2.00      400.00
00792              12.00      400.00
00793              22.00      600.00
00794              -6.00      800.00
00795             -22.00     1000.00
00796              -4.00     1000.00
00797               8.00     1200.00
00798              10.00     1400.00
00799             126.00     1600.00
00800             252.00     2000.00
00801            -118.00     2200.00
00802            -248.00     2400.00
00803            -226.00     2400.00
00804              80.00     2400.00
00805             252.00     2800.00
00806             252.00     2800.00
00807            -248.00     2800.00
00808            -248.00     3200.00
00809             252.00     3200.00
00810             174.00     3800.00
00811            -248.00     3800.00
00812             252.00     3600.00
00813             128.00     4400.00
00814            -248.00     4000.00
00815             252.00     4200.00
00816            -212.00     5200.00
00817            -122.00     4600.00
00818             252.00     4600.00
00819            -194.00     5600.00
00820             -96.00     5000.00
00821             104.00     5400.00
00822             -86.00     6200.00
00823              14.00     5400.00
00824              40.00     6000.00
00825             -36.00     6400.00
00826            -154.00     6000.00
00827              54.00     6600.00
00828             144.00     6600.00
00829            -224.00     6400.00
00830              22.00     7000.00
00831              96.00     7000.00
00832            -186.00     7200.00
00833              60.00     7200.00
00834              20.00     7800.00
00835             -92.00     7600.00
00836              38.00     7600.00
00837             -48.00     8200.00
00838             -64.00     7800.00
00839               6.00     8000.00
00840              30.00     8400.00
00841             -64.00     8000.00
00842             -56.00     8600.00
00843              34.00     8600.00
00844             -76.00     8600.00
00845             -10.00     8800.00
00846              38.00     8800.00
00847            -100.00     9200.00
00848             -10.00     9200.00
00849              30.00     9400.00
00850             -68.00     9400.00
00851             -38.00     9400.00
00852               6.00     9600.00
00853             -28.00     9600.00
00854             -36.00     9600.00
00855              -6.00    10000.00
00856             -42.00     9800.00
00857             -34.00    10000.00
00858               8.00    10200.00
00859             -50.00    10000.00
00860             -40.00    10200.00
00861               4.00    10400.00
00862             -40.00    10400.00
00863             -34.00    10400.00
00864              -8.00    10400.00
00865             -44.00    10800.00
00866             -36.00    10800.00
00867               6.00    10800.00
00868             -28.00    10800.00
00869             -50.00    10800.00
00870             -16.00    10800.00
00871             -32.00    11000.00
00872             -40.00    10800.00
00873              -8.00    11000.00
00874             -30.00    11000.00
00875             -42.00    11000.00
00876             -18.00    11200.00
00877             -32.00    11000.00
00878             -42.00    11200.00
00879             -20.00    11200.00
00880             -28.00    11200.00
00881             -34.00    11000.00
00882             -20.00    11200.00
00883             -34.00    11200.00
00884             -42.00    11000.00
00885             -20.00    11200.00
00886             -26.00    11200.00
00887             -36.00    11200.00
00888             -20.00    11200.00
00889             -32.00    11200.00
00890             -36.00    11200.00
00891             -24.00    11200.00
00892             -26.00    11200.00
00893             -36.00    11000.00
00894             -24.00    11200.00
00895             -26.00    11000.00
00896             -36.00    11000.00
00897             -26.00    11000.00
00898             -28.00    11000.00
00899             -32.00    11000.00
00900             -20.00    10800.00
00901             -26.00    10800.00
00902             -28.00    10800.00
00903             -28.00    10600.00
00904             -28.00    10600.00
00905             -28.00    10400.00
00906             -24.00    10400.00
00907             -20.00    10400.00
00908             -28.00    10400.00
00909             -26.00    10200.00
00910             -24.00    10200.00
00911             -32.00    10200.00
00912             -26.00    10000.00
00913             -20.00    10000.00
00914             -24.00    10000.00
00915             -26.00    10000.00
00916             -20.00     9600.00
00917             -28.00     9600.00
00918             -24.00     9600.00
00919             -20.00     9400.00
00920             -22.00     9400.00
00921             -18.00     9200.00
00922             -20.00     9200.00
00923             -26.00     9200.00
00924             -20.00     9000.00
00925             -20.00     8800.00
00926             -20.00     8600.00
00927             -20.00     8600.00
00928             -18.00     8400.00
00929             -24.00     8400.00
00930             -20.00     8400.00
00931             -20.00     8000.00
00932             -20.00     8000.00
00933             -18.00     7800.00
00934             -16.00     7800.00
00935             -18.00     7600.00
00936             -20.00     7600.00
00937             -20.00     7200.00
00938             -18.00     7400.00
00939             -18.00     7000.00
00940             -16.00     6800.00
00941             -18.00     6800.00
00942             -16.00     6600.00
00943             -18.00     6400.00
00944             -20.00     6200.00
00945             -18.00     6200.00
00946             -14.00     6000.00
00947             -14.00     5800.00
00948             -16.00     5600.00
00949             -16.00     5600.00
00950             -18.00     5400.00
00951             -16.00     5400.00
00952             -10.00     5000.00
00953             -12.00     5000.00
00954             -10.00     4800.00
00955             -10.00     4600.00
00956             -10.00     4400.00
00957             -10.00     4000.00
00958             -12.00     4000.00
00959             -10.00     3800.00
00960              -8.00     3600.00
00961              -6.00     3600.00
00962             -10.00     3200.00
00963             -10.00     3000.00
00964              -8.00     3000.00
00965             -10.00     2800.00
00966              -8.00     2800.00
00967              -2.00     2400.00
00968              -6.00     2200.00
00969              -4.00     2200.00
00970              -4.00     2000.00
00971              -8.00     1800.00
00972              -4.00     1600.00
00973              -2.00     1400.00
00974              -2.00     1200.00
00975               2.00     1200.00
00976              -2.00     1000.00
00977              -4.00      800.00
00978              -2.00      600.00
00979               0.00      200.00
00980               0.00        0.00
00981               4.00        0.00
00982               6.00     -200.00
00983              14.00     -400.00
00984              28.00     -600.00
00985              12.00     -800.00
00986             -10.00    -1000.00
00987               4.00    -1200.00
00988              22.00    -1200.00
00989              16.00    -1400.00
00990              36.00    -1600.00
00991             182.00    -1600.00
00992             252.00    -2200.00
00993            -180.00    -2600.00
00994            -248.00    -2600.00
00995            -104.00    -2800.00
00996             132.00    -2800.00
00997             200.00    -2600.00
00998             252.00    -3400.00
00999            -248.00    -3600.00
01000            -248.00    -2800.00
01001             252.00    -4200.00
01002             252.00    -4000.00
01003            -248.00    -3400.00
01004              26.00    -4800.00
01005             192.00    -4200.00
01006             -32.00    -4200.00
01007             108.00    -5200.00
01008            -132.00    -4400.00
01009             -92.00    -5000.00
01010             204.00    -5400.00
01011              70.00    -5000.00
01012             -96.00    -5400.00
01013             -58.00    -5800.00
01014              70.00    -5600.00
01015             108.00    -6000.00
01016              10.00    -6000.00
01017             -44.00    -6400.00
01018             -58.00    -6400.00
01019              92.00    -6800.00
01020             126.00    -6600.00
01021             -84.00    -6800.00
01022             -40.00    -7200.00
01023              70.00    -7200.00
01024              42.00    -7200.00
01025              14.00    -7800.00
01026             -10.00    -7600.00
01027              24.00    -7800.00
01028              44.00    -8000.00
01029              20.00    -8000.00
01030               0.00    -8200.00
01031               0.00    -8200.00
01032              58.00    -8400.00
01033              44.00    -8600.00
01034             -16.00    -8600.00
01035               4.00    -9000.00
01036              22.00    -8800.00
01037              44.00    -9000.00
01038              40.00    -9200.00
01039              14.00    -9200.00
01040              10.00    -9400.00
01041              40.00    -9600.00
01042              32.00    -9600.00
01043              -4.00    -9600.00
01044              14.00    -9800.00
01045              36.00    -9800.00
01046              22.00   -10000.00
01047              22.00   -10000.00
01048              28.00   -10200.00
01049              24.00   -10000.00
01050              36.00   -10200.00
01051              32.00   -10400.00
01052              20.00   -10400.00
01053              20.00   -10600.00
01054              24.00   -10600.00
01055              20.00   -10600.00
01056              20.00   -10600.00
01057              30.00   -10600.00
01058              24.00   -10600.00
01059              32.00   -10800.00
01060              36.00   -10800.00
01061              14.00   -10800.00
01062              20.00   -11000.00
01063              28.00   -10800.00
01064              26.00   -11000.00
01065              28.00   -11200.00
01066              32.00   -11000.00
01067              22.00   -11200.00
01068              16.00   -11400.00
01069              22.00   -11200.00
01070              22.00   -11200.00
01071              26.00   -11200.00
01072              36.00   -11200.00
01073              28.00   -11400.00
01074              22.00   -11200.00
01075              20.00   -11200.00
01076              16.00   -11400.00
01077              24.00   -11400.00
01078              28.00   -11200.00
01079              24.00   -11200.00
01080              22.00   -11400.00
01081              24.00   -11400.00
01082              22.00   -11400.00
01083              20.00   -11200.00
01084              26.00   -11200.00
01085              24.00   -11200.00
01086              24.00   -11200.00
01087              28.00   -11200.00
01088              16.00   -11000.00
01089              20.00   -10800.00
01090              28.00   -10800.00
01091              20.00   -10800.00
01092              24.00   -10800.00
01093              28.00   -10800.00
01094              14.00   -10800.00
01095              20.00   -10800.00
01096              22.00   -10600.00
01097              22.00   -10600.00
01098              24.00   -10600.00
01099              24.00   -10400.00
01100              22.00   -10400.00
01101              20.00   -10400.00
01102              14.00   -10400.00
01103              18.00   -10200.00
01104              22.00   -10000.00
01105              24.00   -10000.00
01106              22.00   -10000.00
01107              20.00    -9800.00
01108              20.00    -9800.00
01109              14.00    -9600.00
01110              16.00    -9600.00
01111              26.00    -9600.00
01112              16.00    -9400.00
01113              18.00    -9200.00
01114              20.00    -9200.00
01115              10.00    -9200.00
01116              20.00    -8800.00
01117              18.00    -9000.00
01118              16.00    -8800.00
01119              22.00    -8800.00
01120              16.00    -8600.00
01121               8.00    -8400.00
01122              12.00    -8400.00
01123              14.00    -8200.00
01124              12.00    -8000.00
01125              20.00    -7800.00
01126              16.00    -7600.00
01127              10.00    -7600.00
01128              10.00    -7400.00
01129              12.00    -7200.00
01130              12.00    -7200.00
01131              12.00    -7200.00
01132              14.00    -7000.00
01133               8.00    -6800.00
01134               6.00    -6600.00
01135               8.00    -6600.00
01136               4.00    -6400.00
01137               8.00    -6200.00
01138              12.00    -6000.00
01139               6.00    -6000.00
01140               6.00    -5600.00
01141               6.00    -5400.00
01142               4.00    -5200.00
01143               4.00    -5200.00
01144               6.00    -5200.00
01145               6.00    -5000.00
01146               6.00    -4800.00
01147               4.00    -4400.00
01148               0.00    -4400.00
01149               0.00    -4200.00
01150               4.00    -4000.00
01151               4.00    -4000.00
01152               6.00    -3600.00
01153               6.00    -3600.00
01154               0.00    -3400.00
01155              -2.00    -3200.00
01156              -2.00    -3200.00
01157               0.00    -2800.00
01158               4.00    -2600.00
01159               0.00    -2400.00
01160               0.00    -2400.00
01161              -2.00    -2200.00
01162              -2.00    -2000.00
01163               0.00    -1600.00
01164              -2.00    -1600.00
01165               0.00    -1200.00
01166              -2.00    -1200.00
01167              -4.00    -1000.00
01168              -4.00    -1000.00
01169              -8.00     -600.00
01170              -4.00     -600.00
01171              -2.00     -400.00
01172              -2.00        0.00
01173               0.00        0.00
01174               4.00      200.00
01175              20.00      600.00
01176              14.00      600.00
01177             -16.00     1000.00
01178             -20.00     1000.00
01179               4.00     1200.00
01180              12.00     1200.00
01181              28.00     1400.00
01182             214.00     1800.00
01183             236.00     2200.00
01184            -248.00     2200.00
01185            -248.00     2400.00
01186             -66.00     2400.00
01187             142.00     2600.00
01188             252.00     2800.00
01189             252.00     2800.00
01190            -248.00     3200.00
01191               2.00     3400.00
01192             252.00     3200.00
01193            -248.00     4000.00
01194            -248.00     3800.00
01195             252.00     3800.00
01196            -218.00     4600.00
01197             -78.00     3800.00
01198             222.00     4600.00
01199            -248.00     5200.00
01200             126.00     4400.00
01201             196.00     5200.00
01202            -248.00     5600.00
01203              38.00     4800.00
01204              38.00     6000.00
01205             -82.00     6000.00
01206              50.00     5400.00
01207              24.00     6200.00
01208             -84.00     6000.00
01209            -136.00     6000.00
01210             158.00     6800.00
01211              14.00     6400.00
01212            -220.00     6800.00
01213             140.00     7000.00
01214             -28.00     7200.00
01215            -140.00     7000.00
01216             108.00     7400.00
01217             -60.00     7800.00
01218             -40.00     7400.00
01219              28.00     7800.00
01220             -78.00     8000.00
01221             -36.00     7600.00
01222              22.00     8400.00
01223               8.00     8400.00
01224             -88.00     8200.00
01225             -10.00     8800.00
01226               8.00     8600.00
01227             -86.00     8800.00
01228              38.00     8800.00
01229             -12.00     9000.00
01230             -96.00     9000.00
01231              28.00     9200.00
01232              -8.00     9400.00
01233             -74.00     9400.00
01234             -18.00     9600.00
01235               0.00     9600.00
01236             -40.00     9600.00
01237             -26.00    10000.00
01238             -12.00    10000.00
01239             -56.00    10000.00
01240             -10.00    10000.00
01241              -4.00    10000.00
01242             -62.00    10200.00
01243             -18.00    10200.00
01244              -8.00    10400.00
01245             -48.00    10400.00
01246             -18.00    10400.00
01247             -20.00    10800.00
01248             -52.00    10600.00
01249             -20.00    10400.00
01250               4.00    10800.00
01251             -44.00    10800.00
01252             -34.00    11000.00
01253             -12.00    10800.00
01254             -42.00    11000.00
01255             -28.00    10800.00
01256             -10.00    11000.00
01257             -36.00    11000.00
01258             -32.00    11000.00
01259             -18.00    11200.00
01260             -40.00    11200.00
01261             -34.00    11000.00
01262             -18.00    11200.00
01263             -34.00    11200.00
01264             -30.00    11000.00
01265             -20.00    11200.00
01266             -42.00    11200.00
01267             -34.00    11200.00
01268             -18.00    11200.00
01269             -32.00    11200.00
01270             -32.00    11200.00
01271             -20.00    11200.00
01272             -34.00    11200.00
01273             -36.00    11000.00
01274             -20.00    11200.00
01275             -32.00    11200.00
01276             -34.00    11200.00
01277             -20.00    11000.00
01278             -28.00    11200.00
01279             -32.00    11000.00
01280             -26.00    11000.00
01281             -34.00    10800.00
01282             -28.00    11000.00
01283             -20.00    10800.00
01284             -28.00    10800.00
01285             -32.00    10800.00
01286             -26.00    10800.00
01287             -28.00    10600.00
01288             -30.00    10600.00
01289             -20.00    10400.00
01290             -26.00    10400.00
01291             -28.00    10400.00
01292             -24.00    10200.00
01293             -26.00    10200.00
01294             -28.00    10000.00
01295             -24.00    10200.00
01296             -20.00    10000.00
01297             -26.00    10000.00
01298             -26.00    10000.00
01299             -24.00     9800.00
01300             -26.00     9600.00
01301             -24.00     9600.00
01302             -18.00     9400.00
01303             -24.00     9400.00
01304             -20.00     9400.00
01305             -24.00     9200.00
01306             -26.00     9200.00
01307             -20.00     8800.00
01308             -20.00     8800.00
01309             -22.00     8800.00
01310             -18.00     8600.00
01311             -20.00     8400.00
01312             -24.00     8400.00
01313             -20.00     8400.00
01314             -20.00     8000.00
01315             -20.00     8000.00
01316             -16.00     7800.00
01317             -16.00     7800.00
01318             -20.00     7400.00
01319             -18.00     7400.00
01320             -20.00     7400.00
01321             -18.00     7200.00
01322             -12.00     7000.00
01323             -16.00     6800.00
01324             -16.00     6800.00
01325             -12.00     6800.00
01326             -16.00     6400.00
01327             -18.00     6400.00
01328             -16.00     6000.00
01329             -12.00     6000.00
01330             -12.00     5800.00
01331             -16.00     5600.00
01332             -12.00     5400.00
01333             -12.00     5400.00
01334             -14.00     5200.00
01335              -8.00     5000.00
01336             -12.00     4600.00
01337             -12.00     4600.00
01338             -10.00     4400.00
01339             -14.00     4200.00
01340             -12.00     4000.00
01341             -10.00     3800.00
01342              -8.00     3800.00
01343              -6.00     3600.00
01344              -8.00     3400.00
01345              -8.00     3200.00
01346             -10.00     3000.00
01347              -8.00     3000.00
01348              -8.00     2600.00
01349              -4.00     2600.00
01350              -4.00     2200.00
01351              -8.00     2200.00
01352              -6.00     2200.00
01353              -4.00     1800.00
01354              -6.00     1800.00
01355              -4.00     1600.00
01356              -2.00     1200.00
01357              -2.00     1200.00
01358              -2.00     1000.00
01359              -2.00      800.00
01360              -4.00      600.00
01361              -2.00      400.00
01362               0.00      200.00
01363               4.00        0.00
01364               6.00     -400.00
01365               6.00     -400.00
01366              20.00     -400.00
01367              30.00     -600.00
01368               2.00     -800.00
01369             -12.00    -1000.00
01370               8.00    -1200.00
01371              22.00    -1200.00
01372              20.00    -1600.00
01373              68.00    -1600.00
01374             248.00    -1800.00
01375             158.00    -2400.00
01376            -248.00    -2600.00
01377            -248.00    -2800.00
01378              40.00    -2800.00
01379             118.00    -2800.00
01380             252.00    -2800.00
01381             252.00    -3600.00
01382            -248.00    -3200.00
01383            -224.00    -3200.00
01384             252.00    -4400.00
01385             -24.00    -3400.00
01386            -248.00    -4000.00
01387             198.00    -4800.00
01388              78.00    -4000.00
01389              16.00    -4600.00
01390              64.00    -5200.00
01391            -196.00    -4400.00
01392              32.00    -5200.00
01393             208.00    -5200.00
01394             -16.00    -5000.00
01395            -100.00    -5800.00
01396             -18.00    -5400.00
01397             102.00    -5800.00
01398              74.00    -6000.00
01399             -10.00    -6000.00
01400             -60.00    -6400.00
01401             -26.00    -6400.00
01402             140.00    -6600.00
01403              54.00    -6800.00
01404            -106.00    -6800.00
01405              16.00    -7200.00
01406              68.00    -7200.00
01407              28.00    -7400.00
01408               4.00    -7600.00
01409              -4.00    -7600.00
01410              38.00    -8000.00
01411              32.00    -8000.00
01412              12.00    -8000.00
01413              -8.00    -8200.00
01414              20.00    -8200.00
01415              68.00    -8600.00
01416              20.00    -8600.00
01417             -16.00    -8800.00
01418              12.00    -8800.00
01419              28.00    -9000.00
01420              44.00    -9200.00
01421              28.00    -9200.00
01422               4.00    -9200.00
01423              16.00    -9400.00
01424              38.00    -9600.00
01425              22.00    -9600.00
01426               0.00    -9800.00
01427              28.00    -9800.00
01428              38.00    -9800.00
01429              20.00   -10000.00
01430              16.00   -10000.00
01431              20.00   -10000.00
01432              20.00   -10000.00
01433              32.00   -10200.00
01434              30.00   -10400.00
01435              20.00   -10400.00
01436              28.00   -10400.00
01437              28.00   -10600.00
01438              16.00   -10600.00
01439              22.00   -10600.00
01440              24.00   -10600.00
01441              28.00   -10800.00
01442              36.00   -10800.00
01443              28.00   -10800.00
01444              12.00   -10800.00
01445              22.00   -11200.00
01446              30.00   -11200.00
01447              26.00   -11000.00
01448              28.00   -11000.00
01449              30.00   -11200.00
01450              16.00   -11200.00
01451              22.00   -11200.00
01452              28.00   -11200.00
01453              24.00   -11400.00
01454              30.00   -11200.00
01455              32.00   -11200.00
01456              22.00   -11400.00
01457              22.00   -11200.00
01458              22.00   -11400.00
01459              20.00   -11200.00
01460              28.00   -11400.00
01461              28.00   -11200.00
01462              22.00   -11200.00
01463              24.00   -11200.00
01464              22.00   -11400.00
01465              20.00   -11200.00
01466              22.00   -11400.00
01467              28.00   -11200.00
01468              26.00   -11200.00
01469              20.00   -11200.00
01470              24.00   -11200.00
01471              20.00   -11200.00
01472              16.00   -11000.00
01473              22.00   -10800.00
01474              24.00   -11000.00
01475              28.00   -10800.00
01476              22.00   -10800.00
01477              14.00   -10800.00
01478              20.00   -10600.00
01479              20.00   -10800.00
01480              22.00   -10600.00
01481              24.00   -10400.00
01482              24.00   -10600.00
01483              20.00   -10400.00
01484              16.00   -10400.00
01485              20.00   -10400.00
01486              20.00   -10200.00
01487              22.00   -10000.00
01488              22.00   -10000.00
01489              20.00    -9800.00
01490              20.00   -10000.00
01491              16.00    -9600.00
01492              16.00    -9600.00
01493              20.00    -9600.00
01494              20.00    -9600.00
01495              20.00    -9200.00
01496              20.00    -9200.00
01497              16.00    -9200.00
01498              14.00    -9200.00
01499              18.00    -8800.00
01500              20.00    -8800.00
01501              22.00    -8800.00
01502              20.00    -8600.00
01503              14.00    -8400.00
01504              10.00    -8400.00
01505              12.00    -8200.00
01506              14.00    -8200.00
01507              16.00    -8000.00
01508              16.00    -8000.00
01509              14.00    -7600.00
01510              12.00    -7600.00
01511              12.00    -7400.00
01512               8.00    -7400.00
01513              12.00    -7200.00
01514              14.00    -7000.00
01515              12.00    -6800.00
01516              12.00    -6600.00
01517               8.00    -6600.00
01518               6.00    -6600.00
01519              10.00    -6200.00
01520              12.00    -6000.00
01521              12.00    -5800.00
01522               8.00    -5800.00
01523               8.00    -5600.00
01524               4.00    -5400.00
01525               4.00    -5200.00
01526               4.00    -5200.00
01527               6.00    -5000.00
01528               6.00    -4800.00
01529               6.00    -4800.00
01530               6.00    -4400.00
01531               2.00    -4400.00
01532               4.00    -4200.00
01533               4.00    -4000.00
01534               4.00    -3800.00
01535               6.00    -3600.00
01536               0.00    -3400.00
01537               0.00    -3400.00
01538              -2.00    -3200.00
01539               0.00    -3000.00
01540               0.00    -2800.00
01541               0.00    -2600.00
01542               2.00    -2400.00
01543              -2.00    -2400.00
01544              -2.00    -2000.00
01545              -2.00    -1800.00
01546              -4.00    -1600.00
01547              -2.00    -1400.00
01548               0.00    -1200.00
01549              -2.00    -1000.00
01550              -4.00    -1000.00
01551              -6.00     -800.00
01552              -6.00     -600.00
01553              -4.00     -400.00
01554              -4.00     -200.00
01555              -2.00        0.00
01556              -2.00        0.00
01557               6.00      400.00
01558              22.00      600.00
01559               4.00      600.00
01560             -20.00     1000.00
01561             -10.00      800.00
01562               8.00     1200.00
01563              12.00     1200.00
01564              64.00     1600.00
01565             252.00     2000.00
01566              80.00     2200.00
01567            -248.00     2400.00
01568            -248.00     2400.00
01569              32.00     2400.00
01570             252.00     2600.00
01571             252.00     2800.00
01572            -234.00     2800.00
01573            -248.00     3200.00
01574             252.00     3200.00
01575             252.00     3600.00
01576            -248.00     4000.00
01577              72.00     3400.00
01578             252.00     4000.00
01579            -248.00     4400.00
01580             166.00     3800.00
01581              16.00     4800.00
01582            -248.00     4800.00
01583             252.00     4400.00
01584             -18.00     5400.00
01585            -218.00     5200.00
01586             110.00     5000.00
01587             -42.00     6000.00
01588             -34.00     5600.00
01589              56.00     5600.00
01590              -4.00     6400.00
01591            -132.00     6000.00
01592             -52.00     6200.00
01593             190.00     6800.00
01594            -132.00     6600.00
01595            -114.00     6800.00
01596             160.00     6800.00
01597            -146.00     7200.00
01598             -36.00     7000.00
01599              88.00     7600.00
01600            -100.00     7600.00
01601              12.00     7400.00
01602              -8.00     8000.00
01603             -80.00     8000.00
01604             -16.00     7800.00
01605              30.00     8400.00
01606             -28.00     8000.00
01607             -86.00     8600.00
01608              28.00     8600.00
01609             -42.00     8600.00
01610             -60.00     8800.00
01611              56.00     8800.00
01612             -70.00     9200.00
01613             -60.00     9000.00
01614              42.00     9200.00
01615             -48.00     9400.00
01616             -58.00     9200.00
01617              -2.00     9600.00
01618             -12.00     9600.00
01619             -42.00     9600.00
01620             -14.00     9800.00
01621             -28.00     9800.00
01622             -52.00    10000.00
01623               4.00    10000.00
01624             -28.00    10000.00
01625             -58.00    10200.00
01626              -2.00    10400.00
01627             -22.00    10400.00
01628             -44.00    10200.00
01629             -10.00    10400.00
01630             -34.00    10400.00
01631             -50.00    10400.00
01632              -4.00    10800.00
01633             -10.00    10800.00
01634             -52.00    10800.00
01635             -26.00    10800.00
01636             -20.00    11000.00
01637             -42.00    10800.00
01638             -16.00    11000.00
01639             -18.00    11000.00
01640             -44.00    11000.00
01641             -28.00    11200.00
01642             -24.00    11200.00
01643             -34.00    11000.00
01644             -22.00    11200.00
01645             -22.00    11200.00
01646             -36.00    11200.00
01647             -26.00    11200.00
01648             -24.00    11200.00
01649             -36.00    11200.00
01650             -26.00    11200.00
01651             -24.00    11200.00
01652             -36.00    11000.00
01653             -26.00    11200.00
01654             -24.00    11200.00
01655             -36.00    11200.00
01656             -32.00    11200.00
01657             -24.00    11200.00
01658             -34.00    11000.00
01659             -28.00    11200.00
01660             -20.00    11000.00
01661             -32.00    11000.00
01662             -34.00    11000.00
01663             -28.00    11000.00
01664             -28.00    11000.00
01665             -26.00    10800.00
01666             -20.00    10800.00
01667             -30.00    10800.00
01668             -32.00    10800.00
01669             -26.00    10800.00
01670             -32.00    10600.00
01671             -26.00    10400.00
01672             -20.00    10400.00
01673             -28.00    10400.00
01674             -28.00    10200.00
01675             -24.00    10200.00
01676             -28.00    10200.00
01677             -28.00    10200.00
01678             -20.00    10000.00
01679             -26.00    10000.00
01680             -24.00    10000.00
01681             -22.00     9800.00
01682             -26.00     9800.00
01683             -26.00     9600.00
01684             -22.00     9600.00
01685             -20.00     9400.00
01686             -24.00     9200.00
01687             -20.00     9200.00
01688             -26.00     9200.00
01689             -26.00     9200.00
01690             -20.00     8800.00
01691             -20.00     8800.00
01692             -20.00     8600.00
01693             -18.00     8600.00
01694             -20.00     8400.00
01695             -20.00     8400.00
01696             -20.00     8200.00
01697             -18.00     8200.00
01698             -20.00     7800.00
01699             -16.00     7800.00
01700             -18.00     7800.00
01701             -20.00     7600.00
01702             -20.00     7400.00
01703             -18.00     7200.00
01704             -16.00     7000.00
01705             -16.00     7000.00
01706             -16.00     6800.00
01707             -16.00     6800.00
01708             -14.00     6600.00
01709             -18.00     6400.00
01710             -18.00     6400.00
01711             -10.00     6000.00
01712             -10.00     6000.00
01713             -16.00     5600.00
01714             -12.00     5600.00
01715             -14.00     5400.00
01716             -12.00     5200.00
01717             -10.00     5200.00
01718             -10.00     5000.00
01719             -10.00     4800.00
01720             -10.00     4600.00
01721             -12.00     4400.00
01722             -10.00     4200.00
01723             -12.00     3800.00
01724             -10.00     4000.00
01725              -8.00     3600.00
01726              -8.00     3600.00
01727              -8.00     3200.00
01728             -10.00     3200.00
01729             -10.00     3000.00
01730              -8.00     2800.00
01731              -6.00     2800.00
01732              -4.00     2400.00
01733              -4.00     2200.00
01734              -8.00     2200.00
01735              -6.00     2000.00
01736              -6.00     1800.00
01737              -4.00     1600.00
01738              -4.00     1400.00
01739              -4.00     1200.00
01740              -2.00     1200.00
01741              -2.00      800.00
01742              -4.00      600.00
01743              -4.00      600.00
01744              -2.00      400.00
01745               0.00        0.00
01746               4.00     -200.00
01747               6.00     -200.00
01748               8.00     -400.00
01749              28.00     -400.00
01750              22.00     -800.00
01751              -8.00     -800.00
01752              -8.00    -1000.00
01753              16.00    -1200.00
01754              16.00    -1200.00
01755              22.00    -1600.00
01756             116.00    -1600.00
01757             252.00    -2000.00
01758              -4.00    -2600.00
01759            -248.00    -2400.00
01760            -248.00    -2800.00
01761             118.00    -2800.00
01762             128.00    -2600.00
01763             252.00    -3000.00
01764              50.00    -3600.00
01765            -248.00    -3000.00
01766             202.00    -3600.00
01767             252.00    -4200.00
01768            -248.00    -3400.00
01769            -194.00    -4400.00
01770             250.00    -4400.00
01771             -18.00    -4000.00
01772              80.00    -5000.00
01773             -32.00    -4800.00
01774            -176.00    -4600.00
01775             148.00    -5400.00
01776             150.00    -5200.00
01777             -72.00    -5200.00
01778             -84.00    -5600.00
01779              28.00    -5600.00
01780             116.00    -5800.00
01781              40.00    -6000.00
01782             -26.00    -6200.00
01783             -68.00    -6400.00
01784              28.00    -6400.00
01785             152.00    -6800.00
01786             -26.00    -6800.00
01787             -84.00    -7200.00
01788              58.00    -7200.00
01789              56.00    -7200.00
01790              22.00    -7600.00
01791              -4.00    -7600.00
01792               6.00    -7600.00
01793              46.00    -8000.00
01794              24.00    -8000.00
01795               6.00    -8200.00
01796              -8.00    -8200.00
01797              40.00    -8200.00
01798              62.00    -8400.00
01799               0.00    -8600.00
01800              -4.00    -8800.00
01801              16.00    -8800.00
01802              36.00    -8800.00
01803              44.00    -9200.00
01804              16.00    -9200.00
01805               0.00    -9600.00
01806              24.00    -9600.00
01807              40.00    -9600.00
01808              12.00    -9600.00
01809               8.00    -9800.00
01810              38.00    -9800.00
01811              28.00    -9800.00
01812              16.00   -10000.00
01813              22.00    -9800.00
01814              18.00   -10000.00
01815              24.00   -10200.00
01816              36.00   -10400.00
01817              22.00   -10400.00
01818              20.00   -10600.00
01819              30.00   -10400.00
01820              22.00   -10800.00
01821              16.00   -10600.00
01822              24.00   -10800.00
01823              24.00   -10600.00
01824              28.00   -10800.00
01825              36.00   -10800.00
01826              20.00   -10800.00
01827              12.00   -10800.00
01828              28.00   -11000.00
01829              30.00   -11000.00
01830              24.00   -11200.00
01831              32.00   -11200.00
01832              28.00   -11200.00
01833              16.00   -11200.00
01834              22.00   -11200.00
01835              24.00   -11200.00
01836              26.00   -11200.00
01837              30.00   -11200.00
01838              30.00   -11200.00
01839              20.00   -11400.00
01840              20.00   -11400.00
01841              22.00   -11200.00
01842              24.00   -11200.00
01843              28.00   -11400.00
01844              28.00   -11200.00
01845              24.00   -11400.00
01846              24.00   -11200.00
01847              24.00   -11200.00
01848              20.00   -11200.00
01849              26.00   -11200.00
01850              28.00   -11200.00
01851              26.00   -11200.00
01852              24.00   -11000.00
01853              20.00   -11200.00
01854              18.00   -11000.00
01855              22.00   -10800.00
01856              28.00   -10800.00
01857              26.00   -10800.00
01858              22.00   -10800.00
01859              22.00   -10800.00
01860              20.00   -10800.00
01861              16.00   -10800.00
01862              22.00   -10600.00
01863              22.00   -10600.00
01864              26.00   -10600.00
01865              22.00   -10400.00
01866              20.00   -10400.00
01867              16.00   -10400.00
01868              16.00   -10400.00
01869              20.00   -10200.00
01870              22.00   -10200.00
01871              22.00   -10000.00
01872              20.00    -9800.00
01873              16.00   -10000.00
01874              14.00    -9800.00
01875              18.00    -9600.00
01876              18.00    -9400.00
01877              22.00    -9400.00
01878              20.00    -9400.00
01879              14.00    -9200.00
01880              16.00    -9200.00
01881              14.00    -9000.00
01882              14.00    -9000.00
01883              20.00    -8800.00
01884              20.00    -8800.00
01885              16.00    -8600.00
01886              14.00    -8400.00
01887              12.00    -8200.00
01888              14.00    -8200.00
01889              16.00    -8200.00
01890              14.00    -8000.00
01891              16.00    -8000.00
01892              14.00    -7600.00
01893              12.00    -7400.00
01894               8.00    -7400.00
01895              12.00    -7400.00
01896              16.00    -7200.00
01897              14.00    -7000.00
01898              14.00    -6800.00
01899              12.00    -6600.00
01900               6.00    -6600.00
01901               8.00    -6400.00
01902               8.00    -6400.00
01903              12.00    -6000.00
01904              12.00    -5800.00
01905              10.00    -5800.00
01906               8.00    -5400.00
01907               6.00    -5400.00
01908               6.00    -5200.00
01909               6.00    -5000.00
01910               8.00    -5000.00
01911               8.00    -4800.00
01912               4.00    -4800.00
01913               4.00    -4400.00
01914               4.00    -4400.00
01915               0.00    -4000.00
01916               4.00    -4000.00
01917               6.00    -3600.00
01918               4.00    -3600.00
01919               0.00    -3400.00
01920              -2.00    -3200.00
01921               2.00    -3000.00
01922              -2.00    -2800.00
01923               2.00    -2800.00
01924               0.00    -2600.00
01925               2.00    -2400.00
01926               0.00    -2200.00
01927              -2.00    -2000.00
01928              -4.00    -1600.00
01929              -4.00    -1600.00
01930              -4.00    -1600.00
01931              -4.00    -1200.00
01932              -2.00    -1000.00
01933              -8.00    -1000.00
01934              -8.00     -600.00
01935              -4.00     -600.00
01936              -8.00     -400.00
01937              -4.00     -200.00
01938              -2.00        0.00
01939              -2.00      200.00
01940              10.00      400.00
01941              22.00      600.00
01942             -10.00      600.00
01943             -20.00     1000.00
01944              -4.00     1000.00
01945              12.00     1200.00
01946              12.00     1200.00
01947             134.00     1600.00
01948             252.00     1800.00
01949            -134.00     2200.00
01950            -248.00     2400.00
01951            -212.00     2400.00
01952              84.00     2400.00
01953             252.00     2800.00
01954             252.00     2800.00
01955            -248.00     2800.00
01956            -248.00     3200.00
01957             252.00     3200.00
01958             130.00     3800.00
01959            -248.00     3800.00
01960             252.00     3600.00
01961             106.00     4600.00
01962            -248.00     4200.00
01963             252.00     4000.00
01964            -222.00     5200.00
01965            -106.00     4600.00
01966             252.00     4800.00
01967            -202.00     5600.00
01968             -84.00     4800.00
01969             102.00     5400.00
01970             -90.00     6400.00
01971              20.00     5400.00
01972              40.00     6200.00
01973             -40.00     6400.00
01974            -154.00     5800.00
01975              60.00     6800.00
01976             140.00     6600.00
01977            -224.00     6600.00
01978              30.00     7000.00
01979              92.00     7000.00
01980            -188.00     7200.00
01981              64.00     7200.00
01982              14.00     7600.00
01983             -90.00     7800.00
01984              38.00     7400.00
01985             -50.00     8200.00
01986             -64.00     7600.00
01987               6.00     8000.00
01988              28.00     8400.00
01989             -66.00     8000.00
01990             -56.00     8800.00
01991              32.00     8600.00
01992             -80.00     8600.00
01993              -8.00     8800.00
01994              34.00     9200.00
01995            -100.00     9200.00
01996             -10.00     9000.00
01997              24.00     9400.00
01998             -70.00     9200.00
01999             -36.00     9600.00
02000               4.00     9600.00
02001             -28.00     9600.00
02002             -36.00     9600.00
02003             -10.00    10000.00
02004             -48.00    10000.00
02005             -34.00    10000.00
02006               6.00    10200.00
02007             -52.00    10000.00
02008             -40.00    10200.00
02009               4.00    10200.00
02010             -40.00    10400.00
02011             -34.00    10400.00
02012             -10.00    10600.00
02013             -48.00    10400.00
02014             -38.00    10400.00
02015               4.00    10800.00
02016             -32.00    10800.00
02017             -50.00    10800.00
02018             -16.00    11000.00
02019             -32.00    11000.00
02020             -36.00    11000.00
02021             -10.00    11000.00
02022             -32.00    11000.00
02023             -40.00    11000.00
02024             -18.00    11200.00
02025             -32.00    11200.00
02026             -38.00    11200.00
02027             -20.00    11200.00
02028             -26.00    11200.00
02029             -34.00    11200.00
02030             -18.00    11200.00
02031             -32.00    11200.00
02032             -40.00    11200.00
02033             -18.00    11200.00
02034             -26.00    11200.00
02035             -32.00    11200.00
02036             -20.00    11200.00
02037             -28.00    11200.00
02038             -40.00    11200.00
02039             -24.00    11200.00
02040             -24.00    11200.00
02041             -34.00    11200.00
02042             -22.00    11000.00
02043             -24.00    11000.00
02044             -34.00    11000.00
02045             -26.00    11000.00
02046             -28.00    11000.00
02047             -32.00    11000.00
02048             -22.00    10800.00
02049             -26.00    10800.00
02050             -32.00    10800.00
02051             -26.00    10800.00
02052             -28.00    10800.00
02053             -30.00    10400.00
02054             -24.00    10400.00
02055             -20.00    10400.00
02056             -32.00    10400.00
02057             -26.00    10200.00
02058             -24.00    10200.00
02059             -32.00    10000.00
02060             -26.00    10000.00
02061             -20.00    10000.00
02062             -26.00    10000.00
02063             -26.00    10000.00
02064             -26.00     9800.00
02065             -28.00     9600.00
02066             -26.00     9600.00
02067             -20.00     9400.00
02068             -24.00     9400.00
02069             -20.00     9400.00
02070             -22.00     9200.00
02071             -26.00     9200.00
02072             -22.00     9000.00
02073             -20.00     8800.00
02074             -24.00     8800.00
02075             -20.00     8600.00
02076             -18.00     8600.00
02077             -24.00     8400.00
02078             -24.00     8400.00
02079             -20.00     8000.00
02080             -20.00     8000.00
02081             -20.00     7800.00
02082             -14.00     7800.00
02083             -18.00     7600.00
02084             -20.00     7600.00
02085             -18.00     7600.00
02086             -18.00     7200.00
02087             -16.00     7200.00
02088             -14.00     6800.00
02089             -16.00     6800.00
02090             -14.00     6600.00
02091             -16.00     6400.00
02092             -18.00     6400.00
02093             -16.00     6200.00
02094             -12.00     6000.00
02095             -12.00     5800.00
02096             -12.00     5600.00
02097             -14.00     5400.00
02098             -12.00     5400.00
02099             -10.00     5200.00
02100             -10.00     5200.00
02101             -12.00     4800.00
02102             -10.00     4800.00
02103             -10.00     4600.00
02104             -12.00     4400.00
02105             -10.00     4200.00
02106             -10.00     4000.00
02107             -10.00     3800.00
02108              -4.00     3600.00
02109              -6.00     3600.00
02110              -8.00     3200.00
02111              -8.00     3200.00
02112              -8.00     2800.00
02113              -8.00     2800.00
02114              -8.00     2800.00
02115              -4.00     2400.00
02116              -4.00     2200.00
02117              -4.00     2200.00
02118              -8.00     2000.00
02119              -4.00     1800.00
02120              -6.00     1600.00
02121              -2.00     1400.00
02122              -4.00     1200.00
02123              -4.00     1000.00
02124              -2.00      800.00
02125              -4.00      600.00
02126              -2.00      400.00
02127              -2.00      200.00
02128               0.00        0.00
02129               4.00        0.00
02130               6.00     -200.00
02131              16.00     -400.00
02132              22.00     -600.00
02133               8.00     -800.00
02134              -8.00    -1000.00
02135              -4.00    -1000.00
02136              20.00    -1200.00
02137              22.00    -1200.00
02138              32.00    -1600.00
02139             184.00    -1800.00
02140             252.00    -2400.00
02141            -192.00    -2600.00
02142            -248.00    -2400.00
02143             -96.00    -2800.00
02144             132.00    -2800.00
02145             198.00    -2600.00
02146             252.00    -3200.00
02147            -248.00    -3400.00
02148            -248.00    -2800.00
02149             252.00    -4200.00
02150             252.00    -3800.00
02151            -248.00    -3400.00
02152              40.00    -4600.00
02153             188.00    -4200.00
02154             -28.00    -4200.00
02155             102.00    -5200.00
02156            -138.00    -4600.00
02157             -82.00    -4800.00
02158             208.00    -5400.00
02159              64.00    -5000.00
02160             -92.00    -5600.00
02161             -56.00    -5800.00
02162              70.00    -5600.00
02163             104.00    -6000.00
02164              12.00    -6200.00
02165             -44.00    -6400.00
02166             -56.00    -6400.00
02167              92.00    -6800.00
02168             120.00    -6800.00
02169             -84.00    -6800.00
02170             -32.00    -7200.00
02171              70.00    -7200.00
02172              42.00    -7200.00
02173              14.00    -7600.00
02174             -12.00    -7400.00
02175              24.00    -7800.00
02176              38.00    -8000.00
02177              16.00    -8000.00
02178               0.00    -8200.00
02179              -2.00    -8400.00
02180              60.00    -8400.00
02181              44.00    -8600.00
02182             -10.00    -8600.00
02183               4.00    -9000.00
02184              22.00    -8800.00
02185              40.00    -9000.00
02186              36.00    -9200.00
02187               6.00    -9200.00
02188               6.00    -9400.00
02189              36.00    -9400.00
02190              36.00    -9600.00
02191               4.00    -9600.00
02192              18.00    -9800.00
02193              40.00   -10000.00
02194              24.00    -9800.00
02195              14.00   -10000.00
02196              20.00   -10000.00
02197              20.00   -10200.00
02198              28.00   -10400.00
02199              32.00   -10200.00
02200              20.00   -10600.00
02201              22.00   -10400.00
02202              30.00   -10600.00
02203              16.00   -10600.00
02204              20.00   -10600.00
02205              28.00   -10600.00
02206              22.00   -10800.00
02207              32.00   -10800.00
02208              32.00   -10800.00
02209              12.00   -10800.00
02210              14.00   -11000.00
02211              32.00   -11000.00
02212              28.00   -10800.00
02213              28.00   -11200.00
02214              30.00   -11000.00
02215              24.00   -11200.00
02216              20.00   -11200.00
02217              28.00   -11200.00
02218              26.00   -11200.00
02219              24.00   -11400.00
02220              34.00   -11200.00
02221              28.00   -11400.00
02222              20.00   -11200.00
02223              22.00   -11200.00
02224              22.00   -11400.00
02225              28.00   -11400.00
02226              32.00   -11200.00
02227              26.00   -11400.00
02228              26.00   -11200.00
02229              24.00   -11400.00
02230              22.00   -11200.00
02231              22.00   -11200.00
02232              28.00   -11200.00
02233              28.00   -11200.00
02234              24.00   -11200.00
02235              24.00   -11000.00
02236              20.00   -11000.00
02237              20.00   -11200.00
02238              24.00   -10800.00
02239              26.00   -10800.00
02240              24.00   -10800.00
02241              24.00   -10800.00
02242              22.00   -10800.00
02243              16.00   -10800.00
02244              20.00   -10800.00
02245              24.00   -10600.00
02246              20.00   -10600.00
02247              24.00   -10600.00
02248              26.00   -10400.00
02249              14.00   -10400.00
02250              16.00   -10400.00
02251              20.00   -10400.00
02252              20.00   -10200.00
02253              24.00   -10200.00
02254              22.00   -10000.00
02255              16.00    -9800.00
02256              14.00    -9800.00
02257              16.00    -9800.00
02258              16.00    -9600.00
02259              20.00    -9600.00
02260              22.00    -9600.00
02261              16.00    -9200.00
02262              16.00    -9200.00
02263              14.00    -9200.00
02264              14.00    -9000.00
02265              16.00    -8800.00
02266              20.00    -8800.00
02267              20.00    -8800.00
02268              14.00    -8400.00
02269              14.00    -8400.00
02270              12.00    -8200.00
02271              14.00    -8200.00
02272              14.00    -8000.00
02273              16.00    -8000.00
02274              16.00    -7600.00
02275              12.00    -7600.00
02276               8.00    -7400.00
02277               8.00    -7400.00
02278              12.00    -7200.00
02279              12.00    -7200.00
02280              12.00    -7000.00
02281              12.00    -6800.00
02282               8.00    -6600.00
02283               6.00    -6600.00
02284               8.00    -6200.00
02285              10.00    -6000.00
02286              12.00    -6000.00
02287              12.00    -5800.00
02288               8.00    -5600.00
02289               6.00    -5400.00
02290               6.00    -5200.00
02291               6.00    -5200.00
02292               8.00    -5000.00
02293               6.00    -4800.00
02294               6.00    -4800.00
02295               4.00    -4600.00
02296               4.00    -4400.00
02297               2.00    -4200.00
02298               4.00    -4000.00
02299               6.00    -3800.00
02300               6.00    -3600.00
02301               4.00    -3600.00
02302               0.00    -3400.00
02303               0.00    -3200.00
02304               0.00    -3000.00
02305               0.00    -2800.00
02306               0.00    -2600.00
02307               0.00    -2400.00
02308              -2.00    -2400.00
02309              -4.00    -2000.00
02310              -4.00    -2000.00
02311              -4.00    -1600.00
02312               0.00    -1600.00
02313              -2.00    -1200.00
02314              -2.00    -1200.00
02315              -4.00    -1000.00
02316              -6.00     -800.00
02317              -8.00     -800.00
02318              -6.00     -400.00
02319              -4.00     -200.00
02320              -2.00     -200.00
02321              -4.00        0.00
02322              -2.00      200.00
02323              22.00      400.00
02324              12.00      600.00
02325             -18.00      800.00
02326             -20.00     1000.00
02327               2.00     1200.00
02328               6.00     1200.00
02329              28.00     1600.00
02330             216.00     1600.00
02331             228.00     2000.00
02332            -248.00     2200.00
02333            -248.00     2400.00
02334             -58.00     2200.00
02335             146.00     2400.00
02336             252.00     2800.00
02337             250.00     2800.00
02338            -248.00     3000.00
02339              36.00     3200.00
02340             252.00     3200.00
02341            -248.00     3800.00
02342            -248.00     3600.00
02343             252.00     3800.00
02344            -234.00     4600.00
02345             -64.00     3800.00
02346             214.00     4600.00
02347            -248.00     5200.00
02348             140.00     4400.00
02349             186.00     5200.00
02350            -248.00     5600.00
02351              44.00     4800.00
02352              36.00     6000.00
02353             -80.00     6000.00
02354              54.00     5400.00
02355              22.00     6400.00
02356             -88.00     6200.00
02357            -130.00     6000.00
02358             160.00     7000.00
02359               8.00     6400.00
02360            -216.00     6800.00
02361             144.00     7000.00
02362             -36.00     7200.00
02363            -136.00     7400.00
02364             108.00     7400.00
02365             -64.00     7800.00
02366             -36.00     7400.00
02367              28.00     7800.00
02368             -78.00     8000.00
02369             -36.00     7600.00
02370              24.00     8400.00
02371               8.00     8200.00
02372             -90.00     8200.00
02373              -8.00     8600.00
02374               6.00     8400.00
02375             -90.00     8600.00
02376              40.00     8800.00
02377             -18.00     9000.00
02378             -96.00     9200.00
02379              28.00     9200.00
02380             -10.00     9600.00
02381             -72.00     9200.00
02382             -18.00     9400.00
02383              -4.00     9600.00
02384             -42.00     9600.00
02385             -24.00    10000.00
02386             -16.00     9800.00
02387             -52.00    10000.00
02388             -10.00    10000.00
02389             -10.00    10000.00
02390             -62.00    10200.00
02391             -18.00    10200.00
02392             -10.00    10400.00
02393             -50.00    10400.00
02394             -20.00    10400.00
02395             -20.00    10400.00
02396             -56.00    10800.00
02397             -20.00    10800.00
02398              -2.00    10800.00
02399             -48.00    10800.00
02400             -36.00    10800.00
02401             -14.00    11000.00
02402             -40.00    11000.00
02403             -26.00    11000.00
02404             -10.00    11000.00
02405             -38.00    11000.00
02406             -34.00    11200.00
02407             -20.00    11200.00
02408             -42.00    11200.00
02409             -28.00    11200.00
02410             -18.00    11200.00
02411             -34.00    11200.00
02412             -28.00    11200.00
02413             -20.00    11200.00
02414             -40.00    11200.00
02415             -32.00    11200.00
02416             -16.00    11200.00
02417             -30.00    11200.00
02418             -32.00    11400.00
02419             -20.00    11200.00
02420             -34.00    11200.00
02421             -34.00    11200.00
02422             -20.00    11200.00
02423             -28.00    11000.00
02424             -32.00    11000.00
02425             -18.00    11000.00
02426             -26.00    11000.00
02427             -34.00    11000.00
02428             -26.00    11000.00
02429             -28.00    11000.00
02430             -28.00    11000.00
02431             -20.00    11000.00
02432             -26.00    10800.00
02433             -28.00    10800.00
02434             -24.00    10800.00
02435             -28.00    10600.00
02436             -30.00    10600.00
02437             -20.00    10400.00
02438             -26.00    10400.00
02439             -32.00    10400.00
02440             -26.00    10200.00
02441             -26.00    10200.00
02442             -32.00    10000.00
02443             -20.00    10000.00
02444             -24.00    10000.00
02445             -24.00    10000.00
02446             -24.00     9600.00
02447             -26.00     9600.00
02448             -28.00     9600.00
02449             -24.00     9400.00
02450             -20.00     9400.00
02451             -24.00     9200.00
02452             -20.00     9200.00
02453             -26.00     9200.00
02454             -26.00     9000.00
02455             -20.00     9000.00
02456             -24.00     8800.00
02457             -24.00     8600.00
02458             -20.00     8600.00
02459             -20.00     8400.00
02460             -26.00     8400.00
02461             -24.00     8400.00
02462             -20.00     8000.00
02463             -20.00     8000.00
02464             -18.00     8000.00
02465             -18.00     7800.00
02466             -20.00     7600.00
02467             -20.00     7400.00
02468             -18.00     7400.00
02469             -20.00     7200.00
02470             -14.00     7000.00
02471             -18.00     7000.00
02472             -16.00     6600.00
02473             -12.00     6600.00
02474             -24.00     6400.00
02475             -20.00     6200.00
02476             -10.00     6000.00
02477             -16.00     6000.00
02478             -16.00     5800.00
02479             -12.00     5600.00
02480             -12.00     5400.00
02481             -12.00     5400.00
02482             -12.00     5200.00
02483              -8.00     5200.00
02484             -12.00     4800.00
02485             -10.00     4800.00
02486              -8.00     4600.00
02487             -10.00     4400.00
02488             -12.00     4000.00
02489             -12.00     4000.00
02490              -8.00     3800.00
02491              -6.00     3600.00
02492              -4.00     3400.00
02493             -10.00     3200.00
02494             -10.00     3200.00
02495              -4.00     3000.00
02496              -4.00     2600.00
02497              -6.00     2400.00
02498              -2.00     2400.00
02499              -6.00     2200.00
02500              -4.00     2200.00
02501              -4.00     1800.00
02502              -8.00     1600.00
02503              -6.00     1400.00
02504              -2.00     1200.00
02505              -4.00     1200.00
02506              -2.00     1000.00
02507              -2.00      800.00
02508              -4.00      600.00
02509              -4.00      400.00
02510              -4.00      200.00
02511              -2.00     -200.00
02512               8.00     -200.00
02513              14.00     -200.00
02514              24.00     -400.00
02515              24.00     -600.00
02516             -10.00    -1000.00
02517             -22.00    -1000.00
02518               8.00    -1400.00
02519              24.00    -1400.00
02520              20.00    -1600.00
02521              64.00    -1600.00
02522             246.00    -1800.00
02523             148.00    -2600.00
02524            -248.00    -2600.00
02525            -248.00    -2800.00
02526              44.00    -2800.00
02527             116.00    -2600.00
02528             252.00    -2600.00
02529             252.00    -3600.00
02530            -248.00    -3200.00
02531            -204.00    -3200.00
02532             252.00    -4400.00
02533             -42.00    -3400.00
02534            -248.00    -4000.00
02535             202.00    -4800.00
02536              72.00    -3800.00
02537              16.00    -4600.00
02538              56.00    -5200.00
02539            -194.00    -4400.00
02540              44.00    -5200.00
02541             204.00    -5200.00
02542             -18.00    -5200.00
02543             -98.00    -5600.00
02544             -18.00    -5800.00
02545             108.00    -5800.00
02546              74.00    -6200.00
02547             -10.00    -6000.00
02548             -58.00    -6400.00
02549             -24.00    -6400.00
02550             144.00    -6800.00
02551              54.00    -6800.00
02552            -104.00    -6800.00
02553              22.00    -7200.00
02554              70.00    -7200.00
02555              28.00    -7400.00
02556               8.00    -7600.00
02557              -4.00    -7600.00
02558              38.00    -8000.00
02559              36.00    -8000.00
02560              12.00    -8000.00
02561              -8.00    -8400.00
02562              22.00    -8400.00
02563              68.00    -8400.00
02564              22.00    -8600.00
02565              -8.00    -8800.00
02566              10.00    -8800.00
02567              28.00    -9000.00
02568              46.00    -9200.00
02569              26.00    -9200.00
02570              -2.00    -9200.00
02571              20.00    -9600.00
02572              44.00    -9600.00
02573              20.00    -9600.00
02574               0.00    -9800.00
02575              36.00    -9800.00
02576              44.00    -9800.00
02577              12.00   -10000.00
02578              16.00   -10000.00
02579              22.00   -10000.00
02580              22.00   -10400.00
02581              36.00   -10200.00
02582              28.00   -10400.00
02583              14.00   -10400.00
02584              24.00   -10400.00
02585              24.00   -10600.00
02586              16.00   -10600.00
02587              24.00   -10600.00
02588              22.00   -10800.00
02589              20.00   -10800.00
02590              36.00   -10800.00
02591              30.00   -10800.00
02592              12.00   -11000.00
02593              22.00   -11200.00
02594              30.00   -11000.00
02595              24.00   -11200.00
02596              30.00   -11000.00
02597              32.00   -11200.00
02598              20.00   -11200.00
02599              16.00   -11200.00
02600              22.00   -11400.00
02601              24.00   -11200.00
02602              30.00   -11200.00
02603              32.00   -11200.00
02604              22.00   -11400.00
02605              20.00   -11400.00
02606              22.00   -11200.00
02607              24.00   -11200.00
02608              28.00   -11400.00
02609              30.00   -11200.00
02610              24.00   -11200.00
02611              24.00   -11400.00
02612              24.00   -11400.00
02613              20.00   -11200.00
02614              24.00   -11200.00
02615              32.00   -11200.00
02616              28.00   -11200.00
02617              24.00   -11200.00
02618              22.00   -11000.00
02619              20.00   -11200.00
02620              22.00   -11000.00
02621              28.00   -11000.00
02622              28.00   -11000.00
02623              24.00   -10800.00
02624              24.00   -10800.00
02625              20.00   -10800.00
02626              20.00   -10800.00
02627              22.00   -10600.00
02628              22.00   -10600.00
02629              24.00   -10600.00
02630              28.00   -10600.00
02631              20.00   -10400.00
02632              18.00   -10400.00
02633              20.00   -10200.00
02634              20.00   -10200.00
02635              22.00   -10200.00
02636              22.00   -10000.00
02637              20.00   -10000.00
02638              16.00    -9800.00
02639              16.00    -9800.00
02640              18.00    -9600.00
02641              18.00    -9600.00
02642              22.00    -9600.00
02643              20.00    -9600.00
02644              14.00    -9200.00
02645              14.00    -9200.00
02646              14.00    -9000.00
02647              14.00    -9000.00
02648              16.00    -8800.00
02649              16.00    -8800.00
02650              14.00    -8800.00
02651              14.00    -8400.00
02652              12.00    -8400.00
02653              12.00    -8200.00
02654              12.00    -8200.00
02655              14.00    -8000.00
02656              14.00    -7800.00
02657              14.00    -7600.00
02658              12.00    -7600.00
02659               8.00    -7600.00
02660               8.00    -7400.00
02661              12.00    -7200.00
02662              12.00    -7200.00
02663              14.00    -6800.00
02664              12.00    -6600.00
02665               6.00    -6600.00
02666               6.00    -6400.00
02667               8.00    -6200.00
02668               8.00    -6000.00
02669              12.00    -5800.00
02670              12.00    -5800.00
02671               6.00    -5800.00
02672               6.00    -5400.00
02673               6.00    -5200.00
02674               6.00    -5200.00
02675               6.00    -5000.00
02676               6.00    -4800.00
02677               6.00    -4800.00
02678               6.00    -4400.00
02679               4.00    -4200.00
02680               4.00    -4200.00
02681               4.00    -4000.00
02682               6.00    -3800.00
02683               4.00    -3600.00
02684               4.00    -3400.00
02685               0.00    -3200.00
02686              -2.00    -3200.00
02687               0.00    -2800.00
02688               0.00    -2800.00
02689               4.00    -2600.00
02690               2.00    -2400.00
02691              -2.00    -2400.00
02692              -4.00    -2000.00
02693              -4.00    -1800.00
02694              -4.00    -1600.00
02695               0.00    -1600.00
02696               0.00    -1200.00
02697              -4.00    -1200.00
02698              -6.00    -1000.00
02699              -8.00    -1000.00
02700              -8.00     -600.00
02701              -4.00     -400.00
02702              -4.00     -200.00
02703              -4.00        0.00
02704              -4.00        0.00
02705               6.00      200.00
02706              24.00      400.00
02707               0.00      600.00
02708             -24.00      800.00
02709             -12.00     1000.00
02710               6.00     1200.00
02711               8.00     1200.00
02712              70.00     1600.00
02713             252.00     1800.00
02714              68.00     2200.00
02715            -248.00     2200.00
02716            -248.00     2400.00
02717              34.00     2400.00
02718             252.00     2600.00
02719             252.00     2800.00
02720            -248.00     2800.00
02721            -248.00     3200.00
02722             252.00     3200.00
02723             252.00     3600.00
02724            -248.00     4000.00
02725              92.00     3600.00
02726             252.00     4000.00
02727            -248.00     4400.00
02728             176.00     3800.00
02729               6.00     5000.00
02730            -248.00     5000.00
02731             252.00     4400.00
02732             -28.00     5600.00
02733            -212.00     5200.00
02734             112.00     4800.00
02735             -42.00     6200.00
02736             -34.00     5600.00
02737              54.00     5600.00
02738              -4.00     6400.00
02739            -136.00     5800.00
02740             -50.00     6200.00
02741             198.00     6800.00
02742            -136.00     6400.00
02743            -104.00     6800.00
02744             160.00     6800.00
02745            -156.00     7400.00
02746             -28.00     7000.00
02747              86.00     7600.00
02748             -96.00     7800.00
02749              16.00     7400.00
02750             -14.00     8200.00
02751             -82.00     8000.00
02752             -10.00     7800.00
02753              36.00     8400.00
02754             -26.00     8000.00
02755             -86.00     8400.00
02756              24.00     8600.00
02757             -42.00     8800.00
02758             -52.00     8800.00
02759              58.00     9000.00
02760             -72.00     9200.00
02761             -58.00     9200.00
02762              40.00     9200.00
02763             -44.00     9600.00
02764             -58.00     9200.00
02765              -2.00     9600.00
02766             -18.00     9600.00
02767             -44.00     9600.00
02768             -12.00     9800.00
02769             -28.00    10000.00
02770             -50.00    10000.00
02771               6.00    10000.00
02772             -32.00    10000.00
02773             -58.00    10200.00
02774               0.00    10200.00
02775             -26.00    10400.00
02776             -44.00    10400.00
02777             -10.00    10400.00
02778             -36.00    10800.00
02779             -52.00    10600.00
02780              -2.00    10600.00
02781             -14.00    10800.00
02782             -54.00    10600.00
02783             -26.00    10800.00
02784             -22.00    11000.00
02785             -44.00    11000.00
02786             -18.00    11000.00
02787             -20.00    11000.00
02788             -44.00    11000.00
02789             -26.00    11000.00
02790             -24.00    11200.00
02791             -44.00    11000.00
02792             -24.00    11200.00
02793             -22.00    11200.00
02794             -36.00    11200.00
02795             -20.00    11200.00
02796             -28.00    11200.00
02797             -42.00    11200.00
02798             -26.00    11200.00
02799             -20.00    11200.00
02800             -36.00    11200.00
02801             -26.00    11200.00
02802             -24.00    11200.00
02803             -40.00    11200.00
02804             -28.00    11200.00
02805             -22.00    11200.00
02806             -34.00    11200.00
02807             -28.00    11000.00
02808             -20.00    11000.00
02809             -30.00    11000.00
02810             -32.00    11000.00
02811             -26.00    11000.00
02812             -28.00    11000.00
02813             -26.00    10800.00
02814             -20.00    11000.00
02815             -28.00    10800.00
02816             -32.00    10600.00
02817             -26.00    10800.00
02818             -28.00    10400.00
02819             -26.00    10400.00
02820             -20.00    10400.00
02821             -28.00    10400.00
02822             -26.00    10400.00
02823             -26.00    10200.00
02824             -28.00    10400.00
02825             -26.00    10200.00
02826             -20.00    10000.00
02827             -26.00    10000.00
02828             -24.00    10000.00
02829             -26.00     9600.00
02830             -30.00     9600.00
02831             -26.00     9600.00
02832             -20.00     9400.00
02833             -26.00     9400.00
02834             -24.00     9200.00
02835             -20.00     9200.00
02836             -26.00     9000.00
02837             -20.00     9000.00
02838             -24.00     8800.00
02839             -26.00     8800.00
02840             -22.00     8600.00
02841             -16.00     8600.00
02842             -20.00     8400.00
02843             -26.00     8400.00
02844             -22.00     8200.00
02845             -20.00     8000.00
02846             -18.00     8000.00
02847             -16.00     7800.00
02848             -20.00     7600.00
02849             -20.00     7600.00
02850             -26.00     7400.00
02851             -18.00     7200.00
02852             -16.00     7200.00
02853             -16.00     6800.00
02854             -18.00     6800.00
02855             -12.00     6600.00
02856             -18.00     6400.00
02857             -20.00     6400.00
02858             -20.00     6200.00
02859             -14.00     6000.00
02860             -16.00     5800.00
02861             -16.00     5800.00
02862             -12.00     5600.00
02863             -16.00     5600.00
02864             -16.00     5200.00
02865             -12.00     5200.00
02866             -10.00     4800.00
02867             -10.00     4600.00
02868             -10.00     4600.00
02869             -10.00     4400.00
02870             -12.00     4200.00
02871             -12.00     4000.00
02872             -10.00     4000.00
02873              -8.00     3600.00
02874              -4.00     3600.00
02875              -8.00     3600.00
02876             -10.00     3200.00
02877              -8.00     3000.00
02878              -4.00     3000.00
02879              -4.00     2800.00
02880              -4.00     2400.00
02881              -4.00     2400.00
02882              -4.00     2200.00
02883              -4.00     2000.00
02884              -4.00     1800.00
02885              -6.00     1600.00
02886              -4.00     1400.00
02887               2.00     1200.00
02888               0.00     1200.00
02889              -4.00     1000.00
02890              -4.00      600.00
02891               0.00      400.00
02892              -2.00      400.00
02893               2.00        0.00
02894               2.00        0.00
02895               4.00     -400.00
02896              12.00     -400.00
02897              24.00     -400.00
02898              20.00     -800.00
02899              -8.00     -800.00
02900             -10.00    -1000.00
02901              20.00    -1200.00
02902              20.00    -1400.00
02903              20.00    -1600.00
02904             120.00    -1600.00
02905             252.00    -2000.00
02906             -14.00    -2600.00
02907            -248.00    -2600.00
02908            -248.00    -2800.00
02909             120.00    -2800.00
02910             130.00    -2600.00
02911             252.00    -2800.00
02912              36.00    -3600.00
02913            -248.00    -3000.00
02914             214.00    -3600.00
02915             252.00    -4200.00
02916            -248.00    -3400.00
02917            -184.00    -4400.00
02918             246.00    -4400.00
02919             -18.00    -4000.00
02920              84.00    -5000.00
02921             -40.00    -5000.00
02922            -172.00    -4400.00
02923             148.00    -5400.00
02924             148.00    -5200.00
02925             -70.00    -5200.00
02926             -82.00    -5800.00
02927              30.00    -5800.00
02928             116.00    -5800.00
02929              36.00    -6000.00
02930             -24.00    -6200.00
02931             -66.00    -6400.00
02932              28.00    -6600.00
02933             156.00    -6800.00
02934             -28.00    -6600.00
02935             -82.00    -7200.00
02936              60.00    -7200.00
02937              56.00    -7200.00
02938              22.00    -7600.00
02939              -4.00    -7600.00
02940               8.00    -7600.00
02941              44.00    -8000.00
02942              24.00    -8000.00
02943               6.00    -8200.00
02944              -4.00    -8200.00
02945              44.00    -8400.00
02946              60.00    -8600.00
02947               0.00    -8600.00
02948              -4.00    -9000.00
02949              20.00    -8800.00
02950              36.00    -9000.00
02951              44.00    -9200.00
02952              16.00    -9200.00
02953               4.00    -9400.00
02954              28.00    -9600.00
02955              42.00    -9600.00
02956              10.00    -9600.00
02957               8.00    -9800.00
02958              38.00    -9800.00
02959              30.00   -10000.00
02960              16.00   -10200.00
02961              20.00   -10000.00
02962              16.00   -10200.00
02963              24.00   -10400.00
02964              32.00   -10400.00
02965              22.00   -10400.00
02966              20.00   -10400.00
02967              30.00   -10600.00
02968              22.00   -10600.00
02969              16.00   -10800.00
02970              24.00   -10600.00
02971              22.00   -10800.00
02972              30.00   -10800.00
02973              36.00   -10800.00
02974              16.00   -10800.00
02975              10.00   -10800.00
02976              28.00   -11200.00
02977              28.00   -11200.00
02978              20.00   -11200.00
02979              32.00   -11200.00
02980              26.00   -11200.00
02981              12.00   -11200.00
02982              22.00   -11400.00
02983              28.00   -11200.00
02984              22.00   -11200.00
02985              28.00   -11400.00
02986              28.00   -11200.00
02987              20.00   -11400.00
02988              22.00   -11200.00
02989              20.00   -11200.00
02990              20.00   -11400.00
02991              32.00   -11200.00
02992              28.00   -11200.00
02993              22.00   -11400.00
02994              22.00   -11200.00
02995              20.00   -11200.00
02996              20.00   -11200.00
02997              28.00   -11400.00
02998              28.00   -11200.00
02999              24.00   -11200.00
03000              24.00   -11200.00
03001              22.00   -11200.00
03002              16.00   -11200.00
03003              22.00   -11000.00
03004              26.00   -10800.00
03005              28.00   -11000.00
03006              28.00   -10800.00
03007              22.00   -10800.00
03008              16.00   -10600.00
03009              22.00   -10600.00
03010              22.00   -10600.00
03011              22.00   -10600.00
03012              26.00   -10600.00
03013              24.00   -10400.00
03014              16.00   -10400.00
03015              20.00   -10400.00
03016              20.00   -10400.00
03017              20.00   -10200.00
03018              24.00   -10000.00
03019              24.00   -10000.00
03020              16.00    -9800.00
03021              20.00    -9800.00
03022              16.00    -9800.00
03023              16.00    -9600.00
03024              20.00    -9600.00
03025              22.00    -9400.00
03026              16.00    -9600.00
03027              16.00    -9200.00
03028              12.00    -9200.00
03029              14.00    -9200.00
03030              16.00    -9000.00
03031              16.00    -8800.00
03032              16.00    -8800.00
03033              14.00    -8800.00
03034              14.00    -8600.00
03035              12.00    -8400.00
03036               8.00    -8200.00
03037              14.00    -8200.00
03038              14.00    -8000.00
03039              14.00    -7800.00
03040              12.00    -7600.00
03041              12.00    -7600.00
03042               8.00    -7400.00
03043              10.00    -7400.00
03044              12.00    -7200.00
03045              12.00    -7200.00
03046              12.00    -6800.00
03047               6.00    -6800.00
03048               6.00    -6400.00
03049               6.00    -6400.00
03050               6.00    -6200.00
03051              12.00    -6000.00
03052              12.00    -6000.00
03053               6.00    -5800.00
03054               6.00    -5400.00
03055               4.00    -5400.00
03056               6.00    -5200.00
03057               6.00    -5200.00
03058               6.00    -5000.00
03059               6.00    -4800.00
03060               4.00    -4600.00
03061               2.00    -4400.00
03062               4.00    -4200.00
03063               4.00    -4000.00
03064               6.00    -4000.00
03065               4.00    -3800.00
03066               4.00    -3600.00
03067               2.00    -3400.00
03068               0.00    -3200.00
03069              -2.00    -3000.00
03070               0.00    -2800.00
03071               4.00    -2800.00
03072               2.00    -2600.00
03073               2.00    -2400.00
03074               0.00    -2200.00
03075              -4.00    -2000.00
03076              -2.00    -1800.00
03077              -2.00    -1600.00
03078              -4.00    -1400.00
03079              -2.00    -1200.00
03080              -2.00    -1200.00
03081              -4.00     -800.00
03082              -8.00     -800.00
03083              -4.00     -400.00
03084              -4.00     -200.00
03085              -4.00     -200.00
03086              -2.00        0.00
03087              -2.00      200.00
03088              12.00      400.00
03089              20.00      600.00
03090              -8.00      600.00
03091             -24.00     1000.00
03092              -4.00     1000.00
03093               8.00     1200.00
03094              12.00     1400.00
03095             136.00     1600.00
03096             252.00     2000.00
03097            -146.00     2200.00
03098            -248.00     2400.00
03099            -204.00     2200.00
03100              86.00     2400.00
03101             252.00     2800.00
03102             252.00     2800.00
03103            -248.00     2800.00
03104            -248.00     3400.00
03105             252.00     3200.00
03106             102.00     3800.00
03107            -248.00     3800.00
03108             252.00     3600.00
03109              88.00     4600.00
03110            -248.00     4200.00
03111             252.00     4200.00
03112            -234.00     5200.00
03113             -92.00     4600.00
03114             252.00     4800.00
03115            -210.00     5600.00
03116             -76.00     4800.00
03117             100.00     5600.00
03118             -88.00     6200.00
03119              18.00     5400.00
03120              42.00     6000.00
03121             -42.00     6400.00
03122            -156.00     5800.00
03123              64.00     6800.00
03124             132.00     6800.00
03125            -228.00     6600.00
03126              38.00     7000.00
03127              86.00     7200.00
03128            -186.00     7400.00
03129              70.00     7000.00
03130              10.00     7800.00
03131             -88.00     7600.00
03132              42.00     7600.00
03133             -50.00     8400.00
03134             -60.00     7800.00
03135              10.00     8000.00
03136              24.00     8400.00
03137             -64.00     8200.00
03138             -50.00     8600.00
03139              32.00     8800.00
03140             -76.00     8800.00
03141              -8.00     8800.00
03142              32.00     9000.00
03143            -100.00     9200.00
03144              -8.00     9200.00
03145              28.00     9400.00
03146             -70.00     9400.00
03147             -36.00     9400.00
03148               6.00     9800.00
03149             -28.00     9600.00
03150             -38.00     9600.00
03151              -8.00    10000.00
03152             -44.00    10000.00
03153             -32.00    10000.00
03154               6.00    10200.00
03155             -52.00    10200.00
03156             -40.00    10200.00
03157               0.00    10200.00
03158             -42.00    10400.00
03159             -36.00    10400.00
03160             -10.00    10400.00
03161             -48.00    10600.00
03162             -40.00    10600.00
03163               4.00    10800.00
03164             -32.00    10800.00
03165             -52.00    10800.00
03166             -16.00    10800.00
03167             -32.00    11000.00
03168             -42.00    10800.00
03169             -14.00    11000.00
03170             -28.00    11000.00
03171             -42.00    11200.00
03172             -20.00    11000.00
03173             -32.00    11200.00
03174             -44.00    11200.00
03175             -18.00    11200.00
03176             -26.00    11200.00
03177             -40.00    11200.00
03178             -18.00    11200.00
03179             -34.00    11200.00
03180             -44.00    11200.00
03181             -18.00    11000.00
03182             -26.00    11200.00
03183             -36.00    11200.00
03184             -18.00    11200.00
03185             -28.00    11200.00
03186             -40.00    11000.00
03187             -22.00    11000.00
03188             -26.00    11200.00
03189             -36.00    11000.00
03190             -20.00    11000.00
03191             -26.00    11000.00
03192             -36.00    11000.00
03193             -26.00    11000.00
03194             -26.00    11000.00
03195             -34.00    10800.00
03196             -20.00    10800.00
03197             -24.00    10800.00
03198             -32.00    10800.00
03199             -26.00    10800.00
03200             -28.00    10600.00
03201             -30.00    10400.00
03202             -20.00    10400.00
03203             -20.00    10600.00
03204             -32.00    10400.00
03205             -24.00    10400.00
03206             -24.00    10400.00
03207             -32.00    10200.00
03208             -20.00    10200.00
03209             -22.00    10000.00
03210             -28.00    10000.00
03211             -26.00    10000.00
03212             -24.00     9800.00
03213             -28.00     9600.00
03214             -26.00     9600.00
03215             -22.00     9600.00
03216             -26.00     9400.00
03217             -24.00     9200.00
03218             -20.00     9200.00
03219             -26.00     9200.00
03220             -24.00     8800.00
03221             -20.00     9000.00
03222             -28.00     8600.00
03223             -20.00     8600.00
03224             -18.00     8600.00
03225             -24.00     8400.00
03226             -24.00     8400.00
03227             -20.00     8000.00
03228             -20.00     8000.00
03229             -20.00     7800.00
03230             -16.00     7800.00
03231             -20.00     7600.00
03232             -20.00     7600.00
03233             -20.00     7200.00
03234             -20.00     7200.00
03235             -18.00     7000.00
03236             -18.00     6800.00
03237             -18.00     6800.00
03238             -14.00     6800.00
03239             -18.00     6400.00
03240             -20.00     6400.00
03241             -18.00     6200.00
03242             -12.00     6000.00
03243             -16.00     6000.00
03244             -14.00     5800.00
03245             -16.00     5600.00
03246             -16.00     5400.00
03247             -16.00     5200.00
03248             -10.00     5200.00
03249             -12.00     4800.00
03250             -10.00     4800.00
03251             -10.00     4600.00
03252             -12.00     4400.00
03253             -12.00     4200.00
03254             -10.00     4000.00
03255              -8.00     3800.00
03256              -8.00     3800.00
03257              -4.00     3400.00
03258              -6.00     3200.00
03259             -10.00     3000.00
03260              -6.00     2800.00
03261              -8.00     2800.00
03262              -4.00     2400.00
03263              -2.00     2400.00
03264              -4.00     2200.00
03265              -6.00     2200.00
03266              -4.00     2000.00
03267              -4.00     1600.00
03268              -4.00     1600.00
03269              -4.00     1400.00
03270               0.00     1200.00
03271               0.00     1000.00
03272              -2.00      800.00
03273              -2.00      600.00
03274               0.00      400.00
03275               0.00        0.00
03276               4.00        0.00
03277              10.00     -200.00
03278              14.00     -200.00
03279              -4.00     -400.00
03280              22.00     -600.00
03281              24.00     -800.00
03282             -24.00    -1000.00
03283             -26.00    -1200.00
03284              28.00    -1200.00
03285              70.00    -1200.00
03286              46.00    -1600.00
03287             176.00    -1600.00
03288             228.00    -2400.00
03289            -186.00    -2400.00
03290            -248.00    -2800.00
03291            -122.00    -2800.00
03292             124.00    -2600.00
03293             238.00    -2600.00
03294             252.00    -3200.00
03295            -248.00    -3600.00
03296            -248.00    -3000.00
03297             252.00    -4200.00
03298             252.00    -4000.00
03299            -248.00    -3400.00
03300              36.00    -4600.00
03301             180.00    -4200.00
03302             -20.00    -4200.00
03303             110.00    -5200.00
03304            -154.00    -4400.00
03305             -92.00    -5000.00
03306             208.00    -5600.00
03307              68.00    -5200.00
03308             -90.00    -5600.00
03309             -60.00    -5800.00
03310              64.00    -5800.00
03311             108.00    -6000.00
03312              20.00    -6400.00
03313             -48.00    -6400.00
03314             -74.00    -6400.00
03315              96.00    -6600.00
03316             126.00    -6800.00
03317             -84.00    -6800.00
03318             -36.00    -7200.00
03319              72.00    -7200.00
03320              44.00    -7200.00
03321              14.00    -7600.00
03322              -8.00    -7600.00
03323              20.00    -7800.00
03324              40.00    -8000.00
03325              16.00    -8000.00
03326               0.00    -8200.00
03327               4.00    -8200.00
03328              58.00    -8200.00
03329              38.00    -8400.00
03330             -12.00    -8800.00
03331               8.00    -8800.00
03332              28.00    -9000.00
03333              42.00    -9000.00
03334              36.00    -9000.00
03335               6.00    -9200.00
03336               6.00    -9400.00
03337              34.00    -9400.00
03338              30.00    -9600.00
03339               0.00    -9600.00
03340              22.00    -9600.00
03341              46.00    -9800.00
03342              26.00   -10000.00
03343              16.00   -10000.00
03344              20.00   -10200.00
03345              22.00   -10000.00
03346              30.00   -10400.00
03347              32.00   -10200.00
03348              12.00   -10400.00
03349              22.00   -10600.00
03350              30.00   -10600.00
03351              20.00   -10600.00
03352              20.00   -10600.00
03353              24.00   -10600.00
03354              24.00   -10800.00
03355              36.00   -11200.00
03356              32.00   -10800.00
03357              12.00   -11000.00
03358              16.00   -11200.00
03359              30.00   -11200.00
03360              22.00   -11000.00
03361              26.00   -11200.00
03362              30.00   -11200.00
03363              22.00   -11200.00
03364              18.00   -11200.00
03365              24.00   -11400.00
03366              24.00   -11200.00
03367              24.00   -11200.00
03368              30.00   -11200.00
03369              28.00   -11400.00
03370              18.00   -11200.00
03371              20.00   -11400.00
03372              22.00   -11400.00
03373              28.00   -11400.00
03374              30.00   -11200.00
03375              28.00   -11400.00
03376              20.00   -11400.00
03377              22.00   -11200.00
03378              22.00   -11200.00
03379              20.00   -11200.00
03380              28.00   -11200.00
03381              28.00   -11200.00
03382              24.00   -11200.00
03383              22.00   -11200.00
03384              16.00   -11000.00
03385              16.00   -11200.00
03386              22.00   -11000.00
03387              24.00   -11000.00
03388              28.00   -11000.00
03389              24.00   -10800.00
03390              20.00   -10800.00
03391              20.00   -10800.00
03392              22.00   -10800.00
03393              22.00   -10600.00
03394              22.00   -10600.00
03395              24.00   -10600.00
03396              24.00   -10400.00
03397              16.00   -10400.00
03398              16.00   -10200.00
03399              22.00   -10400.00
03400              22.00   -10200.00
03401              22.00   -10000.00
03402              22.00   -10000.00
03403              20.00   -10000.00
03404              16.00    -9800.00
03405              16.00    -9600.00
03406              20.00    -9600.00
03407              22.00    -9600.00
03408              22.00    -9600.00
03409              20.00    -9200.00
03410              16.00    -9200.00
03411              16.00    -9000.00
03412              14.00    -9200.00
03413              18.00    -8800.00
03414              20.00    -8800.00
03415              16.00    -8800.00
03416              14.00    -8600.00
03417              12.00    -8400.00
03418               8.00    -8200.00
03419              14.00    -8200.00
03420              14.00    -8000.00
03421              16.00    -8000.00
03422              16.00    -8000.00
03423              12.00    -7600.00
03424               8.00    -7400.00
03425               8.00    -7400.00
03426               8.00    -7200.00
03427              14.00    -7200.00
03428              14.00    -7000.00
03429              12.00    -6800.00
03430               8.00    -6600.00
03431               2.00    -6600.00
03432               4.00    -6400.00
03433              12.00    -6000.00
03434              14.00    -6000.00
03435               8.00    -5800.00
03436               8.00    -5800.00
03437               0.00    -5600.00
03438               4.00    -5400.00
03439               8.00    -5200.00
03440               8.00    -5200.00
03441               6.00    -5000.00
03442               6.00    -4800.00
03443               4.00    -4600.00
03444               4.00    -4400.00
03445               0.00    -4200.00
03446               4.00    -4000.00
03447               4.00    -4000.00
03448               4.00    -3600.00
03449               4.00    -3600.00
03450               2.00    -3400.00
03451               0.00    -3200.00
03452               0.00    -3000.00
03453              -2.00    -2800.00
03454               4.00    -2800.00
03455               2.00    -2600.00
03456               0.00    -2400.00
03457              -2.00    -2200.00
03458              -2.00    -1800.00
03459              -4.00    -1800.00
03460              -2.00    -1600.00
03461               0.00    -1400.00
03462              -2.00    -1200.00
03463              -4.00    -1000.00
03464              -4.00    -1000.00
03465              -6.00     -800.00
03466              -4.00     -400.00
03467              -2.00     -200.00
03468              -4.00     -200.00
03469              -2.00        0.00
03470               4.00      200.00
03471              20.00      600.00
03472              14.00      600.00
03473             -12.00     1000.00
03474             -20.00     1000.00
03475               6.00     1200.00
03476              12.00     1200.00
03477              28.00     1400.00
03478             222.00     1800.00
03479             220.00     2200.00
03480            -248.00     2200.00
03481            -248.00     2400.00
03482             -54.00     2200.00
03483             150.00     2400.00
03484             252.00     2800.00
03485             236.00     2800.00
03486            -248.00     3000.00
03487              62.00     3200.00
03488             252.00     3200.00
03489            -248.00     4000.00
03490            -248.00     3400.00
03491             252.00     3800.00
03492            -248.00     4600.00
03493             -52.00     3800.00
03494             204.00     4600.00
03495            -248.00     5200.00
03496             150.00     4400.00
03497             172.00     5200.00
03498            -248.00     5600.00
03499              48.00     4800.00
03500              32.00     6000.00
03501             -80.00     6000.00
03502              50.00     5400.00
03503              22.00     6400.00
03504             -92.00     6000.00
03505            -130.00     6000.00
03506             166.00     6800.00
03507              -4.00     6400.00
03508            -210.00     6800.00
03509             144.00     7000.00
03510             -44.00     7000.00
03511            -130.00     7000.00
03512             110.00     7400.00
03513             -68.00     7600.00
03514             -34.00     7600.00
03515              24.00     7800.00
03516             -80.00     8000.00
03517             -34.00     7600.00
03518              26.00     8400.00
03519               6.00     8200.00
03520             -88.00     8400.00
03521              -4.00     8600.00
03522               2.00     8600.00
03523             -86.00     8800.00
03524              44.00     8800.00
03525             -20.00     9200.00
03526             -92.00     9200.00
03527              32.00     9000.00
03528             -10.00     9600.00
03529             -72.00     9200.00
03530             -14.00     9600.00
03531              -2.00     9600.00
03532             -42.00     9600.00
03533             -24.00     9600.00
03534             -14.00    10000.00
03535             -56.00    10000.00
03536             -10.00    10200.00
03537              -8.00    10000.00
03538             -64.00    10200.00
03539             -14.00    10400.00
03540              -8.00    10400.00
03541             -48.00    10400.00
03542             -18.00    10400.00
03543             -20.00    10800.00
03544             -56.00    10600.00
03545             -16.00    10600.00
03546              -2.00    10800.00
03547             -48.00    10800.00
03548             -36.00    10800.00
03549             -18.00    11000.00
03550             -42.00    11000.00
03551             -28.00    11000.00
03552             -10.00    11000.00
03553             -42.00    11000.00
03554             -34.00    11200.00
03555             -20.00    11000.00
03556             -42.00    11200.00
03557             -34.00    11200.00
03558             -18.00    11000.00
03559             -36.00    11200.00
03560             -28.00    11200.00
03561             -20.00    11200.00
03562             -42.00    11200.00
03563             -34.00    11200.00
03564             -16.00    11200.00
03565             -34.00    11200.00
03566             -32.00    11200.00
03567             -20.00    11200.00
03568             -36.00    11200.00
03569             -36.00    11200.00
03570             -20.00    11200.00
03571             -34.00    11000.00
03572             -32.00    11200.00
03573             -20.00    11200.00
03574             -32.00    11000.00
03575             -34.00    11000.00
03576             -26.00    11000.00
03577             -32.00    11000.00
03578             -28.00    11000.00
03579             -20.00    10800.00
03580             -28.00    10800.00
03581             -32.00    10800.00
03582             -24.00    10800.00
03583             -28.00    10400.00
03584             -28.00    10400.00
03585             -20.00    10400.00
03586             -28.00    10400.00
03587             -28.00    10400.00
03588             -20.00    10200.00
03589             -26.00    10400.00
03590             -28.00    10200.00
03591             -24.00    10200.00
03592             -22.00    10000.00
03593             -22.00    10000.00
03594             -24.00    10000.00
03595             -26.00     9800.00
03596             -26.00     9600.00
03597             -20.00     9600.00
03598             -20.00     9400.00
03599             -22.00     9400.00
03600             -20.00     9200.00
03601             -20.00     9200.00
03602             -24.00     9200.00
03603             -20.00     8800.00
03604             -24.00     8600.00
03605             -22.00     8600.00
03606             -16.00     8600.00
03607             -18.00     8400.00
03608             -24.00     8400.00
03609             -20.00     8400.00
03610             -20.00     8000.00
03611             -20.00     8000.00
03612             -18.00     7800.00
03613             -16.00     7800.00
03614             -20.00     7600.00
03615             -20.00     7400.00
03616             -20.00     7200.00
03617             -18.00     7400.00
03618             -16.00     6800.00
03619             -18.00     7000.00
03620             -18.00     6800.00
03621             -16.00     6600.00
03622             -18.00     6400.00
03623             -20.00     6200.00
03624             -16.00     6200.00
03625             -10.00     6000.00
03626             -14.00     5800.00
03627             -14.00     5600.00
03628             -12.00     5400.00
03629             -16.00     5200.00
03630             -12.00     5000.00
03631             -12.00     5200.00
03632             -12.00     4800.00
03633             -10.00     4600.00
03634             -10.00     4400.00
03635             -12.00     4400.00
03636             -12.00     4000.00
03637             -10.00     3800.00
03638              -6.00     3800.00
03639              -8.00     3600.00
03640              -8.00     3600.00
03641              -8.00     3200.00
03642             -10.00     3000.00
03643              -8.00     2800.00
03644              -8.00     2800.00
03645              -6.00     2400.00
03646              -2.00     2400.00
03647              -8.00     2200.00
03648              -4.00     2000.00
03649              -4.00     2000.00
03650              -4.00     1600.00
03651              -4.00     1400.00
03652               0.00     1200.00
03653              -2.00     1200.00
03654              -2.00     1000.00
03655              -4.00      600.00
03656              -2.00      600.00
03657               0.00      400.00
03658               0.00      400.00
03659               4.00        0.00
03660               6.00     -200.00
03661               6.00     -400.00
03662              22.00     -600.00
03663              24.00     -800.00
03664              -2.00     -800.00
03665             -10.00    -1000.00
03666               6.00    -1200.00
03667              22.00    -1200.00
03668              20.00    -1400.00
03669              72.00    -1600.00
03670             252.00    -1800.00
03671             142.00    -2600.00
03672            -248.00    -2600.00
03673            -248.00    -2800.00
03674              54.00    -2800.00
03675             120.00    -2600.00
03676             252.00    -2800.00
03677             252.00    -3600.00
03678            -248.00    -3200.00
03679            -188.00    -3200.00
03680             252.00    -4400.00
03681             -60.00    -3400.00
03682            -248.00    -4000.00
03683             204.00    -4600.00
03684              68.00    -3800.00
03685              20.00    -4800.00
03686              54.00    -5000.00
03687            -200.00    -4400.00
03688              46.00    -5200.00
03689             204.00    -5400.00
03690             -20.00    -5200.00
03691            -100.00    -5800.00
03692             -18.00    -5800.00
03693             104.00    -5800.00
03694              70.00    -6000.00
03695             -10.00    -6200.00
03696             -60.00    -6400.00
03697             -24.00    -6400.00
03698             144.00    -6800.00
03699              48.00    -6800.00
03700            -108.00    -7000.00
03701              22.00    -7200.00
03702              68.00    -7200.00
03703              28.00    -7400.00
03704               4.00    -7600.00
03705              -4.00    -7600.00
03706              38.00    -7800.00
03707              32.00    -8000.00
03708              12.00    -8200.00
03709              -8.00    -8200.00
03710              20.00    -8200.00
03711              68.00    -8400.00
03712              18.00    -8600.00
03713             -12.00    -8800.00
03714              12.00    -8800.00
03715              30.00    -9000.00
03716              44.00    -9200.00
03717              28.00    -9200.00
03718               4.00    -9200.00
03719              16.00    -9400.00
03720              44.00    -9400.00
03721              22.00    -9600.00
03722               4.00    -9800.00
03723              30.00    -9600.00
03724              38.00   -10000.00
03725              20.00   -10000.00
03726              22.00   -10200.00
03727              20.00   -10200.00
03728              22.00   -10400.00
03729              32.00   -10400.00
03730              28.00   -10400.00
03731              18.00   -10600.00
03732              28.00   -10400.00
03733              28.00   -10600.00
03734              16.00   -10600.00
03735              22.00   -10800.00
03736              24.00   -10800.00
03737              24.00   -10800.00
03738              38.00   -10800.00
03739              28.00   -11000.00
03740              10.00   -10800.00
03741              22.00   -11200.00
03742              28.00   -11200.00
03743              22.00   -11200.00
03744              28.00   -11000.00
03745              30.00   -11200.00
03746              18.00   -11200.00
03747              20.00   -11400.00
03748              24.00   -11200.00
03749              24.00   -11200.00
03750              28.00   -11200.00
03751              30.00   -11200.00
03752              20.00   -11400.00
03753              20.00   -11400.00
03754              22.00   -11200.00
03755              22.00   -11400.00
03756              24.00   -11400.00
03757              28.00   -11400.00
03758              24.00   -11400.00
03759              22.00   -11400.00
03760              24.00   -11400.00
03761              20.00   -11400.00
03762              22.00   -11200.00
03763              30.00   -11200.00
03764              26.00   -11200.00
03765              22.00   -11200.00
03766              22.00   -11200.00
03767              20.00   -11200.00
03768              20.00   -11000.00
03769              24.00   -10800.00
03770              24.00   -11000.00
03771              28.00   -10800.00
03772              24.00   -10800.00
03773              18.00   -10800.00
03774              20.00   -10800.00
03775              20.00   -10800.00
03776              22.00   -10600.00
03777              24.00   -10600.00
03778              24.00   -10400.00
03779              20.00   -10400.00
03780              16.00   -10400.00
03781              20.00   -10400.00
03782              22.00   -10200.00
03783              22.00   -10000.00
03784              24.00   -10000.00
03785              22.00   -10000.00
03786              16.00    -9800.00
03787              16.00    -9800.00
03788              16.00    -9800.00
03789              20.00    -9600.00
03790              22.00    -9400.00
03791              20.00    -9200.00
03792              20.00    -9200.00
03793              16.00    -9200.00
03794              14.00    -9000.00
03795              18.00    -9000.00
03796              16.00    -8800.00
03797              20.00    -8800.00
03798              20.00    -8800.00
03799              12.00    -8400.00
03800              12.00    -8400.00
03801              14.00    -8200.00
03802              14.00    -8000.00
03803              16.00    -8000.00
03804              20.00    -7800.00
03805              14.00    -7800.00
03806              12.00    -7400.00
03807               8.00    -7400.00
03808              12.00    -7400.00
03809              12.00    -7200.00
03810              14.00    -7200.00
03811              12.00    -7000.00
03812              10.00    -6800.00
03813               8.00    -6600.00
03814               6.00    -6600.00
03815               6.00    -6400.00
03816              12.00    -6200.00
03817               8.00    -6000.00
03818               8.00    -5800.00
03819               6.00    -5600.00
03820               6.00    -5400.00
03821               4.00    -5200.00
03822               6.00    -5200.00
03823               6.00    -5000.00
03824               6.00    -5000.00
03825               4.00    -4800.00
03826               4.00    -4600.00
03827               0.00    -4400.00
03828               4.00    -4200.00
03829               4.00    -4000.00
03830               4.00    -4000.00
03831               4.00    -3600.00
03832               0.00    -3600.00
03833              -2.00    -3400.00
03834              -4.00    -3200.00
03835               0.00    -2800.00
03836               0.00    -2800.00
03837               2.00    -2600.00
03838               4.00    -2400.00
03839              -2.00    -2200.00
03840              -2.00    -2000.00
03841              -4.00    -1800.00
03842              -2.00    -1800.00
03843              -2.00    -1600.00
03844              -2.00    -1200.00
03845              -2.00    -1200.00
03846              -4.00    -1000.00
03847              -4.00     -800.00
03848              -4.00     -600.00
03849              -4.00     -400.00
03850              -4.00     -200.00
03851              -2.00        0.00
03852              -2.00        0.00
03853               6.00      400.00
03854              22.00      600.00
03855               0.00      600.00
03856             -20.00      800.00
03857             -10.00     1000.00
03858               6.00     1200.00
03859               8.00     1200.00
03860              72.00     1600.00
03861             252.00     1800.00
03862              60.00     2200.00
03863            -248.00     2200.00
03864            -248.00     2400.00
03865              40.00     2400.00
03866             252.00     2600.00
03867             252.00     3000.00
03868            -248.00     2800.00
03869            -248.00     3200.00
03870             252.00     3200.00
03871             252.00     3600.00
03872            -248.00     4000.00
03873             110.00     3600.00
03874             252.00     4200.00
03875            -248.00     4400.00
03876             182.00     3800.00
03877              -8.00     4800.00
03878            -248.00     5000.00
03879             252.00     4400.00
03880             -40.00     5600.00
03881            -208.00     5200.00
03882             110.00     5000.00
03883             -48.00     6200.00
03884             -32.00     5600.00
03885              54.00     5600.00
03886              -4.00     6800.00
03887            -138.00     5600.00
03888             -44.00     6400.00
03889             190.00     6800.00
03890            -146.00     6400.00
03891            -100.00     6800.00
03892             158.00     6800.00
03893            -154.00     7200.00
03894             -26.00     7000.00
03895              80.00     7600.00
03896            -104.00     7800.00
03897              16.00     7400.00
03898             -14.00     8000.00
03899             -80.00     8000.00
03900             -12.00     7800.00
03901              32.00     8400.00
03902             -28.00     8200.00
03903             -84.00     8400.00
03904              28.00     8600.00
03905             -44.00     8600.00
03906             -56.00     8800.00
03907              54.00     8800.00
03908             -74.00     9200.00
03909             -54.00     9000.00
03910              38.00     9400.00
03911             -48.00     9400.00
03912             -58.00     9400.00
03913              -2.00     9600.00
03914             -16.00     9600.00
03915             -42.00     9600.00
03916             -12.00    10000.00
03917             -28.00     9800.00
03918             -50.00    10000.00
03919               4.00    10000.00
03920             -30.00    10200.00
03921             -56.00    10200.00
03922               2.00    10200.00
03923             -26.00    10400.00
03924             -44.00    10400.00
03925              -8.00    10400.00
03926             -36.00    10400.00
03927             -50.00    10400.00
03928              -2.00    10800.00
03929             -12.00    10800.00
03930             -52.00    10800.00
03931             -24.00    11000.00
03932             -20.00    11000.00
03933             -42.00    11000.00
03934             -18.00    10800.00
03935             -20.00    11200.00
03936             -40.00    11000.00
03937             -26.00    11000.00
03938             -24.00    11200.00
03939             -42.00    11200.00
03940             -24.00    11000.00
03941             -24.00    11200.00
03942             -36.00    11200.00
03943             -26.00    11200.00
03944             -24.00    11200.00
03945             -44.00    11200.00
03946             -26.00    11200.00
03947             -18.00    11200.00
03948             -40.00    11200.00
03949             -28.00    11200.00
03950             -20.00    11200.00
03951             -42.00    11200.00
03952             -32.00    11200.00
03953             -18.00    11200.00
03954             -36.00    11000.00
03955             -28.00    11000.00
03956             -18.00    11000.00
03957             -32.00    11000.00
03958             -32.00    10800.00
03959             -26.00    11000.00
03960             -34.00    11000.00
03961             -24.00    10800.00
03962             -24.00    10800.00
03963             -34.00    10600.00
03964             -26.00    10600.00
03965             -24.00    10600.00
03966             -34.00    10400.00
03967             -20.00    10400.00
03968             -18.00    10600.00
03969             -28.00    10400.00
03970             -26.00    10400.00
03971             -20.00    10200.00
03972             -30.00    10200.00
03973             -28.00    10200.00
03974             -20.00    10000.00
03975             -24.00    10000.00
03976             -26.00    10000.00
03977             -24.00    10000.00
03978             -26.00     9600.00
03979             -24.00     9600.00
03980             -20.00     9400.00
03981             -24.00     9400.00
03982             -18.00     9200.00
03983             -24.00     9200.00
03984             -26.00     9000.00
03985             -24.00     8800.00
03986             -20.00     8800.00
03987             -20.00     8800.00
03988             -20.00     8600.00
03989             -18.00     8400.00
03990             -20.00     8400.00
03991             -26.00     8200.00
03992             -20.00     8000.00
03993             -18.00     8000.00
03994             -20.00     7800.00
03995             -12.00     7800.00
03996             -18.00     7600.00
03997             -24.00     7600.00
03998             -18.00     7400.00
03999             -18.00     7200.00
04000             -18.00     7200.00
04001             -12.00     6800.00
04002             -18.00     6800.00
04003             -16.00     6600.00
04004             -16.00     6400.00
04005             -20.00     6400.00
04006             -16.00     6200.00
04007             -12.00     6000.00
04008             -14.00     5800.00
04009             -16.00     5600.00
04010             -14.00     5600.00
04011             -16.00     5400.00
04012             -18.00     5200.00
04013             -10.00     5200.00
04014             -12.00     4800.00
04015             -12.00     4600.00
04016             -10.00     4600.00
04017             -10.00     4400.00
04018             -16.00     4200.00
04019             -12.00     4000.00
04020              -8.00     4000.00
04021              -8.00     3600.00
04022             -10.00     3600.00
04023             -10.00     3600.00
04024             -12.00     3200.00
04025              -8.00     2800.00
04026              -8.00     2800.00
04027              -8.00     2800.00
04028              -4.00     2400.00
04029              -4.00     2200.00
04030              -8.00     2200.00
04031              -6.00     2000.00
04032              -4.00     1800.00
04033              -4.00     1400.00
04034              -2.00     1400.00
04035              -2.00     1200.00
04036              -4.00     1000.00
04037              -4.00     1000.00
04038              -4.00      600.00
04039              -2.00      400.00
04040              -2.00      400.00
04041               0.00        0.00
04042               4.00        0.00
04043               4.00     -200.00
04044               8.00     -400.00
04045              28.00     -600.00
04046              22.00     -800.00
04047             -10.00     -800.00
04048             -10.00    -1000.00
04049              16.00    -1200.00
04050              22.00    -1400.00
04051              24.00    -1600.00
04052             124.00    -1800.00
04053             252.00    -2000.00
04054             -24.00    -2600.00
04055            -248.00    -2600.00
04056            -244.00    -2800.00
04057             124.00    -2800.00
04058             132.00    -2600.00
04059             252.00    -3000.00
04060              22.00    -3800.00
04061            -248.00    -3000.00
04062             236.00    -3600.00
04063             252.00    -4200.00
04064            -248.00    -3400.00
04065            -172.00    -4400.00
04066             246.00    -4400.00
04067             -20.00    -4000.00
04068              86.00    -5000.00
04069             -44.00    -4800.00
04070            -172.00    -4600.00
04071             152.00    -5600.00
04072             142.00    -5200.00
04073             -74.00    -5400.00
04074             -82.00    -5800.00
04075              32.00    -5800.00
04076             112.00    -6000.00
04077              36.00    -6200.00
04078             -28.00    -6400.00
04079             -68.00    -6600.00
04080              34.00    -6400.00
04081             152.00    -7000.00
04082             -34.00    -6800.00
04083             -82.00    -7200.00
04084              58.00    -7400.00
04085              52.00    -7200.00
04086              22.00    -7600.00
04087              -4.00    -7600.00
04088               8.00    -7600.00
04089              44.00    -8200.00
04090              22.00    -8000.00
04091               6.00    -8200.00
04092             -10.00    -8400.00
04093              44.00    -8400.00
04094              60.00    -8600.00
04095              -2.00    -8800.00
04096              -4.00    -8800.00
04097              20.00    -9000.00
04098              36.00    -9000.00
04099              42.00    -9200.00
04100              16.00    -9200.00
04101               4.00    -9400.00
04102              24.00    -9600.00
04103              38.00    -9600.00
04104              14.00    -9800.00
04105               6.00    -9800.00
04106              38.00    -9800.00
04107              32.00   -10000.00
04108              14.00   -10000.00
04109              22.00   -10000.00
04110              18.00   -10200.00
04111              26.00   -10400.00
04112              36.00   -10400.00
04113              22.00   -10400.00
04114              20.00   -10600.00
04115              30.00   -10600.00
04116              24.00   -10800.00
04117              20.00   -10600.00
04118              24.00   -10800.00
04119              28.00   -10800.00
04120              28.00   -10800.00
04121              36.00   -10800.00
04122              16.00   -11000.00
04123              12.00   -10800.00
04124              32.00   -11200.00
04125              28.00   -11000.00
04126              22.00   -11200.00
04127              30.00   -11200.00
04128              30.00   -11200.00
04129              20.00   -11200.00
04130              24.00   -11200.00
04131              24.00   -11400.00
04132              22.00   -11400.00
04133              32.00   -11400.00
04134              30.00   -11400.00
04135              22.00   -11400.00
04136              20.00   -11400.00
04137              22.00   -11400.00
04138              24.00   -11400.00
04139              30.00   -11400.00
04140              28.00   -11400.00
04141              20.00   -11400.00
04142              24.00   -11200.00
04143              22.00   -11400.00
04144              20.00   -11200.00
04145              24.00   -11200.00
04146              28.00   -11400.00
04147              26.00   -11200.00
04148              22.00   -11200.00
04149              22.00   -11200.00
04150              20.00   -11200.00
04151              18.00   -11000.00
04152              28.00   -11000.00
04153              24.00   -10800.00
04154              22.00   -11000.00
04155              26.00   -10800.00
04156              12.00   -10800.00
04157              20.00   -10800.00
04158              24.00   -10800.00
04159              20.00   -10600.00
04160              22.00   -10600.00
04161              24.00   -10600.00
04162              16.00   -10400.00
04163              20.00   -10400.00
04164              18.00   -10200.00
04165              20.00   -10400.00
04166              24.00   -10200.00
04167              22.00   -10000.00
04168              16.00   -10000.00
04169              16.00    -9800.00
04170              16.00    -9800.00
04171              16.00    -9600.00
04172              22.00    -9600.00
04173              22.00    -9400.00
04174              20.00    -9400.00
04175              16.00    -9200.00
04176              14.00    -9200.00
04177              14.00    -9000.00
04178              16.00    -9000.00
04179              20.00    -8800.00
04180              20.00    -8800.00
04181              18.00    -8600.00
04182              14.00    -8400.00
04183              12.00    -8400.00
04184              12.00    -8200.00
04185              16.00    -8000.00
04186              16.00    -8000.00
04187              14.00    -7800.00
04188              12.00    -7600.00
04189              12.00    -7600.00
04190               6.00    -7400.00
04191              12.00    -7200.00
04192              14.00    -7200.00
04193              14.00    -7000.00
04194              12.00    -6800.00
04195               8.00    -6800.00
04196               8.00    -6600.00
04197               8.00    -6400.00
04198               8.00    -6400.00
04199               8.00    -6000.00
04200               8.00    -5800.00
04201               6.00    -5800.00
04202               4.00    -5600.00
04203               4.00    -5400.00
04204               4.00    -5200.00
04205               6.00    -5200.00
04206               6.00    -5000.00
04207               6.00    -4800.00
04208               6.00    -4600.00
04209               2.00    -4400.00
04210              -2.00    -4200.00
04211               6.00    -4000.00
04212               4.00    -4000.00
04213               0.00    -3800.00
04214               4.00    -3600.00
04215               0.00    -3400.00
04216              -2.00    -3400.00
04217               4.00    -3200.00
04218              -8.00    -2800.00
04219               0.00    -2600.00
04220               6.00    -2600.00
04221              -4.00    -2400.00
04222              -4.00    -2000.00
04223               0.00    -2000.00
04224              -8.00    -1800.00
04225              -4.00    -1600.00
04226               0.00    -1400.00
04227              -2.00    -1200.00
04228              -2.00    -1000.00
04229              -4.00    -1000.00
04230              -8.00     -800.00
04231              -4.00     -400.00
04232              -8.00     -400.00
04233              -6.00     -200.00
04234               4.00        0.00
04235              -2.00        0.00
04236              10.00      400.00
04237              22.00      600.00
04238              -6.00      800.00
04239             -22.00      800.00
04240               0.00     1000.00
04241               8.00     1200.00
04242              12.00     1400.00
04243             142.00     1600.00
04244             252.00     2000.00
04245            -156.00     2200.00
04246            -248.00     2400.00
04247            -196.00     2200.00
04248              86.00     2400.00
04249             252.00     2800.00
04250             252.00     2800.00
04251            -248.00     2800.00
04252            -248.00     3400.00
04253             252.00     3000.00
04254              68.00     3800.00
04255            -248.00     3800.00
04256             252.00     3600.00
04257              68.00     4400.00
04258            -248.00     4000.00
04259             252.00     4400.00
04260            -242.00     5200.00
04261             -82.00     4600.00
04262             252.00     4800.00
04263            -216.00     5600.00
04264             -72.00     4800.00
04265              96.00     5600.00
04266             -90.00     6200.00
04267              20.00     5200.00
04268              38.00     6000.00
04269             -42.00     6400.00
04270            -158.00     6000.00
04271              74.00     6800.00
04272             126.00     6800.00
04273            -232.00     6600.00
04274              44.00     6800.00
04275              78.00     7000.00
04276            -186.00     7400.00
04277              70.00     7000.00
04278               4.00     7800.00
04279             -88.00     7600.00
04280              40.00     7600.00
04281             -56.00     8200.00
04282             -60.00     7800.00
04283               8.00     8000.00
04284              28.00     8400.00
04285             -68.00     8000.00
04286             -48.00     8800.00
04287              34.00     8600.00
04288             -82.00     8800.00
04289              -2.00     8800.00
04290              28.00     8800.00
04291            -106.00     9200.00
04292              -4.00     9000.00
04293              24.00     9400.00
04294             -68.00     9400.00
04295             -36.00     9400.00
04296               2.00     9800.00
04297             -32.00     9400.00
04298             -36.00     9800.00
04299              -8.00    10000.00
04300             -48.00    10000.00
04301             -32.00    10200.00
04302               8.00    10200.00
04303             -50.00    10200.00
04304             -36.00    10200.00
04305               2.00    10400.00
04306             -42.00    10400.00
04307             -32.00    10400.00
04308             -10.00    10600.00
04309             -50.00    10600.00
04310             -36.00    10600.00
04311               6.00    10800.00
04312             -30.00    10800.00
04313             -48.00    10800.00
04314             -12.00    10800.00
04315             -34.00    10800.00
04316             -38.00    11000.00
04317             -10.00    11000.00
04318             -26.00    11200.00
04319             -42.00    11200.00
04320             -20.00    11200.00
04321             -28.00    11200.00
04322             -34.00    11000.00
04323             -16.00    11200.00
04324             -28.00    11000.00
04325             -36.00    11200.00
04326             -20.00    11200.00
04327             -26.00    11200.00
04328             -36.00    11200.00
04329             -20.00    11200.00
04330             -28.00    11200.00
04331             -38.00    11200.00
04332             -20.00    11200.00
04333             -26.00    11200.00
04334             -38.00    11200.00
04335             -28.00    11200.00
04336             -26.00    11000.00
04337             -34.00    11000.00
04338             -24.00    11000.00
04339             -24.00    11200.00
04340             -36.00    11000.00
04341             -28.00    11000.00
04342             -28.00    11000.00
04343             -32.00    10800.00
04344             -20.00    10800.00
04345             -24.00    10800.00
04346             -34.00    10400.00
04347             -28.00    10800.00
04348             -26.00    10800.00
04349             -34.00    10600.00
04350             -22.00    10400.00
04351             -20.00    10400.00
04352             -32.00    10400.00
04353             -26.00    10200.00
04354             -26.00    10200.00
04355             -32.00    10000.00
04356             -26.00    10000.00
04357             -20.00    10000.00
04358             -26.00    10000.00
04359             -26.00    10000.00
04360             -26.00    10000.00
04361             -26.00     9800.00
04362             -26.00     9600.00
04363             -24.00     9400.00
04364             -20.00     9200.00
04365             -22.00     9200.00
04366             -22.00     9200.00
04367             -24.00     9200.00
04368             -22.00     9000.00
04369             -20.00     8800.00
04370             -24.00     8800.00
04371             -18.00     8600.00
04372             -18.00     8400.00
04373             -24.00     8400.00
04374             -24.00     8400.00
04375             -20.00     8000.00
04376             -20.00     8000.00
04377             -20.00     7800.00
04378             -16.00     7800.00
04379             -18.00     7600.00
04380             -20.00     7400.00
04381             -20.00     7200.00
04382             -16.00     7400.00
04383             -16.00     7000.00
04384             -16.00     6800.00
04385             -18.00     6800.00
04386             -16.00     6400.00
04387             -18.00     6400.00
04388             -18.00     6400.00
04389             -18.00     6200.00
04390             -10.00     6000.00
04391             -16.00     6000.00
04392             -12.00     5600.00
04393             -16.00     5600.00
04394             -14.00     5400.00
04395             -16.00     5200.00
04396             -10.00     5200.00
04397             -12.00     4800.00
04398             -10.00     4800.00
04399             -12.00     4600.00
04400             -12.00     4400.00
04401             -12.00     4200.00
04402             -10.00     4000.00
04403              -8.00     3800.00
04404             -10.00     3600.00
04405              -8.00     3600.00
04406             -10.00     3200.00
04407             -10.00     3000.00
04408              -8.00     3000.00
04409             -10.00     2800.00
04410              -4.00     2800.00
04411              -4.00     2400.00
04412              -4.00     2400.00
04413              -4.00     2000.00
04414              -4.00     1800.00
04415              -6.00     1600.00
04416              -4.00     1600.00
04417              -4.00     1400.00
04418              -2.00     1200.00
04419              -2.00     1000.00
04420              -4.00      800.00
04421              -2.00      600.00
04422              -2.00      600.00
04423               0.00      200.00
04424               4.00        0.00
04425               6.00     -200.00
04426               4.00     -200.00
04427              14.00     -400.00
04428              30.00     -800.00
04429               8.00     -800.00
04430             -16.00    -1000.00
04431               2.00    -1200.00
04432              20.00    -1200.00
04433              16.00    -1400.00
04434              40.00    -1600.00
04435             194.00    -1800.00
04436             246.00    -2400.00
04437            -212.00    -2400.00
04438            -248.00    -2600.00
04439             -78.00    -2800.00
04440             132.00    -2800.00
04441             208.00    -2600.00
04442             252.00    -3200.00
04443            -248.00    -3600.00
04444            -248.00    -3000.00
04445             252.00    -4200.00
04446             252.00    -3600.00
04447            -248.00    -3600.00
04448              60.00    -4800.00
04449             176.00    -4000.00
04450             -30.00    -4200.00
04451             106.00    -5200.00
04452            -146.00    -4600.00
04453             -74.00    -5000.00
04454             212.00    -5400.00
04455              60.00    -5000.00
04456             -98.00    -5600.00
04457             -50.00    -5800.00
04458              76.00    -5600.00
04459              94.00    -6000.00
04460               8.00    -6000.00
04461             -42.00    -6400.00
04462             -56.00    -6400.00
04463              94.00    -6600.00
04464             120.00    -6800.00
04465             -90.00    -6800.00
04466             -34.00    -7200.00
04467              72.00    -7200.00
04468              44.00    -7400.00
04469              12.00    -7600.00
04470             -16.00    -7600.00
04471              28.00    -7800.00
04472              38.00    -8000.00
04473              20.00    -8000.00
04474              -2.00    -8200.00
04475               4.00    -8200.00
04476              60.00    -8600.00
04477              36.00    -8600.00
04478             -10.00    -8800.00
04479               8.00    -9000.00
04480              22.00    -8800.00
04481              38.00    -9200.00
04482              32.00    -9200.00
04483               6.00    -9200.00
04484               8.00    -9600.00
04485              34.00    -9400.00
04486              34.00    -9600.00
04487               0.00    -9600.00
04488              22.00    -9800.00
04489              40.00    -9800.00
04490              24.00   -10000.00
04491              20.00   -10000.00
04492              16.00   -10000.00
04493              16.00   -10200.00
04494              36.00   -10200.00
04495              36.00   -10400.00
04496              18.00   -10400.00
04497              22.00   -10600.00
04498              30.00   -10600.00
04499              20.00   -10600.00
04500              22.00   -10600.00
04501              28.00   -10800.00
04502              24.00   -10600.00
04503              32.00   -10800.00
04504              30.00   -10800.00
04505              14.00   -10800.00
04506              20.00   -10800.00
04507              30.00   -11000.00
04508              28.00   -11000.00
04509              24.00   -11200.00
04510              30.00   -11200.00
04511              22.00   -11200.00
04512              20.00   -11200.00
04513              26.00   -11400.00
04514              24.00   -11200.00
04515              28.00   -11200.00
04516              32.00   -11200.00
04517              28.00   -11200.00
04518              22.00   -11200.00
04519              22.00   -11400.00
04520              22.00   -11400.00
04521              28.00   -11400.00
04522              30.00   -11200.00
04523              28.00   -11400.00
04524              22.00   -11200.00
04525              24.00   -11400.00
04526              20.00   -11400.00
04527              20.00   -11200.00
04528              28.00   -11200.00
04529              26.00   -11200.00
04530              24.00   -11200.00
04531              24.00   -11200.00
04532              22.00   -11200.00
04533              20.00   -11000.00
04534              22.00   -11000.00
04535              24.00   -10800.00
04536              22.00   -11000.00
04537              22.00   -10800.00
04538              20.00   -10800.00
04539              16.00   -10800.00
04540              20.00   -10800.00
04541              22.00   -10600.00
04542              22.00   -10600.00
04543              22.00   -10400.00
04544              22.00   -10400.00
04545              16.00   -10400.00
04546              16.00   -10400.00
04547              20.00   -10400.00
04548              18.00   -10000.00
04549              24.00   -10000.00
04550              24.00   -10000.00
04551              16.00   -10000.00
04552              16.00   -10000.00
04553              14.00    -9600.00
04554              18.00    -9600.00
04555              22.00    -9600.00
04556              22.00    -9400.00
04557              16.00    -9400.00
04558              16.00    -9200.00
04559              14.00    -9200.00
04560              12.00    -9000.00
04561              20.00    -9000.00
04562              20.00    -8800.00
04563              18.00    -8600.00
04564              16.00    -8400.00
04565              12.00    -8400.00
04566              10.00    -8400.00
04567              14.00    -8000.00
04568              16.00    -8000.00
04569              14.00    -8000.00
04570              16.00    -7600.00
04571              14.00    -7600.00
04572              12.00    -7400.00
04573               8.00    -7400.00
04574              14.00    -7200.00
04575              12.00    -7200.00
04576              14.00    -7000.00
04577              14.00    -6600.00
04578               8.00    -6800.00
04579               6.00    -6400.00
04580               8.00    -6200.00
04581               8.00    -6000.00
04582              12.00    -6000.00
04583              14.00    -5800.00
04584               6.00    -5800.00
04585               4.00    -5400.00
04586               6.00    -5200.00
04587               6.00    -5200.00
04588               8.00    -5000.00
04589              10.00    -4800.00
04590               6.00    -4800.00
04591               4.00    -4600.00
04592               4.00    -4400.00
04593               0.00    -4400.00
04594               0.00    -4000.00
04595               6.00    -4000.00
04596               4.00    -3600.00
04597               0.00    -3600.00
04598              -2.00    -3400.00
04599               0.00    -3200.00
04600              -4.00    -3200.00
04601               0.00    -2800.00
04602               0.00    -2600.00
04603               0.00    -2400.00
04604               0.00    -2400.00
04605              -4.00    -2200.00
04606              -4.00    -1800.00
04607              -4.00    -1600.00
04608              -4.00    -1600.00
04609              -2.00    -1400.00
04610               0.00    -1200.00
04611              -4.00    -1000.00
04612              -8.00    -1000.00
04613              -8.00     -800.00
04614              -8.00     -400.00
04615              -6.00     -200.00
04616              -2.00     -200.00
04617              -4.00        0.00
04618              -2.00        0.00
04619              20.00      400.00
04620              12.00      600.00
04621             -18.00     1000.00
04622             -18.00     1000.00
04623               6.00     1200.00
04624               6.00     1200.00
04625              28.00     1400.00
04626             228.00     1800.00
04627             216.00     2200.00
04628            -248.00     2200.00
04629            -248.00     2400.00
04630             -44.00     2200.00
04631             152.00     2600.00
04632             252.00     3000.00
04633             208.00     2800.00
04634            -248.00     3000.00
04635             102.00     3600.00
04636             252.00     3200.00
04637            -248.00     4000.00
04638            -248.00     3600.00
04639             252.00     4000.00
04640            -248.00     4600.00
04641             -34.00     3800.00
04642             198.00     4600.00
04643            -248.00     5200.00
04644             162.00     4400.00
04645             164.00     5200.00
04646            -248.00     5400.00
04647              54.00     4800.00
04648              28.00     5800.00
04649             -74.00     6000.00
04650              52.00     5400.00
04651              22.00     6400.00
04652             -90.00     6200.00
04653            -124.00     6200.00
04654             168.00     6800.00
04655              -8.00     6400.00
04656            -210.00     6800.00
04657             148.00     6800.00
04658             -52.00     7200.00
04659            -124.00     7000.00
04660             112.00     7400.00
04661             -70.00     7800.00
04662             -32.00     7400.00
04663              24.00     7800.00
04664             -80.00     8200.00
04665             -36.00     7600.00
04666              24.00     8400.00
04667               2.00     8200.00
04668             -90.00     8200.00
04669              -4.00     8800.00
04670               0.00     8600.00
04671             -90.00     8800.00
04672              44.00     8800.00
04673             -26.00     9200.00
04674             -92.00     9000.00
04675              36.00     9200.00
04676             -16.00     9400.00
04677             -74.00     9200.00
04678             -18.00     9600.00
04679              -2.00     9600.00
04680             -42.00     9400.00
04681             -24.00    10000.00
04682             -16.00    10000.00
04683             -54.00    10000.00
04684              -8.00    10200.00
04685             -10.00    10200.00
04686             -68.00    10200.00
04687             -18.00    10200.00
04688              -8.00    10400.00
04689             -44.00    10400.00
04690             -10.00    10400.00
04691             -16.00    10400.00
04692             -54.00    10400.00
04693             -20.00    10800.00
04694             -10.00    10800.00
04695             -50.00    10800.00
04696             -28.00    10800.00
04697              -8.00    11000.00
04698             -44.00    11000.00
04699             -32.00    11000.00
04700             -12.00    11000.00
04701             -36.00    11000.00
04702             -26.00    11000.00
04703             -20.00    11200.00
04704             -40.00    11200.00
04705             -30.00    11200.00
04706             -16.00    11000.00
04707             -28.00    11200.00
04708             -26.00    11200.00
04709             -20.00    11200.00
04710             -44.00    11200.00
04711             -34.00    11200.00
04712             -14.00    11200.00
04713             -28.00    11200.00
04714             -28.00    11200.00
04715             -20.00    11200.00
04716             -36.00    11200.00
04717             -36.00    11200.00
04718             -20.00    11200.00
04719             -28.00    11200.00
04720             -32.00    11200.00
04721             -20.00    11200.00
04722             -28.00    11200.00
04723             -36.00    11000.00
04724             -28.00    11000.00
04725             -32.00    11000.00
04726             -28.00    10800.00
04727             -20.00    10800.00
04728             -26.00    10800.00
04729             -32.00    10800.00
04730             -26.00    10800.00
04731             -32.00    10600.00
04732             -28.00    10400.00
04733             -20.00    10400.00
04734             -26.00    10400.00
04735             -32.00    10400.00
04736             -24.00    10200.00
04737             -28.00    10200.00
04738             -34.00    10000.00
04739             -24.00    10000.00
04740             -20.00    10000.00
04741             -30.00    10000.00
04742             -24.00    10000.00
04743             -26.00     9600.00
04744             -28.00     9600.00
04745             -26.00     9400.00
04746             -24.00     9400.00
04747             -22.00     9400.00
04748             -20.00     9200.00
04749             -26.00     9200.00
04750             -26.00     9000.00
04751             -20.00     8800.00
04752             -22.00     8800.00
04753             -22.00     8600.00
04754             -20.00     8600.00
04755             -20.00     8400.00
04756             -24.00     8400.00
04757             -20.00     8200.00
04758             -20.00     8200.00
04759             -18.00     8000.00
04760             -18.00     7800.00
04761             -16.00     7600.00
04762             -20.00     7600.00
04763             -20.00     7600.00
04764             -18.00     7200.00
04765             -18.00     7200.00
04766             -16.00     7400.00
04767             -16.00     6800.00
04768             -16.00     6800.00
04769             -16.00     6400.00
04770             -16.00     6400.00
04771             -18.00     6400.00
04772             -12.00     6000.00
04773             -12.00     5800.00
04774             -14.00     5800.00
04775             -12.00     5600.00
04776             -12.00     5600.00
04777             -14.00     5400.00
04778             -10.00     5200.00
04779             -12.00     5000.00
04780             -10.00     4800.00
04781             -10.00     4800.00
04782             -10.00     4400.00
04783             -12.00     4400.00
04784             -12.00     4000.00
04785             -10.00     4000.00
04786             -10.00     3800.00
04787              -4.00     3600.00
04788             -10.00     3200.00
04789             -10.00     3200.00
04790             -10.00     3200.00
04791              -8.00     2800.00
04792             -10.00     2800.00
04793              -4.00     2400.00
04794              -4.00     2400.00
04795              -8.00     2200.00
04796              -6.00     2200.00
04797              -4.00     2000.00
04798              -4.00     1600.00
04799              -6.00     1400.00
04800              -4.00     1200.00
04801              -2.00     1200.00
04802              -4.00      800.00
04803              -4.00      800.00
04804              -4.00      600.00
04805              -2.00      400.00
04806              -2.00        0.00
04807               2.00        0.00
04808               4.00     -200.00
04809               6.00     -400.00
04810              22.00     -400.00
04811              26.00     -800.00
04812              -2.00    -1000.00
04813             -10.00     -800.00
04814              12.00    -1200.00
04815              20.00    -1200.00
04816              20.00    -1600.00
04817              72.00    -1600.00
04818             252.00    -2000.00
04819             134.00    -2400.00
04820            -248.00    -2600.00
04821            -248.00    -2800.00
04822              60.00    -2800.00
04823             118.00    -2600.00
04824             252.00    -2800.00
04825             252.00    -3600.00
04826            -248.00    -3200.00
04827            -162.00    -3200.00
04828             252.00    -4400.00
04829             -84.00    -3400.00
04830            -248.00    -4000.00
04831             212.00    -4800.00
04832              60.00    -4000.00
04833              28.00    -4800.00
04834              52.00    -5200.00
04835            -196.00    -4400.00
04836              54.00    -5200.00
04837             200.00    -5200.00
04838             -22.00    -5200.00
04839             -96.00    -5800.00
04840             -12.00    -5800.00
04841             108.00    -5600.00
04842              70.00    -6000.00
04843             -10.00    -6400.00
04844             -58.00    -6400.00
04845             -18.00    -6400.00
04846             148.00    -6800.00
04847              44.00    -6800.00
04848            -104.00    -7000.00
04849              24.00    -7200.00
04850              68.00    -7200.00
04851              28.00    -7400.00
04852               2.00    -7600.00
04853              -2.00    -7600.00
04854              40.00    -8000.00
04855              32.00    -8000.00
04856              10.00    -8000.00
04857              -4.00    -8200.00
04858              22.00    -8200.00
04859              64.00    -8400.00
04860              16.00    -8600.00
04861             -12.00    -8800.00
04862              12.00    -8800.00
04863              28.00    -9000.00
04864              44.00    -9200.00
04865              26.00    -9200.00
04866              -2.00    -9200.00
04867              16.00    -9400.00
04868              42.00    -9600.00
04869              22.00    -9600.00
04870               0.00    -9800.00
04871              32.00    -9800.00
04872              36.00   -10000.00
04873              16.00   -10000.00
04874              20.00   -10000.00
04875              18.00   -10200.00
04876              20.00   -10400.00
04877              32.00   -10400.00
04878              28.00   -10400.00
04879              16.00   -10600.00
04880              30.00   -10400.00
04881              28.00   -10600.00
04882              16.00   -10800.00
04883              22.00   -10600.00
04884              24.00   -10800.00
04885              24.00   -10800.00
04886              36.00   -10800.00
04887              24.00   -11200.00
04888              12.00   -10800.00
04889              22.00   -11200.00
04890              30.00   -11200.00
04891              24.00   -11200.00
04892              28.00   -11200.00
04893              30.00   -11400.00
04894              20.00   -11200.00
04895              22.00   -11200.00
04896              24.00   -11200.00
04897              22.00   -11400.00
04898              32.00   -11200.00
04899              28.00   -11400.00
04900              22.00   -11400.00
04901              22.00   -11400.00
04902              22.00   -11400.00
04903              22.00   -11200.00
04904              26.00   -11200.00
04905              32.00   -11400.00
04906              24.00   -11400.00
04907              20.00   -11200.00
04908              24.00   -11400.00
04909              20.00   -11200.00
04910              22.00   -11400.00
04911              30.00   -11200.00
04912              26.00   -11400.00
04913              24.00   -11200.00
04914              22.00   -11200.00
04915              16.00   -11200.00
04916              20.00   -11000.00
04917              24.00   -11000.00
04918              22.00   -11000.00
04919              22.00   -10800.00
04920              28.00   -10800.00
04921              20.00   -10800.00
04922              16.00   -10800.00
04923              18.00   -10600.00
04924              18.00   -10600.00
04925              22.00   -10600.00
04926              30.00   -10600.00
04927              20.00   -10400.00
04928              14.00   -10400.00
04929              18.00   -10400.00
04930              20.00   -10200.00
04931              20.00   -10400.00
04932              26.00   -10000.00
04933              22.00   -10000.00
04934              16.00    -9800.00
04935              12.00    -9800.00
04936              14.00    -9600.00
04937              20.00    -9600.00
04938              22.00    -9400.00
04939              18.00    -9600.00
04940              14.00    -9400.00
04941              14.00    -9200.00
04942              14.00    -9200.00
04943              14.00    -9000.00
04944              16.00    -8800.00
04945              20.00    -8800.00
04946              16.00    -8400.00
04947              14.00    -8600.00
04948              14.00    -8400.00
04949              12.00    -8200.00
04950              14.00    -8200.00
04951              12.00    -8000.00
04952              12.00    -8000.00
04953              14.00    -7800.00
04954              12.00    -7600.00
04955              12.00    -7600.00
04956              12.00    -7400.00
04957              14.00    -7200.00
04958              12.00    -7200.00
04959              12.00    -7000.00
04960              14.00    -6800.00
04961               6.00    -6600.00
04962               6.00    -6600.00
04963              12.00    -6200.00
04964               8.00    -6200.00
04965               8.00    -5800.00
04966               8.00    -5800.00
04967               6.00    -5600.00
04968               4.00    -5400.00
04969               6.00    -5400.00
04970               6.00    -5200.00
04971               8.00    -5000.00
04972               6.00    -4800.00
04973               6.00    -4800.00
04974               6.00    -4400.00
04975               4.00    -4200.00
04976               0.00    -4200.00
04977               6.00    -4000.00
04978               6.00    -3600.00
04979               4.00    -3600.00
04980               0.00    -3400.00
04981               4.00    -3200.00
04982              -4.00    -3200.00
04983              -2.00    -2800.00
04984               0.00    -2800.00
04985               0.00    -2600.00
04986               0.00    -2600.00
04987              -2.00    -2200.00
04988              -4.00    -2000.00
04989              -2.00    -1800.00
04990              -2.00    -1600.00
04991              -4.00    -1600.00
04992              -2.00    -1400.00
04993               0.00    -1200.00
04994             -10.00     -800.00
04995              -4.00     -800.00
04996              -4.00     -600.00
04997              -4.00     -400.00
04998              -4.00     -400.00
04999              -4.00     -200.00
05000               0.00        0.00
