Unit:(mV)
                     CH1         CH2
Frequency              ? 261.350 kHz
00001               2.00    -4200.00
00002               6.00    -4000.00
00003               4.00    -3800.00
00004               2.00    -3600.00
00005               2.00    -3400.00
00006              -2.00    -3400.00
00007              -2.00    -3200.00
00008               4.00    -3000.00
00009               0.00    -2800.00
00010               0.00    -2600.00
00011               4.00    -2400.00
00012              -4.00    -2400.00
00013              -4.00    -2000.00
00014              -2.00    -1800.00
00015              -4.00    -1600.00
00016              -4.00    -1400.00
00017              -2.00    -1200.00
00018              -2.00    -1000.00
00019              -4.00     -800.00
00020              -4.00     -600.00
00021              -4.00     -400.00
00022              -2.00     -400.00
00023              -2.00        0.00
00024              -2.00        0.00
00025               4.00      400.00
00026              22.00      600.00
00027               8.00      600.00
00028             -16.00     1000.00
00029             -10.00     1000.00
00030               6.00     1200.00
00031               6.00     1400.00
00032              38.00     1400.00
00033             232.00     2000.00
00034             158.00     2200.00
00035            -248.00     2400.00
00036            -248.00     2400.00
00037              16.00     2400.00
00038              22.00     2800.00
00039             252.00     3200.00
00040             204.00     3000.00
00041            -248.00     3200.00
00042             190.00     3400.00
00043             252.00     3600.00
00044            -248.00     4000.00
00045            -114.00     3800.00
00046             252.00     4000.00
00047            -248.00     4800.00
00048             -24.00     4200.00
00049             188.00     4800.00
00050            -248.00     5400.00
00051             154.00     4600.00
00052              32.00     5400.00
00053            -188.00     5600.00
00054             100.00     5000.00
00055             -26.00     6200.00
00056             -56.00     6000.00
00057              22.00     5600.00
00058              24.00     6800.00
00059             -60.00     6200.00
00060            -122.00     6400.00
00061             150.00     7000.00
00062             -52.00     6800.00
00063            -148.00     7000.00
00064             148.00     7200.00
00065             -96.00     7600.00
00066             -80.00     7400.00
00067              80.00     7800.00
00068             -68.00     8000.00
00069              -4.00     7600.00
00070             -20.00     8400.00
00071             -48.00     8200.00
00072             -26.00     8400.00
00073               0.00     8600.00
00074               2.00     8600.00
00075             -82.00     8800.00
00076               6.00     9000.00
00077             -16.00     8800.00
00078             -74.00     9400.00
00079              32.00     9000.00
00080             -36.00     9600.00
00081             -60.00     9600.00
00082              16.00     9600.00
00083             -28.00    10000.00
00084             -50.00     9600.00
00085             -20.00    10000.00
00086              -8.00    10000.00
00087             -38.00    10000.00
00088             -26.00    10200.00
00089             -18.00    10400.00
00090             -44.00    10400.00
00091             -12.00    10400.00
00092             -20.00    10400.00
00093             -48.00    10800.00
00094             -12.00    10800.00
00095             -20.00    11000.00
00096             -42.00    11000.00
00097             -20.00    11000.00
00098             -26.00    11200.00
00099             -44.00    11000.00
00100             -20.00    11200.00
00101             -12.00    11200.00
00102             -40.00    11200.00
00103             -32.00    11400.00
00104             -20.00    11600.00
00105             -36.00    11400.00
00106             -26.00    11400.00
00107             -18.00    11600.00
00108             -32.00    11600.00
00109             -32.00    11600.00
00110             -26.00    11600.00
00111             -34.00    11600.00
00112             -28.00    11800.00
00113             -24.00    11600.00
00114             -28.00    11600.00
00115             -26.00    11800.00
00116             -24.00    11800.00
00117             -36.00    11800.00
00118             -32.00    11800.00
00119             -24.00    11800.00
00120             -32.00    11800.00
00121             -28.00    11600.00
00122             -24.00    11800.00
00123             -32.00    11800.00
00124             -34.00    11600.00
00125             -26.00    11600.00
00126             -28.00    11600.00
00127             -28.00    11600.00
00128             -26.00    11400.00
00129             -28.00    11600.00
00130             -28.00    11600.00
00131             -32.00    11600.00
00132             -34.00    11200.00
00133             -28.00    11200.00
00134             -22.00    11400.00
00135             -28.00    11200.00
00136             -32.00    11200.00
00137             -28.00    11200.00
00138             -32.00    11200.00
00139             -26.00    11000.00
00140             -24.00    11000.00
00141             -28.00    10800.00
00142             -26.00    10800.00
00143             -26.00    10800.00
00144             -30.00    10600.00
00145             -22.00    10400.00
00146             -26.00    10400.00
00147             -26.00    10400.00
00148             -20.00    10400.00
00149             -30.00    10200.00
00150             -26.00    10200.00
00151             -18.00    10000.00
00152             -28.00    10000.00
00153             -24.00     9800.00
00154             -18.00     9800.00
00155             -26.00     9600.00
00156             -26.00     9600.00
00157             -18.00     9400.00
00158             -26.00     9200.00
00159             -24.00     9200.00
00160             -14.00     9000.00
00161             -20.00     8800.00
00162             -20.00     8800.00
00163             -20.00     8600.00
00164             -20.00     8600.00
00165             -24.00     8400.00
00166             -18.00     8200.00
00167             -16.00     8000.00
00168             -14.00     8000.00
00169             -20.00     7800.00
00170             -20.00     7800.00
00171             -20.00     7600.00
00172             -16.00     7600.00
00173             -16.00     7200.00
00174             -16.00     7400.00
00175             -12.00     7000.00
00176             -16.00     7000.00
00177             -18.00     6800.00
00178             -16.00     6400.00
00179             -14.00     6400.00
00180             -12.00     6200.00
00181             -12.00     6000.00
00182             -12.00     5800.00
00183             -14.00     5800.00
00184             -10.00     5400.00
00185             -12.00     5400.00
00186             -10.00     5200.00
00187             -10.00     5200.00
00188             -10.00     4800.00
00189             -10.00     4600.00
00190             -12.00     4600.00
00191             -12.00     4400.00
00192             -12.00     4000.00
00193              -8.00     3800.00
00194              -4.00     3600.00
00195              -8.00     3600.00
00196             -10.00     3200.00
00197              -8.00     3200.00
00198             -10.00     3000.00
00199              -8.00     2800.00
00200              -4.00     2600.00
00201              -4.00     2400.00
00202              -8.00     2200.00
00203              -4.00     2000.00
00204              -8.00     2000.00
00205              -4.00     1600.00
00206              -4.00     1600.00
00207              -2.00     1400.00
00208              -2.00     1200.00
00209              -2.00     1000.00
00210              -2.00      800.00
00211              -2.00      600.00
00212              -2.00      400.00
00213               4.00      200.00
00214               6.00        0.00
00215               6.00     -200.00
00216               6.00     -400.00
00217              22.00     -600.00
00218              24.00     -600.00
00219              -2.00    -1000.00
00220              -4.00    -1000.00
00221              14.00    -1200.00
00222              16.00    -1200.00
00223              14.00    -1600.00
00224              86.00    -1600.00
00225             252.00    -2000.00
00226              88.00    -2600.00
00227            -248.00    -2600.00
00228            -248.00    -2800.00
00229              86.00    -2800.00
00230               0.00    -2800.00
00231             172.00    -2800.00
00232             252.00    -3600.00
00233            -248.00    -3400.00
00234            -136.00    -3400.00
00235             252.00    -4600.00
00236            -138.00    -3600.00
00237            -248.00    -4000.00
00238             252.00    -4800.00
00239              -4.00    -4000.00
00240             -58.00    -4800.00
00241              64.00    -5200.00
00242             -92.00    -4800.00
00243              62.00    -5600.00
00244              94.00    -5400.00
00245             -34.00    -5400.00
00246             -20.00    -6000.00
00247              20.00    -5800.00
00248              64.00    -6200.00
00249              24.00    -6400.00
00250              10.00    -6600.00
00251              -8.00    -6800.00
00252             -18.00    -6800.00
00253              98.00    -7200.00
00254              24.00    -7200.00
00255             -58.00    -7200.00
00256              44.00    -7600.00
00257              38.00    -7600.00
00258              14.00    -7800.00
00259              12.00    -8000.00
00260              20.00    -8000.00
00261              38.00    -8200.00
00262              12.00    -8400.00
00263              16.00    -8400.00
00264              12.00    -8400.00
00265              26.00    -8800.00
00266              50.00    -9000.00
00267              14.00    -9000.00
00268               4.00    -9200.00
00269              20.00    -9200.00
00270              28.00    -9400.00
00271              30.00    -9600.00
00272              28.00    -9600.00
00273              16.00    -9600.00
00274              20.00    -9800.00
00275              30.00   -10000.00
00276              20.00   -10000.00
00277              12.00   -10000.00
00278              32.00   -10200.00
00279              36.00   -10400.00
00280              16.00   -10400.00
00281              22.00   -10400.00
00282              24.00   -10600.00
00283              22.00   -10600.00
00284              28.00   -10600.00
00285              30.00   -10800.00
00286              22.00   -10800.00
00287              30.00   -11000.00
00288              26.00   -11000.00
00289              20.00   -11200.00
00290              26.00   -11200.00
00291              28.00   -11000.00
00292              28.00   -11200.00
00293              36.00   -11400.00
00294              28.00   -11400.00
00295              20.00   -11400.00
00296              22.00   -11400.00
00297              30.00   -11600.00
00298              24.00   -11600.00
00299              30.00   -11600.00
00300              30.00   -11600.00
00301              22.00   -11600.00
00302              22.00   -11600.00
00303              28.00   -11600.00
00304              28.00   -11800.00
00305              28.00   -11800.00
00306              34.00   -11600.00
00307              28.00   -11800.00
00308              22.00   -11800.00
00309              22.00   -12000.00
00310              24.00   -11800.00
00311              28.00   -11800.00
00312              30.00   -11800.00
00313              28.00   -11600.00
00314              24.00   -11800.00
00315              24.00   -11600.00
00316              20.00   -11600.00
00317              24.00   -11600.00
00318              28.00   -11600.00
00319              28.00   -11600.00
00320              24.00   -11600.00
00321              24.00   -11600.00
00322              22.00   -11400.00
00323              22.00   -11600.00
00324              24.00   -11400.00
00325              28.00   -11400.00
00326              28.00   -11400.00
00327              22.00   -11200.00
00328              22.00   -11200.00
00329              20.00   -11200.00
00330              20.00   -11200.00
00331              20.00   -10800.00
00332              28.00   -11200.00
00333              24.00   -10800.00
00334              20.00   -10800.00
00335              20.00   -10800.00
00336              20.00   -10800.00
00337              22.00   -10600.00
00338              22.00   -10600.00
00339              22.00   -10400.00
00340              20.00   -10400.00
00341              20.00   -10400.00
00342              16.00   -10000.00
00343              20.00   -10000.00
00344              22.00   -10000.00
00345              20.00    -9800.00
00346              20.00    -9800.00
00347              20.00    -9600.00
00348              16.00    -9600.00
00349              16.00    -9400.00
00350              16.00    -9400.00
00351              16.00    -9200.00
00352              20.00    -9000.00
00353              20.00    -8800.00
00354              16.00    -8800.00
00355              14.00    -8800.00
00356              14.00    -8800.00
00357              16.00    -8400.00
00358              16.00    -8200.00
00359              16.00    -8200.00
00360              14.00    -8000.00
00361              14.00    -8000.00
00362              12.00    -7600.00
00363              12.00    -7600.00
00364              14.00    -7400.00
00365              14.00    -7200.00
00366              16.00    -7200.00
00367              14.00    -6800.00
00368              12.00    -6800.00
00369              12.00    -6600.00
00370              12.00    -6600.00
00371              12.00    -6400.00
00372              12.00    -6000.00
00373              12.00    -6000.00
00374               8.00    -5800.00
00375               6.00    -5600.00
00376               8.00    -5400.00
00377               6.00    -5200.00
00378               8.00    -5200.00
00379              12.00    -5000.00
00380               6.00    -4800.00
00381               4.00    -4800.00
00382               4.00    -4400.00
00383               4.00    -4400.00
00384               6.00    -4200.00
00385               4.00    -4000.00
00386               4.00    -3600.00
00387               4.00    -3600.00
00388               0.00    -3400.00
00389               0.00    -3200.00
00390              -2.00    -3200.00
00391               0.00    -2800.00
00392               2.00    -2600.00
00393               0.00    -2600.00
00394              -2.00    -2200.00
00395              -4.00    -2200.00
00396              -4.00    -1800.00
00397              -4.00    -1800.00
00398              -2.00    -1600.00
00399              -2.00    -1200.00
00400              -2.00    -1000.00
00401              -4.00     -800.00
00402              -8.00     -800.00
00403              -6.00     -400.00
00404              -6.00     -400.00
00405              -4.00     -200.00
00406              -4.00     -200.00
00407              -2.00      400.00
00408               8.00      600.00
00409              20.00      400.00
00410              -2.00     1000.00
00411             -20.00     1000.00
00412              -2.00     1200.00
00413               6.00     1200.00
00414               6.00     1400.00
00415              92.00     1600.00
00416             252.00     2000.00
00417             -28.00     2200.00
00418            -248.00     2400.00
00419            -208.00     2400.00
00420              38.00     2400.00
00421             118.00     2800.00
00422             252.00     3000.00
00423            -248.00     2800.00
00424            -248.00     3400.00
00425             252.00     3400.00
00426             252.00     3800.00
00427            -248.00     4200.00
00428             252.00     3600.00
00429             252.00     4600.00
00430            -248.00     4600.00
00431             214.00     4400.00
00432             -30.00     5200.00
00433            -176.00     5000.00
00434             228.00     4800.00
00435            -138.00     5800.00
00436             -76.00     5400.00
00437             100.00     5400.00
00438             -82.00     6400.00
00439             -10.00     5600.00
00440              20.00     6200.00
00441              20.00     6800.00
00442            -128.00     6200.00
00443             -26.00     6800.00
00444             152.00     6800.00
00445            -176.00     7000.00
00446             -18.00     7200.00
00447             110.00     7400.00
00448            -164.00     7600.00
00449              22.00     7200.00
00450              28.00     7800.00
00451             -66.00     8000.00
00452              14.00     7600.00
00453             -44.00     8400.00
00454             -36.00     8000.00
00455             -20.00     8400.00
00456              20.00     8800.00
00457             -36.00     8400.00
00458             -68.00     8800.00
00459              28.00     8800.00
00460             -64.00     9200.00
00461             -36.00     9000.00
00462              32.00     9400.00
00463             -72.00     9400.00
00464             -26.00     9200.00
00465              12.00     9800.00
00466             -48.00     9600.00
00467             -42.00     9800.00
00468             -10.00    10000.00
00469             -18.00    10000.00
00470             -44.00    10200.00
00471             -16.00    10200.00
00472             -32.00    10200.00
00473             -40.00    10400.00
00474              -4.00    10400.00
00475             -36.00    10600.00
00476             -36.00    10800.00
00477              -8.00    11000.00
00478             -34.00    10800.00
00479             -36.00    10800.00
00480             -18.00    11000.00
00481             -36.00    11000.00
00482             -42.00    11200.00
00483             -10.00    11200.00
00484             -20.00    11200.00
00485             -44.00    11400.00
00486             -24.00    11200.00
00487             -26.00    11200.00
00488             -36.00    11400.00
00489             -20.00    11400.00
00490             -22.00    11600.00
00491             -34.00    11600.00
00492             -26.00    11600.00
00493             -28.00    11600.00
00494             -36.00    11600.00
00495             -24.00    11600.00
00496             -26.00    11600.00
00497             -28.00    11600.00
00498             -24.00    11600.00
00499             -28.00    11600.00
00500             -38.00    11600.00
00501             -26.00    11600.00
00502             -24.00    11800.00
00503             -34.00    11800.00
00504             -24.00    11800.00
00505             -22.00    11800.00
00506             -36.00    11600.00
00507             -28.00    11600.00
00508             -24.00    11600.00
00509             -28.00    11600.00
00510             -26.00    11600.00
00511             -24.00    11600.00
00512             -28.00    11600.00
00513             -28.00    11400.00
00514             -28.00    11400.00
00515             -30.00    11400.00
00516             -24.00    11200.00
00517             -24.00    11200.00
00518             -28.00    11200.00
00519             -28.00    11200.00
00520             -26.00    11000.00
00521             -28.00    11000.00
00522             -26.00    11000.00
00523             -26.00    11000.00
00524             -26.00    10800.00
00525             -28.00    10800.00
00526             -26.00    10800.00
00527             -28.00    10800.00
00528             -28.00    10400.00
00529             -24.00    10400.00
00530             -24.00    10400.00
00531             -26.00    10200.00
00532             -26.00    10200.00
00533             -28.00    10200.00
00534             -26.00    10000.00
00535             -24.00    10000.00
00536             -24.00    10000.00
00537             -20.00     9600.00
00538             -20.00     9600.00
00539             -26.00     9400.00
00540             -26.00     9400.00
00541             -22.00     9200.00
00542             -22.00     9200.00
00543             -20.00     9000.00
00544             -18.00     8800.00
00545             -24.00     8600.00
00546             -22.00     8600.00
00547             -20.00     8600.00
00548             -20.00     8400.00
00549             -20.00     8200.00
00550             -18.00     8000.00
00551             -18.00     8000.00
00552             -18.00     7800.00
00553             -20.00     7800.00
00554             -18.00     7600.00
00555             -16.00     7600.00
00556             -16.00     7200.00
00557             -16.00     7200.00
00558             -12.00     6800.00
00559             -16.00     6800.00
00560             -20.00     6600.00
00561             -18.00     6400.00
00562             -12.00     6200.00
00563             -14.00     6200.00
00564             -12.00     6000.00
00565             -12.00     5800.00
00566             -12.00     5600.00
00567             -12.00     5400.00
00568             -12.00     5400.00
00569              -8.00     5200.00
00570             -10.00     5000.00
00571             -10.00     4600.00
00572             -10.00     4600.00
00573             -12.00     4400.00
00574             -12.00     4000.00
00575             -10.00     4000.00
00576              -8.00     3800.00
00577              -4.00     3600.00
00578             -10.00     3600.00
00579              -6.00     3400.00
00580              -8.00     3200.00
00581             -10.00     3000.00
00582              -4.00     2800.00
00583              -4.00     2400.00
00584              -6.00     2400.00
00585              -8.00     2200.00
00586              -6.00     2000.00
00587              -4.00     1800.00
00588              -4.00     1600.00
00589              -4.00     1400.00
00590              -2.00     1200.00
00591              -4.00     1200.00
00592              -4.00      800.00
00593              -4.00      800.00
00594              -2.00      600.00
00595               0.00      400.00
00596               0.00        0.00
00597               4.00        0.00
00598               4.00     -200.00
00599              12.00     -400.00
00600              28.00     -600.00
00601              12.00     -800.00
00602              -8.00    -1000.00
00603               0.00    -1200.00
00604              16.00    -1200.00
00605              14.00    -1600.00
00606              30.00    -1600.00
00607             144.00    -1600.00
00608             252.00    -2400.00
00609             -88.00    -2600.00
00610            -248.00    -2600.00
00611            -116.00    -2800.00
00612             100.00    -3000.00
00613             -12.00    -2600.00
00614             252.00    -3200.00
00615             106.00    -3800.00
00616            -248.00    -3200.00
00617             220.00    -4000.00
00618             252.00    -4400.00
00619            -248.00    -3400.00
00620             -10.00    -4600.00
00621             252.00    -4800.00
00622            -114.00    -4200.00
00623              36.00    -5200.00
00624               4.00    -5000.00
00625             -68.00    -5000.00
00626             116.00    -5600.00
00627              38.00    -5400.00
00628             -36.00    -5600.00
00629              -8.00    -5800.00
00630              38.00    -6000.00
00631              62.00    -6400.00
00632               4.00    -6400.00
00633              16.00    -6600.00
00634             -26.00    -6600.00
00635              24.00    -6800.00
00636             102.00    -7200.00
00637             -32.00    -7000.00
00638             -24.00    -7400.00
00639              60.00    -7600.00
00640              24.00    -7400.00
00641              16.00    -8000.00
00642               6.00    -7800.00
00643              32.00    -8000.00
00644              30.00    -8400.00
00645               8.00    -8400.00
00646              18.00    -8600.00
00647               8.00    -8600.00
00648              38.00    -8800.00
00649              42.00    -9000.00
00650               0.00    -9000.00
00651              12.00    -9200.00
00652              24.00    -9200.00
00653              26.00    -9600.00
00654              30.00    -9600.00
00655              24.00    -9600.00
00656              18.00    -9800.00
00657              24.00   -10000.00
00658              30.00   -10000.00
00659               8.00   -10000.00
00660              16.00   -10200.00
00661              42.00   -10200.00
00662              26.00   -10400.00
00663              16.00   -10400.00
00664              22.00   -10600.00
00665              20.00   -10600.00
00666              24.00   -10800.00
00667              32.00   -10600.00
00668              24.00   -10800.00
00669              22.00   -10800.00
00670              28.00   -11000.00
00671              22.00   -11000.00
00672              22.00   -11200.00
00673              28.00   -11400.00
00674              24.00   -11400.00
00675              30.00   -11400.00
00676              34.00   -11400.00
00677              22.00   -11600.00
00678              20.00   -11400.00
00679              28.00   -11600.00
00680              28.00   -11400.00
00681              24.00   -11600.00
00682              36.00   -11600.00
00683              28.00   -11600.00
00684              20.00   -11600.00
00685              28.00   -11600.00
00686              24.00   -11600.00
00687              28.00   -11800.00
00688              36.00   -11600.00
00689              28.00   -11800.00
00690              20.00   -11800.00
00691              28.00   -12000.00
00692              24.00   -11600.00
00693              24.00   -11800.00
00694              30.00   -11600.00
00695              28.00   -11800.00
00696              24.00   -11800.00
00697              28.00   -11600.00
00698              22.00   -11600.00
00699              22.00   -11600.00
00700              26.00   -11600.00
00701              28.00   -11600.00
00702              28.00   -11600.00
00703              24.00   -11600.00
00704              24.00   -11400.00
00705              22.00   -11400.00
00706              24.00   -11400.00
00707              28.00   -11400.00
00708              28.00   -11400.00
00709              24.00   -11200.00
00710              22.00   -11400.00
00711              22.00   -11200.00
00712              20.00   -11200.00
00713              20.00   -11200.00
00714              24.00   -10800.00
00715              28.00   -11000.00
00716              22.00   -10800.00
00717              20.00   -10800.00
00718              20.00   -10800.00
00719              20.00   -10600.00
00720              20.00   -10600.00
00721              22.00   -10600.00
00722              22.00   -10400.00
00723              20.00   -10400.00
00724              18.00   -10400.00
00725              16.00   -10200.00
00726              16.00   -10000.00
00727              20.00   -10000.00
00728              20.00    -9800.00
00729              20.00    -9800.00
00730              16.00    -9600.00
00731              14.00    -9600.00
00732              16.00    -9200.00
00733              20.00    -9400.00
00734              20.00    -9200.00
00735              20.00    -9000.00
00736              18.00    -9000.00
00737              16.00    -8800.00
00738              14.00    -8800.00
00739              14.00    -8400.00
00740              16.00    -8400.00
00741              16.00    -8400.00
00742              16.00    -8000.00
00743              14.00    -8000.00
00744              14.00    -7800.00
00745              12.00    -7600.00
00746              12.00    -7600.00
00747              14.00    -7400.00
00748              14.00    -7200.00
00749              14.00    -7000.00
00750              12.00    -7000.00
00751               8.00    -6800.00
00752              12.00    -6800.00
00753              12.00    -6400.00
00754              12.00    -6400.00
00755              14.00    -6000.00
00756               8.00    -6000.00
00757               6.00    -5800.00
00758               6.00    -5400.00
00759               6.00    -5400.00
00760               8.00    -5200.00
00761              10.00    -5200.00
00762               6.00    -4800.00
00763               6.00    -4800.00
00764               4.00    -4600.00
00765               4.00    -4400.00
00766               4.00    -4200.00
00767               6.00    -4000.00
00768               6.00    -3800.00
00769               4.00    -3600.00
00770               4.00    -3600.00
00771               0.00    -3200.00
00772               0.00    -3200.00
00773              -2.00    -3000.00
00774               4.00    -2800.00
00775              -2.00    -2400.00
00776              -2.00    -2600.00
00777              -2.00    -2200.00
00778              -4.00    -2000.00
00779              -4.00    -1800.00
00780              -4.00    -1600.00
00781              -2.00    -1600.00
00782              -2.00    -1200.00
00783              -2.00    -1000.00
00784              -4.00     -800.00
00785              -8.00     -800.00
00786              -4.00     -400.00
00787              -4.00     -400.00
00788              -4.00     -200.00
00789              -4.00        0.00
00790              -2.00      400.00
00791              16.00      400.00
00792              12.00      600.00
00793             -10.00     1000.00
00794             -16.00     1000.00
00795               4.00     1200.00
00796               4.00     1200.00
00797              16.00     1600.00
00798             172.00     1600.00
00799             240.00     2200.00
00800            -236.00     2200.00
00801            -248.00     2400.00
00802             -52.00     2400.00
00803              16.00     2400.00
00804             252.00     3000.00
00805             252.00     3000.00
00806            -248.00     3000.00
00807            -206.00     3600.00
00808             252.00     3400.00
00809            -248.00     4000.00
00810            -248.00     4000.00
00811             252.00     3800.00
00812            -148.00     4800.00
00813            -228.00     4400.00
00814             252.00     4400.00
00815            -228.00     5400.00
00816              28.00     4800.00
00817             152.00     5200.00
00818            -216.00     6000.00
00819              48.00     5200.00
00820              36.00     6000.00
00821             -80.00     6200.00
00822              14.00     5600.00
00823              22.00     6600.00
00824             -20.00     6400.00
00825            -148.00     6400.00
00826              96.00     7000.00
00827              52.00     6800.00
00828            -202.00     7200.00
00829             108.00     7200.00
00830              -8.00     7400.00
00831            -138.00     7600.00
00832              80.00     7400.00
00833             -40.00     8200.00
00834             -32.00     7800.00
00835               4.00     8000.00
00836             -56.00     8400.00
00837             -32.00     8000.00
00838             -12.00     8600.00
00839              20.00     8600.00
00840             -72.00     8600.00
00841             -24.00     9000.00
00842              14.00     9000.00
00843             -88.00     9200.00
00844              12.00     9200.00
00845              -4.00     9400.00
00846             -74.00     9400.00
00847               6.00     9400.00
00848             -12.00    10000.00
00849             -56.00     9600.00
00850             -30.00    10000.00
00851              -4.00    10000.00
00852             -32.00    10000.00
00853             -36.00    10400.00
00854             -14.00    10200.00
00855             -42.00    10400.00
00856             -22.00    10400.00
00857             -12.00    10600.00
00858             -48.00    10600.00
00859             -24.00    10600.00
00860             -14.00    11000.00
00861             -42.00    10800.00
00862             -26.00    11000.00
00863             -20.00    11000.00
00864             -44.00    11200.00
00865             -28.00    11200.00
00866              -4.00    11200.00
00867             -36.00    11400.00
00868             -38.00    11200.00
00869             -20.00    11400.00
00870             -34.00    11400.00
00871             -34.00    11400.00
00872             -20.00    11600.00
00873             -30.00    11600.00
00874             -36.00    11600.00
00875             -24.00    11600.00
00876             -32.00    11600.00
00877             -32.00    11600.00
00878             -22.00    11600.00
00879             -28.00    11600.00
00880             -28.00    11800.00
00881             -24.00    11800.00
00882             -34.00    11600.00
00883             -34.00    11600.00
00884             -22.00    11600.00
00885             -28.00    11600.00
00886             -32.00    11800.00
00887             -20.00    11800.00
00888             -28.00    11800.00
00889             -36.00    11600.00
00890             -26.00    11600.00
00891             -24.00    11600.00
00892             -28.00    11600.00
00893             -24.00    11600.00
00894             -26.00    11600.00
00895             -28.00    11600.00
00896             -26.00    11400.00
00897             -30.00    11400.00
00898             -28.00    11400.00
00899             -20.00    11400.00
00900             -26.00    11200.00
00901             -32.00    11200.00
00902             -26.00    11200.00
00903             -28.00    11200.00
00904             -28.00    11000.00
00905             -26.00    11000.00
00906             -24.00    11000.00
00907             -26.00    11000.00
00908             -26.00    10800.00
00909             -26.00    10800.00
00910             -28.00    10600.00
00911             -26.00    10400.00
00912             -24.00    10400.00
00913             -26.00    10200.00
00914             -26.00    10200.00
00915             -26.00    10000.00
00916             -28.00    10000.00
00917             -26.00    10000.00
00918             -24.00     9800.00
00919             -22.00     9800.00
00920             -24.00     9600.00
00921             -26.00     9600.00
00922             -24.00     9400.00
00923             -24.00     9200.00
00924             -20.00     9200.00
00925             -24.00     9200.00
00926             -20.00     8800.00
00927             -20.00     8800.00
00928             -24.00     8600.00
00929             -20.00     8400.00
00930             -22.00     8400.00
00931             -20.00     8400.00
00932             -20.00     8200.00
00933             -18.00     8000.00
00934             -18.00     7800.00
00935             -20.00     7800.00
00936             -20.00     7600.00
00937             -20.00     7600.00
00938             -18.00     7200.00
00939             -16.00     7200.00
00940             -18.00     7000.00
00941             -16.00     7000.00
00942             -18.00     6800.00
00943             -16.00     6800.00
00944             -18.00     6400.00
00945             -12.00     6000.00
00946             -16.00     6000.00
00947             -16.00     6000.00
00948             -14.00     5600.00
00949             -12.00     5600.00
00950             -12.00     5400.00
00951             -10.00     5200.00
00952             -10.00     5200.00
00953             -10.00     5000.00
00954             -10.00     4800.00
00955             -10.00     4600.00
00956             -12.00     4400.00
00957             -10.00     4000.00
00958              -8.00     4000.00
00959              -8.00     3800.00
00960              -6.00     3600.00
00961              -8.00     3600.00
00962              -8.00     3200.00
00963             -10.00     3000.00
00964              -6.00     2800.00
00965              -4.00     2800.00
00966              -4.00     2400.00
00967              -4.00     2200.00
00968              -8.00     2200.00
00969              -4.00     2000.00
00970              -4.00     1600.00
00971              -4.00     1400.00
00972              -2.00     1400.00
00973              -2.00     1200.00
00974              -2.00     1000.00
00975              -4.00      800.00
00976              -2.00      800.00
00977              -2.00      600.00
00978              -2.00      200.00
00979               2.00        0.00
00980               4.00     -200.00
00981               6.00     -200.00
00982              20.00     -400.00
00983              28.00     -800.00
00984               4.00     -800.00
00985              -8.00     -800.00
00986               8.00    -1000.00
00987              16.00    -1200.00
00988              12.00    -1400.00
00989              54.00    -1600.00
00990             212.00    -1800.00
00991             182.00    -2600.00
00992            -248.00    -2600.00
00993            -248.00    -2800.00
00994              24.00    -3000.00
00995              48.00    -2800.00
00996              68.00    -2600.00
00997             252.00    -3600.00
00998            -208.00    -3600.00
00999            -248.00    -3000.00
01000             252.00    -4200.00
01001             110.00    -4000.00
01002            -248.00    -3800.00
01003             204.00    -4800.00
01004             116.00    -4200.00
01005            -114.00    -4600.00
01006              78.00    -5200.00
01007             -66.00    -4800.00
01008               4.00    -5200.00
01009             118.00    -5600.00
01010             -10.00    -5200.00
01011             -28.00    -5800.00
01012               4.00    -6000.00
01013              56.00    -6200.00
01014              42.00    -6200.00
01015               4.00    -6400.00
01016               6.00    -6800.00
01017             -28.00    -6600.00
01018              72.00    -7200.00
01019              68.00    -7200.00
01020             -60.00    -7000.00
01021              20.00    -7600.00
01022              52.00    -7400.00
01023              16.00    -7600.00
01024              14.00    -8000.00
01025              14.00    -8000.00
01026              42.00    -8200.00
01027              20.00    -8200.00
01028              12.00    -8400.00
01029              16.00    -8400.00
01030              16.00    -8600.00
01031              52.00    -8800.00
01032              28.00    -8800.00
01033               0.00    -9000.00
01034              20.00    -9200.00
01035              22.00    -9400.00
01036              32.00    -9600.00
01037              30.00    -9600.00
01038              20.00    -9600.00
01039              20.00    -9800.00
01040              30.00    -9800.00
01041              24.00   -10000.00
01042              12.00   -10000.00
01043              28.00   -10200.00
01044              38.00   -10400.00
01045              22.00   -10400.00
01046              20.00   -10400.00
01047              24.00   -10600.00
01048              20.00   -10800.00
01049              28.00   -10800.00
01050              30.00   -10800.00
01051              24.00   -10800.00
01052              24.00   -11000.00
01053              28.00   -10800.00
01054              20.00   -11200.00
01055              22.00   -11200.00
01056              28.00   -11200.00
01057              24.00   -11200.00
01058              30.00   -11200.00
01059              30.00   -11400.00
01060              18.00   -11400.00
01061              20.00   -11600.00
01062              30.00   -11400.00
01063              28.00   -11600.00
01064              28.00   -11600.00
01065              32.00   -11600.00
01066              24.00   -11600.00
01067              22.00   -11600.00
01068              28.00   -11600.00
01069              22.00   -11600.00
01070              28.00   -11600.00
01071              30.00   -11600.00
01072              28.00   -11600.00
01073              24.00   -11600.00
01074              28.00   -11600.00
01075              24.00   -11800.00
01076              28.00   -11600.00
01077              30.00   -11600.00
01078              28.00   -11600.00
01079              26.00   -11800.00
01080              26.00   -12000.00
01081              22.00   -11600.00
01082              24.00   -11600.00
01083              30.00   -11600.00
01084              28.00   -11600.00
01085              28.00   -11600.00
01086              24.00   -11600.00
01087              22.00   -11600.00
01088              22.00   -11400.00
01089              24.00   -11400.00
01090              30.00   -11600.00
01091              26.00   -11400.00
01092              26.00   -11400.00
01093              24.00   -11200.00
01094              22.00   -11200.00
01095              22.00   -11200.00
01096              22.00   -11000.00
01097              24.00   -11200.00
01098              26.00   -11000.00
01099              20.00   -10800.00
01100              20.00   -10800.00
01101              20.00   -10800.00
01102              22.00   -10600.00
01103              20.00   -10600.00
01104              24.00   -10600.00
01105              22.00   -10400.00
01106              20.00   -10400.00
01107              16.00   -10200.00
01108              18.00   -10000.00
01109              18.00   -10000.00
01110              20.00   -10000.00
01111              22.00    -9800.00
01112              20.00    -9600.00
01113              14.00    -9600.00
01114              14.00    -9600.00
01115              16.00    -9400.00
01116              16.00    -9200.00
01117              18.00    -9200.00
01118              16.00    -9000.00
01119              14.00    -8800.00
01120              14.00    -8800.00
01121              12.00    -8800.00
01122              14.00    -8600.00
01123              16.00    -8200.00
01124              16.00    -8200.00
01125              14.00    -8000.00
01126              14.00    -8000.00
01127               8.00    -7800.00
01128              14.00    -7600.00
01129              12.00    -7400.00
01130              14.00    -7400.00
01131              12.00    -7200.00
01132              12.00    -7000.00
01133              12.00    -7000.00
01134               6.00    -6800.00
01135               8.00    -6600.00
01136              12.00    -6400.00
01137              12.00    -6200.00
01138              12.00    -6000.00
01139               8.00    -6000.00
01140               8.00    -5600.00
01141               6.00    -5400.00
01142               6.00    -5200.00
01143               6.00    -5200.00
01144               8.00    -5000.00
01145               6.00    -5000.00
01146               6.00    -4800.00
01147               4.00    -4600.00
01148               4.00    -4400.00
01149               4.00    -4000.00
01150               6.00    -4000.00
01151               6.00    -4000.00
01152               4.00    -3600.00
01153               4.00    -3400.00
01154               0.00    -3200.00
01155               0.00    -3200.00
01156               4.00    -3000.00
01157               4.00    -2800.00
01158               0.00    -2600.00
01159               0.00    -2400.00
01160              -2.00    -2200.00
01161              -4.00    -2000.00
01162              -4.00    -1800.00
01163              -2.00    -1600.00
01164              -2.00    -1400.00
01165              -2.00    -1200.00
01166              -4.00    -1200.00
01167              -6.00     -800.00
01168              -8.00     -800.00
01169              -8.00     -400.00
01170              -4.00     -400.00
01171              -2.00     -200.00
01172              -4.00        0.00
01173               4.00      400.00
01174              22.00      400.00
01175               4.00      600.00
01176             -18.00     1000.00
01177             -10.00     1000.00
01178               6.00     1200.00
01179               4.00     1400.00
01180              50.00     1600.00
01181             248.00     2000.00
01182             108.00     2200.00
01183            -248.00     2400.00
01184            -248.00     2400.00
01185              30.00     2400.00
01186              38.00     2800.00
01187             252.00     3000.00
01188              78.00     2800.00
01189            -248.00     3200.00
01190             252.00     3400.00
01191             252.00     3600.00
01192            -248.00     4200.00
01193              36.00     3800.00
01194             252.00     4000.00
01195            -248.00     4800.00
01196              60.00     4000.00
01197             134.00     5000.00
01198            -248.00     5200.00
01199             188.00     4600.00
01200             -20.00     5600.00
01201            -162.00     5600.00
01202             108.00     5200.00
01203             -44.00     6200.00
01204             -42.00     6000.00
01205              22.00     6000.00
01206              24.00     6800.00
01207             -82.00     6200.00
01208            -100.00     6800.00
01209             164.00     7000.00
01210             -96.00     7000.00
01211            -116.00     7200.00
01212             150.00     7400.00
01213            -122.00     7600.00
01214             -44.00     7600.00
01215              68.00     7800.00
01216             -68.00     8000.00
01217               4.00     7600.00
01218             -26.00     8400.00
01219             -44.00     8400.00
01220             -24.00     8200.00
01221              12.00     8800.00
01222              -8.00     8600.00
01223             -80.00     8800.00
01224              20.00     9000.00
01225             -28.00     9200.00
01226             -66.00     9200.00
01227              36.00     9200.00
01228             -52.00     9600.00
01229             -52.00     9400.00
01230              20.00     9600.00
01231             -34.00    10000.00
01232             -50.00     9600.00
01233             -18.00    10000.00
01234             -10.00    10000.00
01235             -42.00    10000.00
01236             -24.00    10200.00
01237             -20.00    10200.00
01238             -46.00    10400.00
01239             -10.00    10600.00
01240             -26.00    10400.00
01241             -44.00    10600.00
01242             -12.00    10800.00
01243             -26.00    11000.00
01244             -40.00    11000.00
01245             -18.00    11000.00
01246             -28.00    11200.00
01247             -44.00    11000.00
01248             -16.00    11000.00
01249             -16.00    11200.00
01250             -42.00    11200.00
01251             -28.00    11400.00
01252             -24.00    11400.00
01253             -40.00    11600.00
01254             -26.00    11400.00
01255             -20.00    11400.00
01256             -34.00    11600.00
01257             -28.00    11600.00
01258             -26.00    11600.00
01259             -36.00    11600.00
01260             -28.00    11800.00
01261             -24.00    11800.00
01262             -32.00    11800.00
01263             -26.00    11600.00
01264             -26.00    11800.00
01265             -36.00    11800.00
01266             -28.00    11800.00
01267             -24.00    11800.00
01268             -32.00    11600.00
01269             -28.00    11600.00
01270             -20.00    11800.00
01271             -32.00    11600.00
01272             -32.00    11600.00
01273             -26.00    11600.00
01274             -26.00    11600.00
01275             -28.00    11600.00
01276             -24.00    11600.00
01277             -28.00    11600.00
01278             -28.00    11600.00
01279             -28.00    11400.00
01280             -28.00    11400.00
01281             -26.00    11200.00
01282             -24.00    11400.00
01283             -26.00    11400.00
01284             -32.00    11200.00
01285             -26.00    11200.00
01286             -28.00    11200.00
01287             -26.00    11200.00
01288             -20.00    11000.00
01289             -26.00    11200.00
01290             -28.00    10800.00
01291             -24.00    10800.00
01292             -26.00    10600.00
01293             -28.00    10600.00
01294             -20.00    10400.00
01295             -26.00    10400.00
01296             -26.00    10200.00
01297             -26.00    10400.00
01298             -26.00    10200.00
01299             -26.00    10000.00
01300             -24.00     9800.00
01301             -24.00    10000.00
01302             -24.00     9600.00
01303             -24.00     9600.00
01304             -24.00     9600.00
01305             -26.00     9400.00
01306             -20.00     9400.00
01307             -24.00     9200.00
01308             -20.00     8800.00
01309             -20.00     8800.00
01310             -20.00     8800.00
01311             -20.00     8600.00
01312             -22.00     8400.00
01313             -24.00     8400.00
01314             -18.00     8200.00
01315             -20.00     8000.00
01316             -20.00     8000.00
01317             -20.00     7800.00
01318             -20.00     7600.00
01319             -20.00     7600.00
01320             -18.00     7400.00
01321             -16.00     7400.00
01322             -18.00     7200.00
01323             -16.00     7000.00
01324             -12.00     7000.00
01325             -18.00     6600.00
01326             -18.00     6600.00
01327             -16.00     6200.00
01328             -12.00     6200.00
01329             -16.00     6000.00
01330             -14.00     5800.00
01331             -14.00     5600.00
01332             -14.00     5600.00
01333             -14.00     5400.00
01334             -10.00     5200.00
01335             -10.00     5000.00
01336             -10.00     4800.00
01337             -10.00     4600.00
01338             -10.00     4600.00
01339             -12.00     4400.00
01340             -10.00     4000.00
01341              -8.00     3800.00
01342              -8.00     3600.00
01343              -8.00     3600.00
01344              -8.00     3200.00
01345              -8.00     3200.00
01346             -10.00     3000.00
01347              -6.00     2800.00
01348              -4.00     2800.00
01349              -4.00     2400.00
01350              -4.00     2400.00
01351              -4.00     2000.00
01352              -4.00     2000.00
01353              -4.00     1800.00
01354              -2.00     1600.00
01355               0.00     1200.00
01356               0.00     1200.00
01357              -4.00     1000.00
01358              -2.00      800.00
01359              -4.00      400.00
01360              -2.00      400.00
01361              -4.00      200.00
01362               4.00        0.00
01363               6.00     -200.00
01364               6.00     -400.00
01365              24.00     -400.00
01366              20.00     -800.00
01367              -4.00    -1000.00
01368              -4.00    -1000.00
01369              14.00    -1200.00
01370              14.00    -1400.00
01371              20.00    -1600.00
01372             100.00    -1600.00
01373             252.00    -2200.00
01374              40.00    -2600.00
01375            -248.00    -2600.00
01376            -228.00    -2800.00
01377             100.00    -2800.00
01378             -10.00    -2800.00
01379             220.00    -2800.00
01380             252.00    -3800.00
01381            -248.00    -3200.00
01382             -36.00    -3600.00
01383             252.00    -4600.00
01384            -228.00    -3600.00
01385            -190.00    -4200.00
01386             252.00    -5000.00
01387             -44.00    -4000.00
01388             -32.00    -5000.00
01389              52.00    -5200.00
01390             -92.00    -4800.00
01391              82.00    -5600.00
01392              78.00    -5600.00
01393             -36.00    -5400.00
01394             -16.00    -5800.00
01395              22.00    -6000.00
01396              68.00    -6000.00
01397              16.00    -6400.00
01398              14.00    -6600.00
01399             -10.00    -6600.00
01400              -8.00    -6600.00
01401             104.00    -7200.00
01402               6.00    -7200.00
01403             -50.00    -7200.00
01404              52.00    -7600.00
01405              36.00    -7400.00
01406              18.00    -7800.00
01407              12.00    -8000.00
01408              24.00    -8000.00
01409              38.00    -8200.00
01410              12.00    -8400.00
01411              18.00    -8400.00
01412              12.00    -8800.00
01413              30.00    -8800.00
01414              50.00    -9000.00
01415              12.00    -9000.00
01416               6.00    -9200.00
01417              22.00    -9200.00
01418              28.00    -9400.00
01419              36.00    -9600.00
01420              26.00    -9600.00
01421              16.00    -9800.00
01422              24.00    -9800.00
01423              32.00   -10000.00
01424              20.00   -10000.00
01425              14.00   -10000.00
01426              36.00   -10200.00
01427              32.00   -10400.00
01428              16.00   -10400.00
01429              24.00   -10600.00
01430              22.00   -10600.00
01431              20.00   -10600.00
01432              30.00   -10800.00
01433              28.00   -10800.00
01434              24.00   -11000.00
01435              30.00   -11000.00
01436              28.00   -11000.00
01437              16.00   -11200.00
01438              26.00   -11200.00
01439              28.00   -11200.00
01440              26.00   -11400.00
01441              34.00   -11200.00
01442              28.00   -11400.00
01443              16.00   -11600.00
01444              28.00   -11400.00
01445              28.00   -11600.00
01446              22.00   -11600.00
01447              32.00   -11600.00
01448              30.00   -11600.00
01449              22.00   -11600.00
01450              22.00   -11600.00
01451              28.00   -11800.00
01452              28.00   -11600.00
01453              30.00   -11800.00
01454              30.00   -11600.00
01455              28.00   -11800.00
01456              22.00   -11600.00
01457              26.00   -11800.00
01458              26.00   -11800.00
01459              28.00   -11800.00
01460              30.00   -11600.00
01461              24.00   -11600.00
01462              28.00   -11800.00
01463              26.00   -11600.00
01464              20.00   -11600.00
01465              24.00   -11600.00
01466              30.00   -11600.00
01467              28.00   -11600.00
01468              28.00   -11600.00
01469              24.00   -11600.00
01470              20.00   -11400.00
01471              22.00   -11600.00
01472              28.00   -11400.00
01473              28.00   -11400.00
01474              28.00   -11400.00
01475              28.00   -11400.00
01476              20.00   -11200.00
01477              22.00   -11200.00
01478              22.00   -11200.00
01479              22.00   -11000.00
01480              28.00   -10800.00
01481              26.00   -11000.00
01482              20.00   -10800.00
01483              20.00   -10800.00
01484              22.00   -10600.00
01485              22.00   -10600.00
01486              22.00   -10600.00
01487              24.00   -10400.00
01488              22.00   -10200.00
01489              16.00   -10400.00
01490              16.00   -10200.00
01491              20.00   -10400.00
01492              18.00   -10000.00
01493              22.00   -10000.00
01494              22.00    -9800.00
01495              16.00    -9600.00
01496              14.00    -9600.00
01497              16.00    -9600.00
01498              16.00    -9200.00
01499              18.00    -9200.00
01500              20.00    -9200.00
01501              18.00    -9000.00
01502              14.00    -9000.00
01503              12.00    -8800.00
01504              14.00    -8600.00
01505              16.00    -8400.00
01506              16.00    -8200.00
01507              14.00    -8200.00
01508              14.00    -8000.00
01509              12.00    -7800.00
01510              12.00    -7800.00
01511               8.00    -7600.00
01512              14.00    -7600.00
01513              12.00    -7400.00
01514              12.00    -7200.00
01515              12.00    -7000.00
01516               8.00    -6800.00
01517               6.00    -6600.00
01518              12.00    -6400.00
01519              10.00    -6400.00
01520              12.00    -6200.00
01521               8.00    -6000.00
01522               8.00    -6000.00
01523               6.00    -5600.00
01524               6.00    -5400.00
01525               4.00    -5200.00
01526               6.00    -5200.00
01527               8.00    -5000.00
01528               6.00    -4800.00
01529               6.00    -4600.00
01530               4.00    -4400.00
01531               4.00    -4400.00
01532               6.00    -4200.00
01533               6.00    -4000.00
01534               6.00    -3600.00
01535               6.00    -3600.00
01536               4.00    -3400.00
01537              -4.00    -3200.00
01538              -4.00    -3000.00
01539              -6.00    -2800.00
01540               4.00    -2600.00
01541               6.00    -2400.00
01542              12.00    -2200.00
01543               4.00    -2000.00
01544              -8.00    -1800.00
01545             -10.00    -1600.00
01546              -4.00    -1400.00
01547               0.00    -1200.00
01548               2.00    -1000.00
01549              -2.00    -1000.00
01550             -10.00     -800.00
01551              -4.00     -400.00
01552               0.00     -400.00
01553              -2.00     -200.00
01554               0.00        0.00
01555              -2.00      200.00
01556               6.00      400.00
01557              20.00      600.00
01558              -2.00      800.00
01559             -18.00      800.00
01560              -4.00     1000.00
01561               4.00     1200.00
01562               4.00     1400.00
01563             118.00     1600.00
01564             252.00     2000.00
01565             -92.00     2200.00
01566            -248.00     2400.00
01567            -156.00     2400.00
01568              32.00     2400.00
01569             164.00     2800.00
01570             252.00     3000.00
01571            -248.00     3000.00
01572            -248.00     3400.00
01573             252.00     3400.00
01574             116.00     3800.00
01575            -248.00     4000.00
01576             252.00     3600.00
01577             142.00     4600.00
01578            -248.00     4400.00
01579             250.00     4200.00
01580             -98.00     5400.00
01581            -122.00     5000.00
01582             220.00     5000.00
01583            -172.00     5600.00
01584             -36.00     5200.00
01585              86.00     5600.00
01586             -84.00     6400.00
01587              -2.00     5600.00
01588              20.00     6400.00
01589              12.00     6800.00
01590            -140.00     6000.00
01591              12.00     7000.00
01592             134.00     7000.00
01593            -196.00     7000.00
01594              28.00     7200.00
01595              82.00     7400.00
01596            -166.00     7600.00
01597              46.00     7400.00
01598               6.00     8000.00
01599             -58.00     8000.00
01600              16.00     7800.00
01601             -48.00     8600.00
01602             -34.00     8200.00
01603             -18.00     8400.00
01604              20.00     8800.00
01605             -48.00     8600.00
01606             -52.00     8800.00
01607              30.00     8800.00
01608             -68.00     9200.00
01609             -18.00     9200.00
01610              22.00     9400.00
01611             -74.00     9400.00
01612             -16.00     9400.00
01613               8.00     9800.00
01614             -50.00     9600.00
01615             -40.00    10000.00
01616              -4.00    10000.00
01617             -22.00    10000.00
01618             -40.00    10200.00
01619             -12.00    10200.00
01620             -34.00    10400.00
01621             -34.00    10400.00
01622              -8.00    10400.00
01623             -42.00    10600.00
01624             -34.00    10800.00
01625              -8.00    10800.00
01626             -36.00    11000.00
01627             -34.00    10800.00
01628             -20.00    11000.00
01629             -38.00    11000.00
01630             -36.00    11200.00
01631              -8.00    11200.00
01632             -26.00    11200.00
01633             -44.00    11200.00
01634             -24.00    11400.00
01635             -28.00    11400.00
01636             -40.00    11600.00
01637             -20.00    11600.00
01638             -26.00    11600.00
01639             -36.00    11600.00
01640             -26.00    11600.00
01641             -32.00    11600.00
01642             -36.00    11600.00
01643             -24.00    11600.00
01644             -26.00    11600.00
01645             -32.00    11600.00
01646             -24.00    11600.00
01647             -32.00    11800.00
01648             -40.00    11800.00
01649             -26.00    11600.00
01650             -26.00    11600.00
01651             -34.00    11600.00
01652             -24.00    11800.00
01653             -26.00    11600.00
01654             -36.00    11600.00
01655             -30.00    11600.00
01656             -26.00    11600.00
01657             -30.00    11600.00
01658             -28.00    11600.00
01659             -26.00    11600.00
01660             -30.00    11600.00
01661             -28.00    11600.00
01662             -28.00    11400.00
01663             -30.00    11600.00
01664             -24.00    11200.00
01665             -26.00    11200.00
01666             -28.00    11400.00
01667             -28.00    11200.00
01668             -26.00    11200.00
01669             -28.00    11000.00
01670             -24.00    11000.00
01671             -24.00    10800.00
01672             -28.00    11000.00
01673             -26.00    10800.00
01674             -26.00    10800.00
01675             -28.00    10800.00
01676             -26.00    10800.00
01677             -20.00    10400.00
01678             -24.00    10200.00
01679             -24.00    10400.00
01680             -24.00    10200.00
01681             -26.00    10200.00
01682             -26.00    10000.00
01683             -20.00    10000.00
01684             -22.00     9600.00
01685             -24.00     9600.00
01686             -24.00     9600.00
01687             -24.00     9400.00
01688             -24.00     9400.00
01689             -24.00     9200.00
01690             -20.00     9200.00
01691             -20.00     8800.00
01692             -20.00     8800.00
01693             -22.00     8600.00
01694             -24.00     8600.00
01695             -20.00     8400.00
01696             -20.00     8400.00
01697             -20.00     8200.00
01698             -18.00     8000.00
01699             -20.00     7800.00
01700             -20.00     7800.00
01701             -20.00     7800.00
01702             -20.00     7600.00
01703             -18.00     7200.00
01704             -16.00     7400.00
01705             -18.00     7000.00
01706             -12.00     6800.00
01707             -20.00     6800.00
01708             -20.00     6600.00
01709             -16.00     6400.00
01710             -16.00     6200.00
01711             -12.00     6000.00
01712             -18.00     6000.00
01713             -14.00     6000.00
01714             -14.00     5600.00
01715             -16.00     5400.00
01716             -10.00     5400.00
01717             -10.00     5200.00
01718             -12.00     5200.00
01719             -10.00     4800.00
01720             -10.00     4600.00
01721             -12.00     4400.00
01722             -12.00     4200.00
01723              -8.00     4000.00
01724              -8.00     3800.00
01725             -10.00     3600.00
01726              -4.00     3600.00
01727             -10.00     3400.00
01728             -10.00     3000.00
01729              -4.00     3000.00
01730              -6.00     2800.00
01731              -4.00     2800.00
01732              -4.00     2400.00
01733              -4.00     2400.00
01734              -4.00     2000.00
01735              -4.00     2000.00
01736              -4.00     1600.00
01737              -2.00     1400.00
01738               0.00     1200.00
01739               0.00     1200.00
01740               0.00      800.00
01741              -2.00      600.00
01742               0.00      600.00
01743              -2.00      400.00
01744               4.00        0.00
01745               6.00     -200.00
01746               6.00     -200.00
01747              14.00     -200.00
01748              30.00     -400.00
01749              10.00     -800.00
01750              -8.00    -1000.00
01751               4.00    -1000.00
01752              20.00    -1200.00
01753              12.00    -1600.00
01754              32.00    -1800.00
01755             162.00    -1800.00
01756             242.00    -2400.00
01757            -136.00    -2800.00
01758            -248.00    -2600.00
01759             -72.00    -3000.00
01760              92.00    -2800.00
01761              -2.00    -2800.00
01762             252.00    -3200.00
01763              20.00    -3800.00
01764            -248.00    -3200.00
01765             252.00    -4000.00
01766             252.00    -4200.00
01767            -248.00    -3600.00
01768              60.00    -4800.00
01769             224.00    -4400.00
01770            -124.00    -4200.00
01771              60.00    -5400.00
01772             -20.00    -5000.00
01773             -54.00    -5000.00
01774             118.00    -5600.00
01775              24.00    -5400.00
01776             -34.00    -5800.00
01777              -4.00    -6000.00
01778              42.00    -6000.00
01779              54.00    -6400.00
01780               4.00    -6400.00
01781              18.00    -6600.00
01782             -26.00    -6600.00
01783              38.00    -6800.00
01784              94.00    -7200.00
01785             -42.00    -7000.00
01786             -12.00    -7400.00
01787              60.00    -7600.00
01788              22.00    -7400.00
01789              12.00    -8000.00
01790               8.00    -7800.00
01791              38.00    -8200.00
01792              28.00    -8200.00
01793              10.00    -8400.00
01794              22.00    -8600.00
01795              12.00    -8800.00
01796              44.00    -8800.00
01797              40.00    -9000.00
01798               2.00    -9000.00
01799              14.00    -9400.00
01800              26.00    -9200.00
01801              32.00    -9400.00
01802              36.00    -9600.00
01803              22.00    -9600.00
01804              20.00    -9800.00
01805              28.00    -9800.00
01806              30.00   -10000.00
01807              12.00   -10000.00
01808              22.00   -10000.00
01809              44.00   -10400.00
01810              24.00   -10400.00
01811              20.00   -10400.00
01812              28.00   -10600.00
01813              22.00   -10600.00
01814              24.00   -10600.00
01815              30.00   -10800.00
01816              26.00   -10800.00
01817              28.00   -10800.00
01818              30.00   -11200.00
01819              20.00   -11200.00
01820              20.00   -11200.00
01821              24.00   -11200.00
01822              24.00   -11200.00
01823              30.00   -11400.00
01824              34.00   -11400.00
01825              22.00   -11400.00
01826              18.00   -11400.00
01827              28.00   -11600.00
01828              28.00   -11600.00
01829              24.00   -11600.00
01830              32.00   -11600.00
01831              28.00   -11600.00
01832              22.00   -11600.00
01833              24.00   -11800.00
01834              24.00   -11600.00
01835              24.00   -11600.00
01836              32.00   -11800.00
01837              28.00   -11600.00
01838              22.00   -11800.00
01839              22.00   -11800.00
01840              24.00   -11800.00
01841              24.00   -11800.00
01842              28.00   -11600.00
01843              28.00   -11600.00
01844              28.00   -11800.00
01845              24.00   -11600.00
01846              24.00   -11600.00
01847              22.00   -11600.00
01848              28.00   -11600.00
01849              30.00   -11600.00
01850              28.00   -11600.00
01851              26.00   -11600.00
01852              24.00   -11600.00
01853              20.00   -11600.00
01854              22.00   -11400.00
01855              28.00   -11400.00
01856              28.00   -11400.00
01857              28.00   -11200.00
01858              22.00   -11200.00
01859              20.00   -11200.00
01860              22.00   -11200.00
01861              24.00   -11000.00
01862              24.00   -10800.00
01863              28.00   -10800.00
01864              22.00   -10800.00
01865              20.00   -10800.00
01866              22.00   -10800.00
01867              22.00   -10600.00
01868              22.00   -10600.00
01869              24.00   -10400.00
01870              24.00   -10400.00
01871              22.00   -10400.00
01872              20.00   -10200.00
01873              18.00   -10200.00
01874              16.00   -10000.00
01875              22.00    -9800.00
01876              22.00    -9800.00
01877              20.00    -9600.00
01878              18.00    -9600.00
01879              16.00    -9600.00
01880              16.00    -9600.00
01881              16.00    -9200.00
01882              18.00    -9200.00
01883              16.00    -9000.00
01884              16.00    -9000.00
01885              14.00    -8800.00
01886              12.00    -8800.00
01887              14.00    -8400.00
01888              14.00    -8200.00
01889              16.00    -8200.00
01890              14.00    -8200.00
01891              12.00    -8000.00
01892              12.00    -8000.00
01893              12.00    -7600.00
01894              12.00    -7600.00
01895              12.00    -7400.00
01896              12.00    -7200.00
01897              12.00    -7200.00
01898               8.00    -7000.00
01899               6.00    -6800.00
01900               8.00    -6600.00
01901               8.00    -6600.00
01902              12.00    -6400.00
01903              12.00    -6000.00
01904               8.00    -6000.00
01905               6.00    -5800.00
01906               6.00    -5600.00
01907               6.00    -5400.00
01908               8.00    -5200.00
01909               8.00    -5000.00
01910              10.00    -5000.00
01911               4.00    -4800.00
01912               6.00    -4800.00
01913               4.00    -4400.00
01914               4.00    -4200.00
01915               4.00    -4000.00
01916               4.00    -4000.00
01917               4.00    -3600.00
01918               2.00    -3400.00
01919               4.00    -3200.00
01920               0.00    -3200.00
01921               2.00    -3000.00
01922               2.00    -2800.00
01923               4.00    -2600.00
01924               0.00    -2400.00
01925              -2.00    -2000.00
01926               0.00    -2000.00
01927              -4.00    -1800.00
01928              -2.00    -1600.00
01929               0.00    -1400.00
01930              -2.00    -1200.00
01931              -2.00    -1000.00
01932              -4.00     -800.00
01933              -4.00     -800.00
01934              -4.00     -400.00
01935              -4.00     -400.00
01936               0.00        0.00
01937               0.00        0.00
01938               0.00      400.00
01939              20.00      600.00
01940              14.00      600.00
01941             -12.00      800.00
01942             -12.00     1000.00
01943               6.00     1200.00
01944               6.00     1400.00
01945              24.00     1600.00
01946             198.00     2000.00
01947             214.00     2200.00
01948            -248.00     2400.00
01949            -248.00     2400.00
01950             -20.00     2400.00
01951              14.00     2400.00
01952             252.00     3000.00
01953             252.00     3000.00
01954            -248.00     3000.00
01955             -48.00     3600.00
01956             252.00     3200.00
01957            -248.00     4000.00
01958            -248.00     3800.00
01959             252.00     3800.00
01960            -248.00     4800.00
01961            -148.00     4400.00
01962             248.00     4600.00
01963            -248.00     5400.00
01964              80.00     4600.00
01965             106.00     5400.00
01966            -212.00     5800.00
01967              72.00     5200.00
01968               8.00     6200.00
01969             -64.00     6200.00
01970              22.00     5600.00
01971               4.00     6400.00
01972             -24.00     6400.00
01973            -152.00     6400.00
01974             102.00     7000.00
01975             -26.00     6800.00
01976            -162.00     7200.00
01977             164.00     7200.00
01978             -48.00     7600.00
01979            -112.00     7600.00
01980              92.00     7600.00
01981             -34.00     8400.00
01982             -52.00     7600.00
01983             -40.00     8400.00
01984             -50.00     8400.00
01985              -4.00     8000.00
01986             -10.00     8800.00
01987               0.00     8600.00
01988             -60.00     8800.00
01989              14.00     9200.00
01990               4.00     8800.00
01991            -100.00     9200.00
01992              22.00     9200.00
01993             -14.00     9600.00
01994             -76.00     9400.00
01995               4.00     9600.00
01996             -10.00    10000.00
01997             -48.00     9600.00
01998             -24.00    10000.00
01999              -8.00    10000.00
02000             -28.00    10000.00
02001             -26.00    10400.00
02002             -20.00    10200.00
02003             -50.00    10400.00
02004             -14.00    10400.00
02005             -12.00    10600.00
02006             -58.00    10800.00
02007             -18.00    10600.00
02008             -10.00    11000.00
02009             -36.00    10800.00
02010             -26.00    11000.00
02011             -22.00    11000.00
02012             -42.00    11000.00
02013             -26.00    11200.00
02014              -6.00    11200.00
02015             -42.00    11200.00
02016             -40.00    11200.00
02017             -22.00    11400.00
02018             -32.00    11400.00
02019             -28.00    11200.00
02020             -26.00    11400.00
02021             -36.00    11600.00
02022             -34.00    11600.00
02023             -26.00    11800.00
02024             -38.00    11600.00
02025             -32.00    11600.00
02026             -18.00    11600.00
02027             -24.00    11600.00
02028             -28.00    11600.00
02029             -26.00    11800.00
02030             -42.00    11800.00
02031             -36.00    11600.00
02032             -26.00    11600.00
02033             -28.00    11800.00
02034             -28.00    11600.00
02035             -26.00    11800.00
02036             -30.00    11800.00
02037             -28.00    11600.00
02038             -32.00    11600.00
02039             -28.00    11600.00
02040             -28.00    11600.00
02041             -32.00    11600.00
02042             -28.00    11600.00
02043             -26.00    11600.00
02044             -28.00    11400.00
02045             -34.00    11200.00
02046             -20.00    11400.00
02047             -24.00    11200.00
02048             -32.00    11200.00
02049             -28.00    11200.00
02050             -32.00    11200.00
02051             -30.00    11200.00
02052             -28.00    11000.00
02053             -24.00    11000.00
02054             -26.00    10800.00
02055             -26.00    11000.00
02056             -20.00    11000.00
02057             -24.00    10800.00
02058             -30.00    10400.00
02059             -26.00    10600.00
02060             -24.00    10400.00
02061             -24.00    10400.00
02062             -26.00    10400.00
02063             -26.00    10200.00
02064             -24.00    10200.00
02065             -24.00    10000.00
02066             -20.00     9800.00
02067             -20.00     9800.00
02068             -24.00     9600.00
02069             -26.00     9600.00
02070             -24.00     9400.00
02071             -24.00     9200.00
02072             -20.00     9200.00
02073             -20.00     9200.00
02074             -18.00     8800.00
02075             -18.00     8800.00
02076             -24.00     8800.00
02077             -20.00     8600.00
02078             -24.00     8400.00
02079             -20.00     8400.00
02080             -20.00     8000.00
02081             -18.00     8000.00
02082             -20.00     7800.00
02083             -18.00     7800.00
02084             -20.00     7600.00
02085             -20.00     7400.00
02086             -16.00     7200.00
02087             -18.00     7200.00
02088             -20.00     7000.00
02089             -14.00     6800.00
02090             -18.00     6800.00
02091             -18.00     6600.00
02092             -16.00     6400.00
02093             -12.00     6200.00
02094             -14.00     6000.00
02095             -16.00     6000.00
02096             -16.00     5600.00
02097             -16.00     5600.00
02098             -16.00     5400.00
02099             -10.00     5200.00
02100             -10.00     5000.00
02101             -12.00     4800.00
02102             -10.00     4600.00
02103             -10.00     4600.00
02104             -12.00     4200.00
02105             -12.00     4200.00
02106             -10.00     4000.00
02107              -8.00     3800.00
02108              -8.00     3600.00
02109              -6.00     3400.00
02110              -8.00     3200.00
02111             -10.00     3000.00
02112              -6.00     2800.00
02113              -4.00     2600.00
02114              -4.00     2400.00
02115              -4.00     2200.00
02116              -4.00     2200.00
02117              -4.00     2000.00
02118              -4.00     1600.00
02119              -4.00     1600.00
02120               0.00     1400.00
02121               0.00     1200.00
02122               0.00     1200.00
02123              -2.00      800.00
02124               0.00      600.00
02125               0.00      400.00
02126               0.00      200.00
02127               4.00        0.00
02128               6.00     -200.00
02129               8.00     -400.00
02130              22.00     -600.00
02131              24.00     -600.00
02132               4.00    -1000.00
02133              -4.00    -1000.00
02134              12.00    -1200.00
02135              20.00    -1200.00
02136              14.00    -1400.00
02137              66.00    -1600.00
02138             230.00    -2000.00
02139             150.00    -2600.00
02140            -248.00    -2800.00
02141            -248.00    -2800.00
02142              54.00    -3000.00
02143              28.00    -3000.00
02144             104.00    -2800.00
02145             252.00    -3600.00
02146            -248.00    -3600.00
02147            -248.00    -3200.00
02148             252.00    -4400.00
02149               6.00    -3800.00
02150            -248.00    -4000.00
02151             244.00    -5000.00
02152              68.00    -4200.00
02153             -96.00    -4800.00
02154              76.00    -5400.00
02155             -84.00    -4800.00
02156              28.00    -5400.00
02157             110.00    -5600.00
02158             -22.00    -5400.00
02159             -26.00    -6000.00
02160               6.00    -6000.00
02161              62.00    -6000.00
02162              30.00    -6400.00
02163               8.00    -6600.00
02164               0.00    -6600.00
02165             -28.00    -6800.00
02166              84.00    -7000.00
02167              50.00    -7200.00
02168             -60.00    -7200.00
02169              28.00    -7600.00
02170              46.00    -7600.00
02171              16.00    -7600.00
02172              12.00    -8000.00
02173              16.00    -8000.00
02174              40.00    -8200.00
02175              14.00    -8200.00
02176              14.00    -8400.00
02177              14.00    -8800.00
02178              20.00    -8600.00
02179              52.00    -8800.00
02180              22.00    -8800.00
02181               4.00    -9200.00
02182              20.00    -9200.00
02183              28.00    -9200.00
02184              34.00    -9600.00
02185              30.00    -9600.00
02186              16.00    -9600.00
02187              22.00    -9800.00
02188              30.00   -10000.00
02189              24.00   -10000.00
02190              12.00   -10000.00
02191              30.00   -10200.00
02192              36.00   -10400.00
02193              20.00   -10400.00
02194              22.00   -10400.00
02195              28.00   -10600.00
02196              22.00   -10600.00
02197              28.00   -10800.00
02198              30.00   -10600.00
02199              24.00   -10800.00
02200              28.00   -11000.00
02201              28.00   -11000.00
02202              20.00   -11200.00
02203              22.00   -11200.00
02204              28.00   -11200.00
02205              28.00   -11200.00
02206              32.00   -11400.00
02207              30.00   -11400.00
02208              20.00   -11400.00
02209              22.00   -11400.00
02210              28.00   -11600.00
02211              24.00   -11600.00
02212              30.00   -11600.00
02213              30.00   -11600.00
02214              22.00   -11600.00
02215              22.00   -11600.00
02216              28.00   -11800.00
02217              24.00   -11600.00
02218              28.00   -11600.00
02219              32.00   -11800.00
02220              24.00   -11800.00
02221              22.00   -12000.00
02222              24.00   -11800.00
02223              22.00   -11800.00
02224              26.00   -11800.00
02225              30.00   -11600.00
02226              26.00   -11800.00
02227              24.00   -11600.00
02228              24.00   -11800.00
02229              22.00   -11800.00
02230              22.00   -11600.00
02231              28.00   -11600.00
02232              24.00   -11600.00
02233              24.00   -11600.00
02234              24.00   -11600.00
02235              20.00   -11800.00
02236              20.00   -11600.00
02237              24.00   -11400.00
02238              28.00   -11400.00
02239              28.00   -11200.00
02240              24.00   -11400.00
02241              22.00   -11200.00
02242              20.00   -11200.00
02243              22.00   -11200.00
02244              22.00   -11200.00
02245              24.00   -11000.00
02246              28.00   -10800.00
02247              22.00   -10800.00
02248              18.00   -10600.00
02249              22.00   -10600.00
02250              20.00   -10600.00
02251              22.00   -10600.00
02252              28.00   -10400.00
02253              22.00   -10400.00
02254              20.00   -10400.00
02255              20.00   -10200.00
02256              20.00   -10000.00
02257              20.00   -10000.00
02258              22.00    -9800.00
02259              22.00    -9800.00
02260              20.00    -9600.00
02261              18.00    -9600.00
02262              16.00    -9600.00
02263              16.00    -9200.00
02264              20.00    -9200.00
02265              20.00    -9200.00
02266              20.00    -9000.00
02267              16.00    -8800.00
02268              16.00    -8800.00
02269              12.00    -8600.00
02270              16.00    -8400.00
02271              16.00    -8400.00
02272              14.00    -8200.00
02273              16.00    -8200.00
02274              12.00    -7800.00
02275              10.00    -7600.00
02276               8.00    -7600.00
02277              14.00    -7400.00
02278              14.00    -7400.00
02279              14.00    -7200.00
02280              12.00    -7000.00
02281               8.00    -6800.00
02282               8.00    -6800.00
02283               8.00    -6600.00
02284               8.00    -6400.00
02285              12.00    -6200.00
02286              10.00    -6000.00
02287               8.00    -5800.00
02288               6.00    -5600.00
02289               6.00    -5600.00
02290               6.00    -5400.00
02291               8.00    -5200.00
02292               8.00    -5000.00
02293               6.00    -4800.00
02294               4.00    -4600.00
02295               2.00    -4600.00
02296               4.00    -4400.00
02297               2.00    -4200.00
02298               6.00    -4000.00
02299               4.00    -3800.00
02300               4.00    -3600.00
02301               0.00    -3400.00
02302              -2.00    -3200.00
02303               0.00    -3000.00
02304               2.00    -2800.00
02305               4.00    -2600.00
02306               4.00    -2400.00
02307               0.00    -2400.00
02308              -2.00    -2000.00
02309              -4.00    -2000.00
02310              -2.00    -1800.00
02311              -2.00    -1600.00
02312               0.00    -1200.00
02313              -2.00    -1200.00
02314              -4.00    -1000.00
02315              -4.00     -800.00
02316              -4.00     -600.00
02317              -4.00     -400.00
02318              -4.00     -200.00
02319               0.00        0.00
02320              -2.00      200.00
02321               6.00      400.00
02322              22.00      600.00
02323               0.00      800.00
02324             -18.00     1000.00
02325              -4.00     1200.00
02326               6.00     1200.00
02327               6.00     1400.00
02328              68.00     1600.00
02329             252.00     2000.00
02330              54.00     2200.00
02331            -248.00     2400.00
02332            -248.00     2400.00
02333              40.00     2400.00
02334              62.00     2800.00
02335             252.00     3000.00
02336             -50.00     3000.00
02337            -248.00     3400.00
02338             252.00     3400.00
02339             252.00     3600.00
02340            -248.00     4000.00
02341             170.00     3800.00
02342             252.00     4200.00
02343            -248.00     4600.00
02344             130.00     4200.00
02345              70.00     5200.00
02346            -234.00     5200.00
02347             212.00     4600.00
02348             -72.00     5800.00
02349            -130.00     5400.00
02350             104.00     5200.00
02351             -62.00     6400.00
02352             -28.00     5800.00
02353              16.00     6000.00
02354              22.00     6800.00
02355            -102.00     6200.00
02356             -74.00     6800.00
02357             164.00     6800.00
02358            -136.00     7000.00
02359             -76.00     7200.00
02360             136.00     7200.00
02361            -146.00     7600.00
02362             -20.00     7400.00
02363              52.00     7800.00
02364             -74.00     8000.00
02365               8.00     7600.00
02366             -34.00     8400.00
02367             -44.00     8400.00
02368             -24.00     8400.00
02369              12.00     8800.00
02370             -18.00     8600.00
02371             -76.00     8800.00
02372              24.00     9000.00
02373             -44.00     9200.00
02374             -52.00     9400.00
02375              38.00     9200.00
02376             -60.00     9400.00
02377             -42.00     9400.00
02378              16.00     9600.00
02379             -42.00    10000.00
02380             -48.00     9800.00
02381             -12.00    10000.00
02382             -10.00    10000.00
02383             -42.00    10200.00
02384             -20.00    10400.00
02385             -20.00    10200.00
02386             -42.00    10400.00
02387              -8.00    10600.00
02388             -28.00    10400.00
02389             -42.00    10800.00
02390             -10.00    10800.00
02391             -28.00    10800.00
02392             -40.00    11000.00
02393             -16.00    11200.00
02394             -32.00    11000.00
02395             -42.00    11000.00
02396             -12.00    11200.00
02397             -18.00    11200.00
02398             -42.00    11200.00
02399             -26.00    11400.00
02400             -24.00    11400.00
02401             -40.00    11600.00
02402             -26.00    11400.00
02403             -20.00    11600.00
02404             -34.00    11400.00
02405             -30.00    11600.00
02406             -28.00    11600.00
02407             -36.00    11600.00
02408             -26.00    11800.00
02409             -26.00    11800.00
02410             -32.00    11600.00
02411             -26.00    11600.00
02412             -28.00    11800.00
02413             -40.00    11800.00
02414             -28.00    11800.00
02415             -24.00    11600.00
02416             -34.00    11600.00
02417             -30.00    11600.00
02418             -26.00    11600.00
02419             -34.00    11800.00
02420             -32.00    11600.00
02421             -28.00    11600.00
02422             -32.00    11600.00
02423             -28.00    11600.00
02424             -28.00    11600.00
02425             -32.00    11600.00
02426             -26.00    11600.00
02427             -28.00    11600.00
02428             -34.00    11400.00
02429             -28.00    11200.00
02430             -22.00    11200.00
02431             -28.00    11200.00
02432             -30.00    11200.00
02433             -26.00    11000.00
02434             -28.00    11200.00
02435             -24.00    11000.00
02436             -24.00    11000.00
02437             -32.00    11000.00
02438             -26.00    10800.00
02439             -26.00    10800.00
02440             -26.00    10600.00
02441             -26.00    10800.00
02442             -26.00    10600.00
02443             -26.00    10400.00
02444             -20.00    10400.00
02445             -20.00    10200.00
02446             -26.00    10200.00
02447             -26.00    10000.00
02448             -26.00    10000.00
02449             -24.00     9800.00
02450             -20.00     9600.00
02451             -20.00     9600.00
02452             -26.00     9400.00
02453             -24.00     9400.00
02454             -22.00     9400.00
02455             -22.00     9200.00
02456             -18.00     9000.00
02457             -18.00     9000.00
02458             -20.00     8800.00
02459             -22.00     8600.00
02460             -20.00     8600.00
02461             -20.00     8400.00
02462             -20.00     8400.00
02463             -16.00     8000.00
02464             -18.00     7800.00
02465             -20.00     8000.00
02466             -18.00     7800.00
02467             -18.00     7600.00
02468             -18.00     7400.00
02469             -14.00     7400.00
02470             -18.00     7000.00
02471             -16.00     7000.00
02472             -12.00     6600.00
02473             -18.00     6800.00
02474             -18.00     6400.00
02475             -16.00     6400.00
02476             -12.00     6200.00
02477             -16.00     6000.00
02478             -14.00     5800.00
02479             -14.00     5600.00
02480             -16.00     5600.00
02481             -12.00     5400.00
02482             -10.00     5000.00
02483             -10.00     5000.00
02484             -12.00     4800.00
02485             -10.00     4600.00
02486             -12.00     4400.00
02487             -12.00     4200.00
02488             -10.00     4000.00
02489              -8.00     3800.00
02490              -8.00     3800.00
02491             -10.00     3600.00
02492             -10.00     3200.00
02493             -10.00     3200.00
02494             -10.00     2800.00
02495              -8.00     2800.00
02496              -4.00     2600.00
02497              -4.00     2400.00
02498              -6.00     2200.00
02499              -4.00     2000.00
02500              -4.00     2000.00
02501              -4.00     1600.00
02502              -4.00     1400.00
02503              -2.00     1400.00
02504              -2.00     1200.00
02505              -2.00     1000.00
02506              -2.00      800.00
02507              -2.00      400.00
02508               0.00      400.00
02509               2.00      200.00
02510               6.00        0.00
02511               4.00     -200.00
02512              10.00     -400.00
02513              28.00     -400.00
02514              16.00     -800.00
02515              -4.00    -1000.00
02516               0.00    -1000.00
02517              18.00    -1200.00
02518              14.00    -1200.00
02519              22.00    -1600.00
02520             116.00    -1600.00
02521             252.00    -2200.00
02522             -10.00    -2600.00
02523            -248.00    -2600.00
02524            -180.00    -3000.00
02525             104.00    -3000.00
02526             -20.00    -2800.00
02527             252.00    -3000.00
02528             220.00    -4000.00
02529            -248.00    -3000.00
02530              70.00    -3600.00
02531             252.00    -4400.00
02532            -248.00    -3400.00
02533            -120.00    -4400.00
02534             252.00    -4800.00
02535             -82.00    -4000.00
02536              -4.00    -5200.00
02537              30.00    -5200.00
02538             -88.00    -4800.00
02539              96.00    -5800.00
02540              60.00    -5400.00
02541             -38.00    -5400.00
02542             -12.00    -6000.00
02543              26.00    -6000.00
02544              64.00    -6400.00
02545              10.00    -6400.00
02546              12.00    -6600.00
02547             -18.00    -6800.00
02548               4.00    -6800.00
02549             104.00    -7200.00
02550             -10.00    -7000.00
02551             -42.00    -7200.00
02552              54.00    -7600.00
02553              30.00    -7600.00
02554              14.00    -7800.00
02555               6.00    -8000.00
02556              28.00    -8000.00
02557              36.00    -8400.00
02558               6.00    -8400.00
02559              18.00    -8400.00
02560              12.00    -8600.00
02561              32.00    -8800.00
02562              44.00    -8800.00
02563               6.00    -9000.00
02564               6.00    -9200.00
02565              22.00    -9200.00
02566              28.00    -9400.00
02567              32.00    -9600.00
02568              24.00    -9600.00
02569              14.00    -9800.00
02570              22.00    -9800.00
02571              30.00   -10000.00
02572              20.00   -10000.00
02573              18.00   -10000.00
02574              38.00   -10200.00
02575              30.00   -10400.00
02576              16.00   -10400.00
02577              24.00   -10600.00
02578              22.00   -10600.00
02579              24.00   -10600.00
02580              30.00   -10800.00
02581              28.00   -10600.00
02582              24.00   -10800.00
02583              30.00   -10800.00
02584              22.00   -11200.00
02585              20.00   -11200.00
02586              28.00   -11200.00
02587              28.00   -11200.00
02588              30.00   -11200.00
02589              36.00   -11400.00
02590              24.00   -11400.00
02591              20.00   -11400.00
02592              26.00   -11600.00
02593              28.00   -11600.00
02594              24.00   -11600.00
02595              32.00   -11600.00
02596              30.00   -11600.00
02597              20.00   -11600.00
02598              22.00   -11600.00
02599              28.00   -11600.00
02600              24.00   -11600.00
02601              30.00   -11600.00
02602              30.00   -11800.00
02603              24.00   -12000.00
02604              22.00   -11600.00
02605              22.00   -11800.00
02606              22.00   -11800.00
02607              28.00   -11800.00
02608              28.00   -11800.00
02609              26.00   -11600.00
02610              24.00   -11600.00
02611              24.00   -11800.00
02612              20.00   -11600.00
02613              24.00   -11600.00
02614              28.00   -11600.00
02615              28.00   -11600.00
02616              24.00   -11600.00
02617              24.00   -11600.00
02618              22.00   -11600.00
02619              20.00   -11400.00
02620              28.00   -11400.00
02621              28.00   -11400.00
02622              28.00   -11400.00
02623              24.00   -11400.00
02624              22.00   -11200.00
02625              20.00   -11200.00
02626              22.00   -11200.00
02627              22.00   -11000.00
02628              28.00   -10800.00
02629              24.00   -10800.00
02630              22.00   -10800.00
02631              22.00   -10800.00
02632              24.00   -10600.00
02633              20.00   -10600.00
02634              22.00   -10400.00
02635              22.00   -10400.00
02636              22.00   -10400.00
02637              20.00   -10200.00
02638              20.00   -10200.00
02639              18.00   -10000.00
02640              20.00    -9800.00
02641              24.00    -9800.00
02642              22.00    -9600.00
02643              20.00    -9600.00
02644              16.00    -9600.00
02645              16.00    -9600.00
02646              16.00    -9200.00
02647              20.00    -9200.00
02648              20.00    -9000.00
02649              20.00    -8800.00
02650              16.00    -8800.00
02651              14.00    -8800.00
02652              14.00    -8400.00
02653              18.00    -8600.00
02654              16.00    -8200.00
02655              16.00    -8200.00
02656              16.00    -8000.00
02657              14.00    -7800.00
02658              12.00    -7600.00
02659              12.00    -7600.00
02660              14.00    -7400.00
02661              16.00    -7200.00
02662              14.00    -7200.00
02663              14.00    -7000.00
02664               8.00    -6800.00
02665               6.00    -6800.00
02666               8.00    -6600.00
02667              12.00    -6400.00
02668               8.00    -6000.00
02669              10.00    -6000.00
02670               6.00    -5800.00
02671               6.00    -5600.00
02672               6.00    -5400.00
02673               6.00    -5400.00
02674               8.00    -5200.00
02675               6.00    -5000.00
02676               6.00    -4800.00
02677               4.00    -4600.00
02678               0.00    -4400.00
02679               4.00    -4400.00
02680               2.00    -4200.00
02681               6.00    -4000.00
02682               4.00    -3600.00
02683               2.00    -3600.00
02684               0.00    -3400.00
02685               0.00    -3200.00
02686               0.00    -3000.00
02687               0.00    -2800.00
02688               2.00    -2600.00
02689               0.00    -2400.00
02690              -2.00    -2400.00
02691              -4.00    -2000.00
02692              -2.00    -1800.00
02693              -2.00    -1600.00
02694              -2.00    -1400.00
02695               0.00    -1200.00
02696              -2.00    -1000.00
02697              -4.00     -800.00
02698              -6.00     -800.00
02699              -4.00     -400.00
02700              -8.00     -400.00
02701              -2.00     -200.00
02702              -2.00        0.00
02703               0.00      200.00
02704              14.00      400.00
02705              20.00      800.00
02706              -8.00      800.00
02707             -16.00     1000.00
02708               0.00     1200.00
02709               6.00     1200.00
02710              12.00     1400.00
02711             140.00     1800.00
02712             252.00     2200.00
02713            -154.00     2200.00
02714            -248.00     2400.00
02715            -112.00     2600.00
02716              28.00     2800.00
02717             220.00     3000.00
02718             252.00     3000.00
02719            -248.00     3000.00
02720            -248.00     3600.00
02721             252.00     3200.00
02722             -68.00     4000.00
02723            -248.00     4000.00
02724             252.00     3800.00
02725              20.00     4600.00
02726            -248.00     4400.00
02727             252.00     4400.00
02728            -160.00     5400.00
02729             -60.00     4800.00
02730             198.00     5000.00
02731            -198.00     5800.00
02732               0.00     5200.00
02733              64.00     5600.00
02734             -86.00     6400.00
02735               6.00     5600.00
02736              20.00     6400.00
02737               0.00     6600.00
02738            -150.00     6200.00
02739              44.00     7000.00
02740             102.00     7000.00
02741            -204.00     7000.00
02742              62.00     7200.00
02743              46.00     7600.00
02744            -162.00     7600.00
02745              62.00     7400.00
02746             -14.00     8000.00
02747             -48.00     7800.00
02748               8.00     7800.00
02749             -52.00     8600.00
02750             -34.00     8000.00
02751             -18.00     8600.00
02752              20.00     8600.00
02753             -58.00     8600.00
02754             -44.00     9000.00
02755              24.00     8800.00
02756             -82.00     9200.00
02757              -4.00     9200.00
02758              12.00     9400.00
02759             -80.00     9600.00
02760              -8.00     9400.00
02761               0.00    10000.00
02762             -52.00    10000.00
02763             -34.00    10000.00
02764              -4.00    10200.00
02765             -26.00    10000.00
02766             -40.00    10200.00
02767             -12.00    10400.00
02768             -38.00    10400.00
02769             -32.00    10400.00
02770              -6.00    10600.00
02771             -44.00    10800.00
02772             -28.00    10800.00
02773             -10.00    10800.00
02774             -36.00    11000.00
02775             -28.00    11000.00
02776             -18.00    11200.00
02777             -40.00    11200.00
02778             -34.00    11000.00
02779              -4.00    11200.00
02780             -28.00    11200.00
02781             -40.00    11200.00
02782             -20.00    11400.00
02783             -30.00    11400.00
02784             -38.00    11200.00
02785             -16.00    11600.00
02786             -26.00    11600.00
02787             -34.00    11400.00
02788             -26.00    11600.00
02789             -32.00    11600.00
02790             -34.00    11600.00
02791             -24.00    11600.00
02792             -26.00    11600.00
02793             -28.00    11600.00
02794             -22.00    11600.00
02795             -36.00    11800.00
02796             -36.00    11800.00
02797             -26.00    11600.00
02798             -26.00    11800.00
02799             -34.00    11800.00
02800             -28.00    11800.00
02801             -26.00    11800.00
02802             -32.00    11600.00
02803             -32.00    11600.00
02804             -28.00    11600.00
02805             -28.00    11600.00
02806             -24.00    11600.00
02807             -32.00    11600.00
02808             -32.00    11600.00
02809             -26.00    11400.00
02810             -32.00    11400.00
02811             -32.00    11200.00
02812             -24.00    11200.00
02813             -22.00    11200.00
02814             -32.00    11200.00
02815             -28.00    11200.00
02816             -28.00    11000.00
02817             -28.00    11000.00
02818             -26.00    11000.00
02819             -26.00    11000.00
02820             -26.00    10800.00
02821             -24.00    10800.00
02822             -26.00    10800.00
02823             -26.00    10400.00
02824             -24.00    10600.00
02825             -20.00    10600.00
02826             -24.00    10400.00
02827             -26.00    10200.00
02828             -26.00    10200.00
02829             -26.00    10000.00
02830             -26.00    10000.00
02831             -22.00     9800.00
02832             -24.00     9600.00
02833             -20.00     9600.00
02834             -24.00     9600.00
02835             -24.00     9400.00
02836             -20.00     9200.00
02837             -24.00     9200.00
02838             -20.00     9200.00
02839             -20.00     9000.00
02840             -20.00     8800.00
02841             -20.00     8800.00
02842             -20.00     8600.00
02843             -20.00     8400.00
02844             -18.00     8400.00
02845             -18.00     8200.00
02846             -16.00     8000.00
02847             -18.00     8000.00
02848             -20.00     7800.00
02849             -20.00     7600.00
02850             -16.00     7600.00
02851             -16.00     7200.00
02852             -12.00     7200.00
02853             -18.00     7000.00
02854             -10.00     7000.00
02855             -16.00     6800.00
02856             -18.00     6400.00
02857             -16.00     6400.00
02858             -12.00     6400.00
02859             -12.00     6000.00
02860             -12.00     6000.00
02861             -12.00     5600.00
02862             -14.00     5600.00
02863             -16.00     5600.00
02864             -10.00     5200.00
02865             -12.00     5200.00
02866             -12.00     4800.00
02867             -10.00     4800.00
02868             -12.00     4600.00
02869             -12.00     4400.00
02870             -10.00     4000.00
02871             -10.00     3800.00
02872              -6.00     3800.00
02873              -8.00     3600.00
02874             -10.00     3600.00
02875              -8.00     3200.00
02876             -10.00     3000.00
02877              -6.00     3000.00
02878              -8.00     2600.00
02879              -4.00     2400.00
02880              -4.00     2400.00
02881              -8.00     2200.00
02882              -8.00     2000.00
02883              -4.00     1800.00
02884              -4.00     1600.00
02885              -4.00     1400.00
02886              -2.00     1200.00
02887              -4.00     1000.00
02888              -2.00      800.00
02889              -4.00      600.00
02890              -2.00      400.00
02891               0.00      200.00
02892               4.00        0.00
02893               6.00     -200.00
02894               6.00     -200.00
02895              16.00     -400.00
02896              28.00     -600.00
02897               8.00    -1000.00
02898              -8.00     -800.00
02899               8.00    -1200.00
02900              18.00    -1400.00
02901              12.00    -1600.00
02902              40.00    -1600.00
02903             182.00    -1800.00
02904             224.00    -2400.00
02905            -186.00    -2600.00
02906            -248.00    -2600.00
02907             -26.00    -2800.00
02908              76.00    -2800.00
02909              22.00    -2800.00
02910             252.00    -3400.00
02911             -74.00    -3800.00
02912            -248.00    -3200.00
02913             252.00    -4200.00
02914             252.00    -4000.00
02915            -248.00    -3600.00
02916             126.00    -4800.00
02917             188.00    -4400.00
02918            -128.00    -4400.00
02919              68.00    -5400.00
02920             -42.00    -4800.00
02921             -28.00    -5200.00
02922             124.00    -5600.00
02923               6.00    -5200.00
02924             -30.00    -5800.00
02925              -4.00    -6000.00
02926              52.00    -6000.00
02927              52.00    -6400.00
02928               0.00    -6400.00
02929              12.00    -6600.00
02930             -30.00    -6600.00
02931              50.00    -7000.00
02932              86.00    -7200.00
02933             -54.00    -7200.00
02934               0.00    -7600.00
02935              54.00    -7600.00
02936              20.00    -7600.00
02937              14.00    -8000.00
02938               8.00    -7800.00
02939              40.00    -8200.00
02940              22.00    -8200.00
02941               8.00    -8400.00
02942              20.00    -8600.00
02943               8.00    -8800.00
02944              46.00    -8800.00
02945              30.00    -9000.00
02946               0.00    -9000.00
02947              14.00    -9200.00
02948              24.00    -9200.00
02949              30.00    -9600.00
02950              30.00    -9600.00
02951              20.00    -9800.00
02952              16.00    -9800.00
02953              28.00    -9800.00
02954              30.00   -10000.00
02955              12.00   -10000.00
02956              22.00   -10200.00
02957              38.00   -10400.00
02958              22.00   -10600.00
02959              20.00   -10400.00
02960              26.00   -10600.00
02961              22.00   -10800.00
02962              24.00   -10800.00
02963              30.00   -10800.00
02964              24.00   -10800.00
02965              28.00   -11000.00
02966              30.00   -10800.00
02967              22.00   -11000.00
02968              22.00   -11200.00
02969              28.00   -11200.00
02970              26.00   -11200.00
02971              32.00   -11400.00
02972              32.00   -11400.00
02973              20.00   -11400.00
02974              22.00   -11400.00
02975              30.00   -11600.00
02976              28.00   -11600.00
02977              28.00   -11400.00
02978              30.00   -11600.00
02979              24.00   -11600.00
02980              22.00   -11600.00
02981              28.00   -11600.00
02982              28.00   -11600.00
02983              28.00   -11600.00
02984              36.00   -11600.00
02985              28.00   -11600.00
02986              22.00   -11600.00
02987              28.00   -11800.00
02988              24.00   -11800.00
02989              28.00   -12000.00
02990              32.00   -11600.00
02991              28.00   -12000.00
02992              24.00   -11600.00
02993              24.00   -11800.00
02994              22.00   -11600.00
02995              22.00   -11800.00
02996              28.00   -11600.00
02997              28.00   -11600.00
02998              24.00   -11600.00
02999              28.00   -11600.00
03000              22.00   -11400.00
03001              20.00   -11400.00
03002              22.00   -11600.00
03003              26.00   -11400.00
03004              24.00   -11400.00
03005              28.00   -11400.00
03006              20.00   -11400.00
03007              20.00   -11200.00
03008              20.00   -11000.00
03009              22.00   -11200.00
03010              22.00   -11000.00
03011              26.00   -10800.00
03012              22.00   -10800.00
03013              20.00   -10800.00
03014              20.00   -10800.00
03015              20.00   -10600.00
03016              20.00   -10600.00
03017              22.00   -10400.00
03018              22.00   -10400.00
03019              20.00   -10200.00
03020              16.00   -10400.00
03021              20.00   -10400.00
03022              16.00   -10000.00
03023              20.00   -10000.00
03024              22.00    -9800.00
03025              20.00    -9600.00
03026              18.00    -9600.00
03027              16.00    -9400.00
03028              18.00    -9200.00
03029              18.00    -9200.00
03030              20.00    -9000.00
03031              20.00    -9000.00
03032              16.00    -8800.00
03033              14.00    -8800.00
03034              16.00    -8600.00
03035              14.00    -8400.00
03036              16.00    -8400.00
03037              20.00    -8000.00
03038              16.00    -8000.00
03039              14.00    -8000.00
03040              12.00    -7600.00
03041              12.00    -7600.00
03042              14.00    -7400.00
03043              14.00    -7400.00
03044              14.00    -7200.00
03045              12.00    -7000.00
03046              12.00    -6800.00
03047              10.00    -6600.00
03048               8.00    -6600.00
03049              10.00    -6400.00
03050              12.00    -6000.00
03051              12.00    -6000.00
03052               8.00    -6000.00
03053               8.00    -5800.00
03054               6.00    -5400.00
03055               6.00    -5600.00
03056               6.00    -5200.00
03057               8.00    -5000.00
03058               8.00    -5000.00
03059               6.00    -4800.00
03060               4.00    -4600.00
03061               4.00    -4400.00
03062               4.00    -4200.00
03063               4.00    -4000.00
03064               6.00    -3600.00
03065               4.00    -3600.00
03066               0.00    -3600.00
03067              -2.00    -3200.00
03068              -2.00    -3200.00
03069               0.00    -3000.00
03070               0.00    -2600.00
03071               4.00    -2400.00
03072              -2.00    -2400.00
03073              -4.00    -2400.00
03074              -2.00    -1800.00
03075              -4.00    -1800.00
03076              -4.00    -1600.00
03077              -2.00    -1400.00
03078              -2.00    -1200.00
03079              -4.00    -1000.00
03080              -4.00     -800.00
03081              -6.00     -600.00
03082              -6.00     -400.00
03083              -4.00     -400.00
03084              -4.00        0.00
03085              -2.00        0.00
03086               0.00      400.00
03087              22.00      600.00
03088               8.00      600.00
03089             -16.00     1000.00
03090             -12.00     1000.00
03091               6.00     1200.00
03092               4.00     1400.00
03093              36.00     1600.00
03094             222.00     2000.00
03095             176.00     2200.00
03096            -248.00     2400.00
03097            -248.00     2400.00
03098               8.00     2400.00
03099              20.00     2800.00
03100             252.00     3200.00
03101             246.00     3000.00
03102            -248.00     3200.00
03103             124.00     3600.00
03104             252.00     3600.00
03105            -248.00     4200.00
03106            -178.00     4000.00
03107             252.00     4000.00
03108            -248.00     4800.00
03109             -60.00     4200.00
03110             210.00     4800.00
03111            -248.00     5400.00
03112             132.00     4800.00
03113              54.00     5400.00
03114            -192.00     5800.00
03115              90.00     5200.00
03116             -18.00     6200.00
03117             -56.00     6000.00
03118              20.00     6000.00
03119              22.00     6800.00
03120             -50.00     6400.00
03121            -132.00     6600.00
03122             142.00     7000.00
03123             -34.00     6800.00
03124            -164.00     7200.00
03125             140.00     7200.00
03126             -80.00     7600.00
03127             -92.00     7400.00
03128              76.00     7600.00
03129             -60.00     8000.00
03130             -10.00     7600.00
03131             -16.00     8400.00
03132             -50.00     8400.00
03133             -26.00     8000.00
03134              -2.00     8600.00
03135               6.00     8400.00
03136             -84.00     8800.00
03137               0.00     8800.00
03138              -8.00     9000.00
03139             -78.00     9200.00
03140              30.00     9200.00
03141             -32.00     9600.00
03142             -64.00     9200.00
03143              14.00     9600.00
03144             -26.00     9800.00
03145             -52.00     9600.00
03146             -24.00    10000.00
03147              -4.00    10200.00
03148             -40.00    10000.00
03149             -28.00    10400.00
03150             -16.00    10200.00
03151             -44.00    10400.00
03152             -16.00    10600.00
03153             -20.00    10600.00
03154             -48.00    10600.00
03155             -16.00    10800.00
03156             -20.00    10800.00
03157             -42.00    11000.00
03158             -20.00    10800.00
03159             -26.00    11200.00
03160             -44.00    11200.00
03161             -20.00    11200.00
03162             -10.00    11200.00
03163             -40.00    11200.00
03164             -32.00    11400.00
03165             -20.00    11200.00
03166             -36.00    11200.00
03167             -28.00    11400.00
03168             -18.00    11600.00
03169             -30.00    11600.00
03170             -32.00    11600.00
03171             -24.00    11600.00
03172             -34.00    11600.00
03173             -28.00    11800.00
03174             -24.00    11600.00
03175             -28.00    11800.00
03176             -26.00    11800.00
03177             -24.00    11800.00
03178             -36.00    11800.00
03179             -32.00    11600.00
03180             -20.00    11600.00
03181             -28.00    11800.00
03182             -32.00    11800.00
03183             -26.00    11800.00
03184             -26.00    11600.00
03185             -36.00    11600.00
03186             -28.00    11600.00
03187             -26.00    11600.00
03188             -28.00    11600.00
03189             -26.00    11600.00
03190             -28.00    11600.00
03191             -32.00    11600.00
03192             -26.00    11600.00
03193             -32.00    11400.00
03194             -32.00    11200.00
03195             -24.00    11200.00
03196             -28.00    11200.00
03197             -32.00    11200.00
03198             -28.00    11200.00
03199             -28.00    11000.00
03200             -28.00    11200.00
03201             -26.00    11000.00
03202             -26.00    10800.00
03203             -28.00    10800.00
03204             -26.00    10800.00
03205             -28.00    10800.00
03206             -28.00    10600.00
03207             -24.00    10400.00
03208             -24.00    10400.00
03209             -26.00    10200.00
03210             -26.00    10400.00
03211             -26.00    10000.00
03212             -28.00    10200.00
03213             -26.00    10000.00
03214             -24.00    10000.00
03215             -24.00     9600.00
03216             -20.00     9600.00
03217             -24.00     9600.00
03218             -26.00     9400.00
03219             -24.00     9200.00
03220             -24.00     9200.00
03221             -24.00     9000.00
03222             -20.00     9000.00
03223             -24.00     8800.00
03224             -24.00     8600.00
03225             -20.00     8600.00
03226             -20.00     8400.00
03227             -18.00     8400.00
03228             -20.00     8200.00
03229             -18.00     8000.00
03230             -18.00     8000.00
03231             -18.00     7600.00
03232             -20.00     7600.00
03233             -18.00     7400.00
03234             -18.00     7400.00
03235             -16.00     7200.00
03236             -18.00     7200.00
03237             -12.00     6800.00
03238             -18.00     6800.00
03239             -16.00     6400.00
03240             -16.00     6400.00
03241             -16.00     6400.00
03242             -12.00     6000.00
03243             -12.00     6000.00
03244             -14.00     5600.00
03245             -12.00     5600.00
03246             -12.00     5400.00
03247             -10.00     5200.00
03248             -10.00     5000.00
03249             -10.00     4800.00
03250             -12.00     4800.00
03251             -10.00     4600.00
03252             -10.00     4400.00
03253             -12.00     4000.00
03254              -8.00     3800.00
03255              -8.00     3800.00
03256             -10.00     3600.00
03257             -10.00     3200.00
03258             -10.00     3200.00
03259              -8.00     3000.00
03260              -8.00     2800.00
03261              -4.00     2600.00
03262              -6.00     2400.00
03263              -4.00     2400.00
03264              -6.00     2200.00
03265              -4.00     2000.00
03266              -4.00     1800.00
03267              -4.00     1600.00
03268              -4.00     1400.00
03269              -2.00     1200.00
03270              -4.00      800.00
03271              -4.00      800.00
03272              -2.00      600.00
03273              -2.00      400.00
03274              -2.00        0.00
03275               4.00        0.00
03276               6.00     -200.00
03277               6.00     -400.00
03278              22.00     -400.00
03279              22.00     -600.00
03280              -4.00    -1000.00
03281              -4.00    -1000.00
03282              14.00    -1200.00
03283              16.00    -1400.00
03284              14.00    -1600.00
03285              76.00    -1800.00
03286             244.00    -2000.00
03287             108.00    -2600.00
03288            -248.00    -2600.00
03289            -248.00    -2800.00
03290              78.00    -2800.00
03291              16.00    -2800.00
03292             144.00    -2800.00
03293             252.00    -3600.00
03294            -248.00    -3400.00
03295            -186.00    -3400.00
03296             252.00    -4400.00
03297             -72.00    -3600.00
03298            -248.00    -4000.00
03299             240.00    -5000.00
03300              48.00    -4200.00
03301             -58.00    -5000.00
03302              28.00    -5200.00
03303             -64.00    -4800.00
03304              72.00    -5600.00
03305              60.00    -5600.00
03306             -12.00    -5400.00
03307               4.00    -5800.00
03308             -24.00    -6000.00
03309              76.00    -6200.00
03310              52.00    -6400.00
03311             -18.00    -6400.00
03312              -2.00    -6600.00
03313               0.00    -6800.00
03314              76.00    -7200.00
03315              34.00    -7200.00
03316             -48.00    -7200.00
03317              28.00    -7600.00
03318              44.00    -7400.00
03319              24.00    -7800.00
03320               2.00    -8000.00
03321              20.00    -8000.00
03322              46.00    -8200.00
03323               4.00    -8400.00
03324              16.00    -8400.00
03325              20.00    -8600.00
03326              16.00    -8800.00
03327              46.00    -8800.00
03328              22.00    -9000.00
03329               4.00    -9200.00
03330              20.00    -9200.00
03331              30.00    -9200.00
03332              28.00    -9600.00
03333              22.00    -9600.00
03334              24.00    -9600.00
03335              22.00    -9800.00
03336              30.00   -10000.00
03337              24.00   -10000.00
03338               8.00   -10000.00
03339              30.00   -10400.00
03340              40.00   -10200.00
03341              20.00   -10400.00
03342              20.00   -10400.00
03343              24.00   -10400.00
03344              22.00   -10600.00
03345              28.00   -10800.00
03346              32.00   -10800.00
03347              24.00   -10800.00
03348              28.00   -11000.00
03349              28.00   -11000.00
03350              20.00   -11200.00
03351              24.00   -11200.00
03352              28.00   -11200.00
03353              26.00   -11200.00
03354              32.00   -11200.00
03355              30.00   -11400.00
03356              18.00   -11400.00
03357              24.00   -11600.00
03358              32.00   -11400.00
03359              26.00   -11600.00
03360              28.00   -11600.00
03361              32.00   -11600.00
03362              22.00   -11600.00
03363              22.00   -11600.00
03364              28.00   -11800.00
03365              24.00   -11600.00
03366              28.00   -12000.00
03367              34.00   -11600.00
03368              28.00   -11800.00
03369              22.00   -12000.00
03370              24.00   -11600.00
03371              28.00   -11800.00
03372              28.00   -11800.00
03373              32.00   -11600.00
03374              28.00   -11800.00
03375              24.00   -11600.00
03376              24.00   -11600.00
03377              22.00   -11600.00
03378              24.00   -11600.00
03379              28.00   -11600.00
03380              28.00   -11600.00
03381              28.00   -11800.00
03382              28.00   -11600.00
03383              20.00   -11600.00
03384              22.00   -11400.00
03385              24.00   -11600.00
03386              28.00   -11400.00
03387              28.00   -11400.00
03388              24.00   -11200.00
03389              20.00   -11200.00
03390              20.00   -11200.00
03391              22.00   -11200.00
03392              22.00   -11200.00
03393              24.00   -11000.00
03394              24.00   -11000.00
03395              20.00   -10800.00
03396              18.00   -10800.00
03397              20.00   -10800.00
03398              22.00   -10600.00
03399              22.00   -10600.00
03400              22.00   -10400.00
03401              20.00   -10400.00
03402              18.00   -10400.00
03403              14.00   -10400.00
03404              16.00   -10000.00
03405              20.00   -10000.00
03406              20.00   -10000.00
03407              16.00    -9600.00
03408              18.00    -9600.00
03409              16.00    -9600.00
03410              14.00    -9200.00
03411              14.00    -9200.00
03412              20.00    -9200.00
03413              20.00    -9200.00
03414              20.00    -8800.00
03415              16.00    -8800.00
03416              12.00    -8800.00
03417              14.00    -8600.00
03418              14.00    -8600.00
03419              14.00    -8200.00
03420              20.00    -8200.00
03421              16.00    -8000.00
03422              12.00    -7800.00
03423               8.00    -7600.00
03424              12.00    -7600.00
03425              14.00    -7600.00
03426              14.00    -7400.00
03427              14.00    -7200.00
03428              14.00    -7000.00
03429               8.00    -6800.00
03430               8.00    -6800.00
03431              10.00    -6600.00
03432               8.00    -6400.00
03433              12.00    -6000.00
03434              12.00    -6000.00
03435               8.00    -6000.00
03436               6.00    -5600.00
03437               6.00    -5400.00
03438               6.00    -5200.00
03439               8.00    -5200.00
03440               8.00    -5000.00
03441               6.00    -4800.00
03442               6.00    -4800.00
03443               4.00    -4400.00
03444               4.00    -4400.00
03445               6.00    -4200.00
03446               4.00    -4000.00
03447               4.00    -3800.00
03448               0.00    -3600.00
03449              -2.00    -3600.00
03450               0.00    -3200.00
03451              -2.00    -3200.00
03452               0.00    -2800.00
03453               0.00    -2800.00
03454               4.00    -2400.00
03455              -2.00    -2400.00
03456              -4.00    -2000.00
03457              -4.00    -2000.00
03458              -4.00    -1800.00
03459              -2.00    -1600.00
03460              -2.00    -1200.00
03461              -2.00    -1000.00
03462              -4.00    -1000.00
03463              -8.00     -800.00
03464              -8.00     -600.00
03465              -8.00     -400.00
03466              -2.00     -200.00
03467              -2.00        0.00
03468              -4.00      200.00
03469               6.00      400.00
03470              22.00      600.00
03471              -2.00     1000.00
03472             -18.00     1000.00
03473              -4.00     1000.00
03474               6.00     1200.00
03475               4.00     1400.00
03476              84.00     1800.00
03477             252.00     2000.00
03478              -2.00     2200.00
03479            -248.00     2400.00
03480            -228.00     2400.00
03481              42.00     2400.00
03482             102.00     2800.00
03483             252.00     3000.00
03484            -192.00     3000.00
03485            -248.00     3400.00
03486             252.00     3400.00
03487             252.00     3800.00
03488            -248.00     4200.00
03489             252.00     3800.00
03490             252.00     4400.00
03491            -248.00     4600.00
03492             156.00     4200.00
03493               4.00     5200.00
03494            -156.00     5200.00
03495             192.00     4800.00
03496            -136.00     5600.00
03497             -44.00     5200.00
03498              80.00     5400.00
03499            -104.00     6400.00
03500              28.00     5800.00
03501              12.00     6000.00
03502              -8.00     6800.00
03503             -92.00     6200.00
03504             -42.00     6800.00
03505             140.00     6800.00
03506            -148.00     7000.00
03507             -32.00     7200.00
03508             110.00     7400.00
03509            -156.00     7600.00
03510              14.00     7400.00
03511              30.00     8000.00
03512             -66.00     8000.00
03513              14.00     7800.00
03514             -44.00     8400.00
03515             -34.00     8000.00
03516             -24.00     8400.00
03517              12.00     8800.00
03518             -26.00     8400.00
03519             -68.00     9200.00
03520              24.00     8800.00
03521             -52.00     9200.00
03522             -38.00     9200.00
03523              30.00     9200.00
03524             -68.00     9600.00
03525             -28.00     9400.00
03526               8.00     9800.00
03527             -44.00     9600.00
03528             -42.00     9600.00
03529             -12.00    10000.00
03530             -18.00    10000.00
03531             -42.00    10200.00
03532             -18.00    10200.00
03533             -28.00    10400.00
03534             -40.00    10400.00
03535              -8.00    10400.00
03536             -36.00    10800.00
03537             -42.00    10600.00
03538             -10.00    10800.00
03539             -34.00    10800.00
03540             -36.00    10800.00
03541             -20.00    11200.00
03542             -36.00    11200.00
03543             -40.00    11200.00
03544             -10.00    11200.00
03545             -20.00    11200.00
03546             -44.00    11200.00
03547             -26.00    11400.00
03548             -26.00    11400.00
03549             -40.00    11400.00
03550             -22.00    11600.00
03551             -24.00    11600.00
03552             -34.00    11600.00
03553             -28.00    11600.00
03554             -26.00    11800.00
03555             -34.00    11600.00
03556             -26.00    11600.00
03557             -24.00    11600.00
03558             -32.00    11800.00
03559             -26.00    11800.00
03560             -26.00    11800.00
03561             -38.00    11600.00
03562             -26.00    11800.00
03563             -24.00    11800.00
03564             -32.00    11600.00
03565             -28.00    11800.00
03566             -24.00    11800.00
03567             -34.00    11600.00
03568             -32.00    11600.00
03569             -26.00    11600.00
03570             -26.00    11800.00
03571             -26.00    11600.00
03572             -28.00    11600.00
03573             -28.00    11600.00
03574             -28.00    11600.00
03575             -28.00    11400.00
03576             -32.00    11600.00
03577             -26.00    11200.00
03578             -20.00    11400.00
03579             -30.00    11200.00
03580             -32.00    11200.00
03581             -28.00    11200.00
03582             -28.00    11200.00
03583             -26.00    11200.00
03584             -24.00    11000.00
03585             -28.00    11000.00
03586             -26.00    10800.00
03587             -26.00    10800.00
03588             -28.00    10600.00
03589             -28.00    10600.00
03590             -24.00    10400.00
03591             -26.00    10200.00
03592             -26.00    10400.00
03593             -24.00    10200.00
03594             -26.00    10000.00
03595             -26.00    10000.00
03596             -24.00    10000.00
03597             -24.00     9800.00
03598             -24.00    10000.00
03599             -24.00     9600.00
03600             -26.00     9600.00
03601             -26.00     9400.00
03602             -24.00     9400.00
03603             -22.00     9200.00
03604             -20.00     8800.00
03605             -20.00     8800.00
03606             -20.00     8800.00
03607             -24.00     8600.00
03608             -20.00     8400.00
03609             -20.00     8400.00
03610             -20.00     8200.00
03611             -16.00     8000.00
03612             -20.00     8000.00
03613             -20.00     7800.00
03614             -20.00     7600.00
03615             -18.00     7600.00
03616             -18.00     7400.00
03617             -16.00     7200.00
03618             -18.00     7400.00
03619             -14.00     7000.00
03620             -14.00     6800.00
03621             -18.00     6600.00
03622             -16.00     6400.00
03623             -16.00     6400.00
03624             -12.00     6200.00
03625             -14.00     6000.00
03626             -12.00     5800.00
03627             -12.00     5800.00
03628             -12.00     5600.00
03629             -12.00     5200.00
03630             -10.00     5200.00
03631             -10.00     5000.00
03632             -10.00     4800.00
03633             -10.00     4600.00
03634             -10.00     4600.00
03635             -14.00     4200.00
03636              -8.00     4000.00
03637              -4.00     3800.00
03638              -8.00     3600.00
03639              -4.00     3600.00
03640              -8.00     3200.00
03641              -8.00     3200.00
03642              -8.00     3000.00
03643              -4.00     2800.00
03644              -4.00     2600.00
03645              -4.00     2400.00
03646              -8.00     2200.00
03647              -8.00     2000.00
03648              -4.00     2000.00
03649              -6.00     1600.00
03650              -4.00     1400.00
03651              -2.00     1200.00
03652              -2.00     1200.00
03653              -2.00      800.00
03654              -4.00      800.00
03655              -2.00      600.00
03656              -2.00      400.00
03657               0.00        0.00
03658               4.00     -200.00
03659               4.00     -200.00
03660              12.00     -400.00
03661              26.00     -600.00
03662              14.00     -800.00
03663              -8.00    -1000.00
03664              -2.00    -1200.00
03665              16.00    -1200.00
03666              14.00    -1400.00
03667              24.00    -1800.00
03668             134.00    -1600.00
03669             252.00    -2400.00
03670             -64.00    -2600.00
03671            -248.00    -2600.00
03672            -136.00    -2800.00
03673             106.00    -2800.00
03674             -16.00    -2600.00
03675             252.00    -3200.00
03676             140.00    -3600.00
03677            -248.00    -3000.00
03678             164.00    -4000.00
03679             252.00    -4400.00
03680            -248.00    -3400.00
03681             -62.00    -4600.00
03682             252.00    -4800.00
03683             -76.00    -4000.00
03684              -4.00    -5200.00
03685               0.00    -5000.00
03686             -36.00    -4800.00
03687              88.00    -5600.00
03688              28.00    -5400.00
03689               2.00    -5600.00
03690             -28.00    -6000.00
03691              14.00    -5800.00
03692             100.00    -6400.00
03693              -4.00    -6400.00
03694              -8.00    -6600.00
03695               4.00    -6600.00
03696              14.00    -6800.00
03697              86.00    -7200.00
03698              -8.00    -7000.00
03699             -30.00    -7400.00
03700              44.00    -7600.00
03701              40.00    -7400.00
03702              16.00    -8000.00
03703               0.00    -8000.00
03704              40.00    -8200.00
03705              34.00    -8200.00
03706               4.00    -8200.00
03707              24.00    -8400.00
03708               8.00    -8600.00
03709              32.00    -8800.00
03710              46.00    -8800.00
03711               0.00    -9000.00
03712               8.00    -9200.00
03713              28.00    -9200.00
03714              30.00    -9600.00
03715              24.00    -9600.00
03716              24.00    -9600.00
03717              20.00   -10000.00
03718              22.00    -9800.00
03719              30.00    -9800.00
03720              16.00   -10000.00
03721              16.00   -10200.00
03722              38.00   -10400.00
03723              28.00   -10400.00
03724              16.00   -10400.00
03725              26.00   -10600.00
03726              20.00   -10600.00
03727              22.00   -10600.00
03728              30.00   -10800.00
03729              28.00   -10800.00
03730              22.00   -11000.00
03731              30.00   -10800.00
03732              22.00   -11200.00
03733              20.00   -11200.00
03734              26.00   -11200.00
03735              28.00   -11400.00
03736              28.00   -11200.00
03737              32.00   -11400.00
03738              22.00   -11400.00
03739              18.00   -11400.00
03740              28.00   -11400.00
03741              28.00   -11400.00
03742              24.00   -11600.00
03743              30.00   -11600.00
03744              28.00   -11600.00
03745              20.00   -11600.00
03746              24.00   -11600.00
03747              28.00   -11600.00
03748              28.00   -11600.00
03749              30.00   -11600.00
03750              28.00   -11800.00
03751              24.00   -11800.00
03752              24.00   -11800.00
03753              24.00   -11800.00
03754              24.00   -11600.00
03755              30.00   -11800.00
03756              28.00   -11600.00
03757              28.00   -11600.00
03758              26.00   -11600.00
03759              24.00   -11800.00
03760              20.00   -11600.00
03761              28.00   -11600.00
03762              30.00   -11600.00
03763              26.00   -11600.00
03764              26.00   -11600.00
03765              24.00   -11600.00
03766              20.00   -11400.00
03767              22.00   -11600.00
03768              28.00   -11400.00
03769              28.00   -11400.00
03770              26.00   -11400.00
03771              24.00   -11200.00
03772              20.00   -11200.00
03773              22.00   -11200.00
03774              22.00   -11200.00
03775              22.00   -11000.00
03776              26.00   -10800.00
03777              22.00   -10800.00
03778              20.00   -10800.00
03779              16.00   -10800.00
03780              22.00   -10800.00
03781              20.00   -10600.00
03782              22.00   -10600.00
03783              22.00   -10400.00
03784              22.00   -10400.00
03785              16.00   -10400.00
03786              16.00   -10000.00
03787              20.00   -10000.00
03788              20.00   -10000.00
03789              20.00   -10000.00
03790              22.00    -9800.00
03791              16.00    -9600.00
03792              14.00    -9600.00
03793              14.00    -9400.00
03794              14.00    -9200.00
03795              18.00    -9200.00
03796              20.00    -9000.00
03797              16.00    -9000.00
03798              16.00    -8800.00
03799              12.00    -8800.00
03800              12.00    -8800.00
03801              14.00    -8400.00
03802              16.00    -8200.00
03803              14.00    -8200.00
03804              14.00    -8000.00
03805              12.00    -8000.00
03806              10.00    -7600.00
03807              12.00    -7600.00
03808              12.00    -7400.00
03809              12.00    -7200.00
03810              12.00    -7200.00
03811              12.00    -6800.00
03812               6.00    -6800.00
03813              10.00    -6600.00
03814               6.00    -6400.00
03815              12.00    -6200.00
03816              12.00    -6000.00
03817              12.00    -6000.00
03818               6.00    -5800.00
03819               6.00    -5600.00
03820               6.00    -5400.00
03821               6.00    -5200.00
03822               8.00    -5000.00
03823               6.00    -5000.00
03824               8.00    -4800.00
03825               4.00    -4400.00
03826               2.00    -4400.00
03827               4.00    -4200.00
03828               6.00    -4200.00
03829               4.00    -4000.00
03830               6.00    -3600.00
03831               4.00    -3600.00
03832               0.00    -3400.00
03833               2.00    -3200.00
03834               2.00    -3000.00
03835               4.00    -2800.00
03836               6.00    -2600.00
03837               2.00    -2400.00
03838              -2.00    -2400.00
03839              -2.00    -2000.00
03840              -4.00    -1800.00
03841              -4.00    -1600.00
03842               0.00    -1600.00
03843               0.00    -1200.00
03844              -4.00    -1200.00
03845             -10.00    -1000.00
03846             -10.00     -800.00
03847             -10.00     -600.00
03848              -2.00     -400.00
03849               6.00     -200.00
03850               4.00        0.00
03851              -2.00      200.00
03852              10.00      400.00
03853               8.00      600.00
03854             -12.00      800.00
03855             -12.00     1000.00
03856               6.00     1000.00
03857               6.00     1200.00
03858              12.00     1600.00
03859             162.00     1800.00
03860             248.00     2200.00
03861            -212.00     2200.00
03862            -248.00     2400.00
03863             -68.00     2400.00
03864              22.00     2400.00
03865             252.00     3000.00
03866             252.00     3000.00
03867            -248.00     3000.00
03868            -248.00     3600.00
03869             252.00     3400.00
03870            -248.00     4000.00
03871            -248.00     4000.00
03872             252.00     3800.00
03873             -76.00     4800.00
03874            -248.00     4200.00
03875             248.00     4400.00
03876            -170.00     5400.00
03877              -2.00     4600.00
03878             126.00     5200.00
03879            -170.00     6000.00
03880              38.00     5200.00
03881              -2.00     6000.00
03882             -44.00     6200.00
03883              24.00     5600.00
03884             -18.00     6400.00
03885              14.00     6400.00
03886            -140.00     6400.00
03887              54.00     7000.00
03888              80.00     6800.00
03889            -194.00     7400.00
03890              80.00     7200.00
03891              16.00     7400.00
03892            -138.00     7600.00
03893              64.00     7200.00
03894             -28.00     8000.00
03895             -32.00     7800.00
03896              -4.00     8000.00
03897             -48.00     8400.00
03898             -24.00     8000.00
03899             -20.00     8600.00
03900              24.00     8600.00
03901             -64.00     8600.00
03902             -36.00     9000.00
03903              20.00     9000.00
03904             -78.00     9200.00
03905               4.00     9200.00
03906               0.00     9600.00
03907             -74.00     9400.00
03908              -2.00     9600.00
03909             -10.00    10000.00
03910             -50.00     9600.00
03911             -34.00    10000.00
03912              -4.00    10000.00
03913             -26.00    10000.00
03914             -40.00    10200.00
03915             -12.00    10400.00
03916             -40.00    10400.00
03917             -26.00    10400.00
03918             -12.00    10400.00
03919             -46.00    10800.00
03920             -26.00    10600.00
03921             -12.00    10800.00
03922             -40.00    10800.00
03923             -28.00    11000.00
03924             -20.00    11000.00
03925             -42.00    11200.00
03926             -32.00    11000.00
03927             -10.00    11200.00
03928             -34.00    11200.00
03929             -40.00    11200.00
03930             -22.00    11400.00
03931             -32.00    11400.00
03932             -36.00    11600.00
03933             -20.00    11600.00
03934             -28.00    11600.00
03935             -36.00    11600.00
03936             -26.00    11600.00
03937             -32.00    11600.00
03938             -36.00    11600.00
03939             -26.00    11600.00
03940             -28.00    11800.00
03941             -34.00    11600.00
03942             -20.00    11800.00
03943             -36.00    11800.00
03944             -36.00    11800.00
03945             -18.00    11800.00
03946             -32.00    11600.00
03947             -34.00    11800.00
03948             -18.00    11800.00
03949             -32.00    11800.00
03950             -36.00    11600.00
03951             -26.00    11800.00
03952             -26.00    11800.00
03953             -32.00    11600.00
03954             -20.00    11600.00
03955             -26.00    11600.00
03956             -34.00    11600.00
03957             -24.00    11600.00
03958             -32.00    11400.00
03959             -28.00    11400.00
03960             -20.00    11200.00
03961             -26.00    11400.00
03962             -32.00    11400.00
03963             -26.00    11200.00
03964             -24.00    11000.00
03965             -28.00    11200.00
03966             -26.00    11000.00
03967             -26.00    11000.00
03968             -28.00    10800.00
03969             -24.00    10800.00
03970             -28.00    10600.00
03971             -28.00    10600.00
03972             -26.00    10600.00
03973             -26.00    10400.00
03974             -26.00    10400.00
03975             -26.00    10000.00
03976             -26.00    10200.00
03977             -28.00    10000.00
03978             -26.00    10000.00
03979             -26.00     9800.00
03980             -26.00     9800.00
03981             -20.00     9600.00
03982             -26.00     9600.00
03983             -26.00     9600.00
03984             -26.00     9400.00
03985             -20.00     9200.00
03986             -24.00     9200.00
03987             -20.00     8800.00
03988             -20.00     8800.00
03989             -26.00     8800.00
03990             -24.00     8600.00
03991             -20.00     8400.00
03992             -24.00     8400.00
03993             -20.00     8200.00
03994             -18.00     8000.00
03995             -20.00     7800.00
03996             -20.00     7800.00
03997             -18.00     7600.00
03998             -18.00     7600.00
03999             -18.00     7200.00
04000             -16.00     7000.00
04001             -16.00     7000.00
04002             -16.00     7000.00
04003             -18.00     6800.00
04004             -20.00     6400.00
04005             -16.00     6400.00
04006             -16.00     6200.00
04007             -14.00     6200.00
04008             -12.00     6000.00
04009             -16.00     5800.00
04010             -12.00     5600.00
04011             -10.00     5600.00
04012             -12.00     5200.00
04013             -10.00     5200.00
04014             -12.00     5000.00
04015             -10.00     4800.00
04016             -10.00     4600.00
04017             -12.00     4400.00
04018              -8.00     4000.00
04019              -8.00     4000.00
04020              -8.00     3800.00
04021              -8.00     3600.00
04022              -4.00     3600.00
04023              -8.00     3200.00
04024              -8.00     3000.00
04025              -8.00     3000.00
04026              -4.00     2800.00
04027              -4.00     2600.00
04028              -4.00     2400.00
04029              -4.00     2200.00
04030              -2.00     2000.00
04031              -4.00     1800.00
04032              -6.00     1600.00
04033              -2.00     1400.00
04034               0.00     1200.00
04035              -2.00     1200.00
04036              -4.00      800.00
04037              -2.00      600.00
04038              -2.00      400.00
04039              -2.00      200.00
04040               2.00        0.00
04041               6.00     -200.00
04042               6.00     -400.00
04043              16.00     -400.00
04044              28.00     -800.00
04045               4.00     -800.00
04046              -8.00    -1000.00
04047               8.00    -1200.00
04048              16.00    -1200.00
04049              12.00    -1600.00
04050              48.00    -1600.00
04051             204.00    -1800.00
04052             194.00    -2600.00
04053            -236.00    -2800.00
04054            -248.00    -2800.00
04055              14.00    -3000.00
04056              54.00    -2800.00
04057              54.00    -2800.00
04058             252.00    -3400.00
04059            -176.00    -3600.00
04060            -248.00    -3200.00
04061             252.00    -4200.00
04062             150.00    -4000.00
04063            -248.00    -3600.00
04064             182.00    -4800.00
04065             144.00    -4200.00
04066            -116.00    -4400.00
04067              68.00    -5400.00
04068             -56.00    -4800.00
04069               0.00    -5200.00
04070             108.00    -5600.00
04071              -4.00    -5400.00
04072             -18.00    -5800.00
04073              -6.00    -6000.00
04074              62.00    -6000.00
04075              50.00    -6200.00
04076             -10.00    -6400.00
04077               8.00    -6600.00
04078             -20.00    -6600.00
04079              66.00    -7000.00
04080              72.00    -7200.00
04081             -58.00    -7200.00
04082              12.00    -7600.00
04083              54.00    -7600.00
04084              24.00    -7600.00
04085              12.00    -8000.00
04086              12.00    -7800.00
04087              44.00    -8200.00
04088              16.00    -8400.00
04089              14.00    -8400.00
04090              20.00    -8600.00
04091              14.00    -8600.00
04092              50.00    -8800.00
04093              28.00    -9000.00
04094               0.00    -9200.00
04095              20.00    -9200.00
04096              26.00    -9200.00
04097              30.00    -9600.00
04098              30.00    -9600.00
04099              20.00    -9600.00
04100              18.00    -9800.00
04101              30.00    -9800.00
04102              28.00   -10000.00
04103               8.00   -10200.00
04104              28.00   -10000.00
04105              38.00   -10000.00
04106              20.00   -10400.00
04107              20.00   -10400.00
04108              24.00   -10600.00
04109              20.00   -10600.00
04110              26.00   -10600.00
04111              30.00   -10800.00
04112              24.00   -10800.00
04113              28.00   -10800.00
04114              28.00   -11000.00
04115              20.00   -11200.00
04116              22.00   -11000.00
04117              28.00   -11200.00
04118              26.00   -11200.00
04119              30.00   -11200.00
04120              30.00   -11400.00
04121              16.00   -11400.00
04122              22.00   -11400.00
04123              28.00   -11600.00
04124              24.00   -11600.00
04125              28.00   -11600.00
04126              32.00   -11600.00
04127              22.00   -11600.00
04128              20.00   -11600.00
04129              26.00   -11600.00
04130              24.00   -11600.00
04131              28.00   -11800.00
04132              36.00   -11600.00
04133              28.00   -11600.00
04134              22.00   -11600.00
04135              24.00   -11800.00
04136              24.00   -11800.00
04137              24.00   -12000.00
04138              30.00   -11800.00
04139              28.00   -11600.00
04140              24.00   -11800.00
04141              24.00   -11600.00
04142              22.00   -11600.00
04143              24.00   -11600.00
04144              30.00   -11600.00
04145              28.00   -11600.00
04146              28.00   -11600.00
04147              28.00   -11600.00
04148              22.00   -11400.00
04149              22.00   -11600.00
04150              22.00   -11400.00
04151              28.00   -11200.00
04152              24.00   -11400.00
04153              24.00   -11400.00
04154              26.00   -11200.00
04155              20.00   -11200.00
04156              20.00   -11200.00
04157              22.00   -11200.00
04158              28.00   -11000.00
04159              28.00   -10800.00
04160              22.00   -10800.00
04161              20.00   -10800.00
04162              22.00   -10800.00
04163              22.00   -10600.00
04164              22.00   -10600.00
04165              24.00   -10400.00
04166              24.00   -10400.00
04167              20.00   -10200.00
04168              16.00   -10200.00
04169              18.00   -10200.00
04170              16.00   -10000.00
04171              22.00   -10000.00
04172              22.00    -9800.00
04173              20.00    -9800.00
04174              14.00    -9600.00
04175              16.00    -9600.00
04176              14.00    -9200.00
04177              16.00    -9200.00
04178              16.00    -9200.00
04179              16.00    -9000.00
04180              16.00    -9000.00
04181              14.00    -8800.00
04182              12.00    -8600.00
04183              16.00    -8400.00
04184              16.00    -8400.00
04185              16.00    -8200.00
04186              16.00    -8000.00
04187              14.00    -7800.00
04188              10.00    -7600.00
04189               8.00    -7600.00
04190              12.00    -7400.00
04191              12.00    -7400.00
04192              14.00    -7200.00
04193              12.00    -7200.00
04194              12.00    -6800.00
04195               8.00    -6800.00
04196              10.00    -6600.00
04197              12.00    -6400.00
04198              12.00    -6400.00
04199              10.00    -6000.00
04200               8.00    -5800.00
04201               6.00    -5800.00
04202               6.00    -5600.00
04203               8.00    -5400.00
04204               6.00    -5200.00
04205               8.00    -5000.00
04206               8.00    -4800.00
04207               6.00    -4800.00
04208               4.00    -4600.00
04209               4.00    -4400.00
04210               6.00    -4200.00
04211               4.00    -4000.00
04212               6.00    -3600.00
04213               6.00    -3600.00
04214               4.00    -3600.00
04215               2.00    -3400.00
04216               0.00    -3200.00
04217               0.00    -2800.00
04218               0.00    -2600.00
04219               6.00    -2600.00
04220               4.00    -2400.00
04221               0.00    -2200.00
04222              -4.00    -2000.00
04223              -4.00    -1800.00
04224              -2.00    -1600.00
04225               6.00    -1200.00
04226               0.00    -1200.00
04227              -2.00    -1000.00
04228              -4.00     -800.00
04229              -8.00     -600.00
04230              -2.00     -400.00
04231              -2.00     -200.00
04232              -4.00        0.00
04233              -2.00        0.00
04234               4.00      400.00
04235              20.00      600.00
04236               8.00      600.00
04237             -16.00      800.00
04238             -10.00     1000.00
04239               6.00     1200.00
04240               6.00     1400.00
04241              46.00     1600.00
04242             242.00     2000.00
04243             126.00     2200.00
04244            -248.00     2400.00
04245            -248.00     2400.00
04246              28.00     2400.00
04247              36.00     2800.00
04248             252.00     3200.00
04249             120.00     3000.00
04250            -248.00     3200.00
04251             252.00     3400.00
04252             252.00     3600.00
04253            -248.00     4200.00
04254             -36.00     3800.00
04255             252.00     4000.00
04256            -248.00     4800.00
04257              -4.00     4000.00
04258             156.00     4800.00
04259            -224.00     5400.00
04260             142.00     4600.00
04261             -18.00     5400.00
04262            -122.00     5600.00
04263              72.00     5200.00
04264             -60.00     6200.00
04265               2.00     6000.00
04266              -2.00     6000.00
04267               4.00     6800.00
04268             -36.00     6200.00
04269            -120.00     6800.00
04270             140.00     7000.00
04271             -54.00     7000.00
04272            -134.00     7200.00
04273             134.00     7200.00
04274             -98.00     7600.00
04275             -60.00     7400.00
04276              62.00     7600.00
04277             -60.00     8000.00
04278               0.00     7800.00
04279             -32.00     8400.00
04280             -40.00     8400.00
04281             -26.00     8000.00
04282               0.00     8800.00
04283               6.00     8400.00
04284             -80.00     8600.00
04285               8.00     9000.00
04286             -20.00     9000.00
04287             -66.00     9400.00
04288              32.00     9200.00
04289             -42.00     9600.00
04290             -50.00     9400.00
04291              16.00     9600.00
04292             -32.00    10000.00
04293             -48.00     9600.00
04294             -20.00    10000.00
04295              -8.00    10000.00
04296             -40.00    10200.00
04297             -26.00    10400.00
04298             -20.00    10400.00
04299             -42.00    10400.00
04300             -16.00    10400.00
04301             -26.00    10800.00
04302             -48.00    10600.00
04303             -12.00    10800.00
04304             -24.00    11000.00
04305             -40.00    10800.00
04306             -22.00    11000.00
04307             -28.00    11000.00
04308             -44.00    11000.00
04309             -18.00    11200.00
04310             -14.00    11200.00
04311             -42.00    11200.00
04312             -34.00    11200.00
04313             -24.00    11400.00
04314             -38.00    11200.00
04315             -28.00    11400.00
04316             -20.00    11600.00
04317             -34.00    11600.00
04318             -30.00    11600.00
04319             -28.00    11600.00
04320             -34.00    11600.00
04321             -28.00    11600.00
04322             -24.00    11800.00
04323             -32.00    11800.00
04324             -28.00    11600.00
04325             -26.00    11600.00
04326             -36.00    11800.00
04327             -28.00    11600.00
04328             -22.00    11800.00
04329             -32.00    11600.00
04330             -28.00    11600.00
04331             -24.00    11800.00
04332             -34.00    11800.00
04333             -32.00    11800.00
04334             -26.00    11600.00
04335             -26.00    11600.00
04336             -28.00    11600.00
04337             -26.00    11600.00
04338             -26.00    11600.00
04339             -28.00    11600.00
04340             -30.00    11600.00
04341             -28.00    11400.00
04342             -26.00    11200.00
04343             -24.00    11200.00
04344             -28.00    11400.00
04345             -32.00    11200.00
04346             -26.00    11200.00
04347             -26.00    11200.00
04348             -28.00    11000.00
04349             -24.00    11000.00
04350             -26.00    11000.00
04351             -26.00    10600.00
04352             -24.00    10800.00
04353             -28.00    10800.00
04354             -28.00    10400.00
04355             -24.00    10400.00
04356             -24.00    10400.00
04357             -26.00    10200.00
04358             -24.00    10200.00
04359             -24.00    10200.00
04360             -26.00    10000.00
04361             -24.00    10000.00
04362             -24.00     9600.00
04363             -20.00     9600.00
04364             -24.00     9600.00
04365             -24.00     9600.00
04366             -24.00     9400.00
04367             -20.00     9200.00
04368             -24.00     9000.00
04369             -20.00     9000.00
04370             -20.00     8800.00
04371             -20.00     8800.00
04372             -24.00     8600.00
04373             -20.00     8600.00
04374             -20.00     8400.00
04375             -20.00     8400.00
04376             -18.00     8200.00
04377             -18.00     8000.00
04378             -20.00     7800.00
04379             -20.00     7800.00
04380             -18.00     7600.00
04381             -18.00     7600.00
04382             -16.00     7200.00
04383             -16.00     7000.00
04384             -16.00     7000.00
04385             -16.00     6800.00
04386             -20.00     6600.00
04387             -18.00     6400.00
04388             -18.00     6400.00
04389             -12.00     6200.00
04390             -14.00     6000.00
04391             -12.00     5800.00
04392             -12.00     5600.00
04393             -16.00     5400.00
04394             -12.00     5400.00
04395             -10.00     5000.00
04396             -10.00     5200.00
04397             -12.00     4800.00
04398             -10.00     4800.00
04399             -12.00     4400.00
04400             -10.00     4200.00
04401             -10.00     4000.00
04402              -4.00     3800.00
04403              -4.00     3600.00
04404              -8.00     3600.00
04405              -8.00     3400.00
04406             -10.00     3200.00
04407              -8.00     3000.00
04408              -4.00     2800.00
04409              -2.00     2800.00
04410              -4.00     2400.00
04411              -4.00     2200.00
04412              -4.00     2200.00
04413              -4.00     2000.00
04414              -2.00     1600.00
04415              -2.00     1400.00
04416              -4.00     1400.00
04417              -2.00     1200.00
04418              -2.00      800.00
04419               0.00     1000.00
04420               0.00      600.00
04421               4.00      400.00
04422               0.00        0.00
04423               4.00        0.00
04424               6.00     -200.00
04425               8.00     -400.00
04426              24.00     -400.00
04427              22.00     -800.00
04428              -4.00    -1000.00
04429              -4.00    -1200.00
04430              14.00    -1200.00
04431              16.00    -1200.00
04432              18.00    -1600.00
04433              92.00    -1800.00
04434             252.00    -2200.00
04435              54.00    -2600.00
04436            -248.00    -2600.00
04437            -242.00    -2800.00
04438              96.00    -3000.00
04439              -8.00    -2800.00
04440             204.00    -2800.00
04441             252.00    -3800.00
04442            -248.00    -3400.00
04443             -68.00    -3400.00
04444             252.00    -4600.00
04445            -196.00    -3600.00
04446            -218.00    -4200.00
04447             252.00    -4800.00
04448             -20.00    -4000.00
04449             -48.00    -4800.00
04450              44.00    -5200.00
04451             -76.00    -4800.00
04452              70.00    -5400.00
04453              70.00    -5400.00
04454             -20.00    -5600.00
04455             -18.00    -6000.00
04456               4.00    -6000.00
04457              78.00    -6200.00
04458              22.00    -6400.00
04459              -2.00    -6600.00
04460              -4.00    -6800.00
04461              -8.00    -6800.00
04462              94.00    -7200.00
04463              16.00    -7200.00
04464             -50.00    -7200.00
04465              44.00    -7600.00
04466              40.00    -7400.00
04467              18.00    -7800.00
04468               6.00    -8000.00
04469              28.00    -8000.00
04470              40.00    -8200.00
04471               6.00    -8400.00
04472              20.00    -8400.00
04473              12.00    -8600.00
04474              24.00    -8800.00
04475              52.00    -8800.00
04476              12.00    -8800.00
04477               4.00    -9200.00
04478              22.00    -9200.00
04479              28.00    -9200.00
04480              30.00    -9600.00
04481              28.00    -9400.00
04482              16.00    -9800.00
04483              20.00    -9800.00
04484              32.00    -9800.00
04485              22.00   -10000.00
04486              12.00   -10000.00
04487              38.00   -10000.00
04488              32.00   -10400.00
04489              20.00   -10400.00
04490              22.00   -10400.00
04491              22.00   -10600.00
04492              22.00   -10800.00
04493              28.00   -10800.00
04494              28.00   -10800.00
04495              22.00   -10800.00
04496              28.00   -10800.00
04497              26.00   -11200.00
04498              16.00   -11200.00
04499              26.00   -11200.00
04500              28.00   -11200.00
04501              28.00   -11400.00
04502              32.00   -11400.00
04503              24.00   -11400.00
04504              16.00   -11600.00
04505              24.00   -11400.00
04506              28.00   -11400.00
04507              22.00   -11600.00
04508              28.00   -11600.00
04509              30.00   -11600.00
04510              20.00   -11600.00
04511              22.00   -11600.00
04512              28.00   -11600.00
04513              22.00   -11800.00
04514              28.00   -11600.00
04515              32.00   -11800.00
04516              24.00   -11800.00
04517              22.00   -12000.00
04518              24.00   -11800.00
04519              28.00   -11600.00
04520              28.00   -11600.00
04521              30.00   -12000.00
04522              24.00   -11600.00
04523              26.00   -11600.00
04524              24.00   -11600.00
04525              22.00   -11600.00
04526              24.00   -11600.00
04527              32.00   -11600.00
04528              28.00   -11600.00
04529              26.00   -11400.00
04530              24.00   -11600.00
04531              22.00   -11400.00
04532              22.00   -11400.00
04533              28.00   -11400.00
04534              28.00   -11400.00
04535              28.00   -11200.00
04536              24.00   -11200.00
04537              22.00   -11400.00
04538              20.00   -11200.00
04539              22.00   -11200.00
04540              22.00   -11000.00
04541              28.00   -10800.00
04542              26.00   -10800.00
04543              22.00   -10800.00
04544              20.00   -10800.00
04545              22.00   -10600.00
04546              22.00   -10600.00
04547              26.00   -10400.00
04548              24.00   -10400.00
04549              22.00   -10400.00
04550              20.00   -10200.00
04551              16.00   -10000.00
04552              20.00   -10000.00
04553              20.00    -9800.00
04554              22.00    -9800.00
04555              22.00    -9600.00
04556              20.00    -9600.00
04557              16.00    -9600.00
04558              14.00    -9400.00
04559              16.00    -9400.00
04560              20.00    -9200.00
04561              20.00    -9200.00
04562              16.00    -9000.00
04563              16.00    -8800.00
04564              12.00    -8800.00
04565              14.00    -8600.00
04566              16.00    -8400.00
04567              18.00    -8200.00
04568              14.00    -8000.00
04569              16.00    -8200.00
04570              12.00    -7800.00
04571              10.00    -7800.00
04572              12.00    -7600.00
04573              12.00    -7400.00
04574              12.00    -7200.00
04575              14.00    -7000.00
04576              12.00    -6800.00
04577               8.00    -6800.00
04578               6.00    -6600.00
04579               8.00    -6400.00
04580              12.00    -6400.00
04581              12.00    -6000.00
04582               8.00    -6000.00
04583               6.00    -5800.00
04584               6.00    -5600.00
04585               6.00    -5400.00
04586               6.00    -5200.00
04587               8.00    -5200.00
04588               8.00    -5000.00
04589               6.00    -4800.00
04590               6.00    -4600.00
04591               4.00    -4400.00
04592               4.00    -4400.00
04593               4.00    -4200.00
04594               6.00    -4000.00
04595               6.00    -3600.00
04596               2.00    -3600.00
04597               4.00    -3400.00
04598               0.00    -3200.00
04599              -2.00    -3200.00
04600               4.00    -2800.00
04601               4.00    -2600.00
04602               0.00    -2400.00
04603              -2.00    -2400.00
04604              -2.00    -2200.00
04605              -2.00    -1800.00
04606               0.00    -1600.00
04607              -2.00    -1600.00
04608               0.00    -1200.00
04609               0.00    -1200.00
04610              -4.00    -1000.00
04611              -4.00     -800.00
04612              -4.00     -600.00
04613              -4.00     -400.00
04614              -4.00     -200.00
04615               0.00        0.00
04616               0.00        0.00
04617              12.00      400.00
04618              20.00      600.00
04619              -4.00      800.00
04620             -16.00     1000.00
04621              -2.00     1000.00
04622               6.00     1200.00
04623               6.00     1400.00
04624             108.00     1800.00
04625             252.00     2000.00
04626             -68.00     2200.00
04627            -248.00     2400.00
04628            -176.00     2400.00
04629              40.00     2400.00
04630             150.00     2800.00
04631             252.00     3000.00
04632            -248.00     3000.00
04633            -248.00     3600.00
04634             252.00     3400.00
04635             180.00     3800.00
04636            -248.00     4000.00
04637             252.00     3600.00
04638             204.00     4400.00
04639            -248.00     4600.00
04640             200.00     4400.00
04641             -48.00     5200.00
04642            -118.00     5000.00
04643             172.00     4800.00
04644            -144.00     5600.00
04645             -18.00     5400.00
04646              36.00     5600.00
04647             -72.00     6400.00
04648              32.00     5800.00
04649             -26.00     6400.00
04650              16.00     6800.00
04651            -104.00     6200.00
04652             -28.00     7000.00
04653             140.00     6800.00
04654            -166.00     7000.00
04655              -6.00     7400.00
04656              88.00     7400.00
04657            -154.00     7600.00
04658              28.00     7200.00
04659              10.00     8000.00
04660             -50.00     8000.00
04661               8.00     7800.00
04662             -50.00     8400.00
04663             -28.00     8000.00
04664             -26.00     8400.00
04665              20.00     8800.00
04666             -34.00     8600.00
04667             -64.00     8800.00
04668              26.00     9000.00
04669             -60.00     9200.00
04670             -26.00     9200.00
04671              24.00     9400.00
04672             -72.00     9600.00
04673             -18.00     9400.00
04674               4.00     9800.00
04675             -44.00     9800.00
04676             -40.00     9600.00
04677             -10.00    10000.00
04678             -18.00    10200.00
04679             -42.00    10200.00
04680             -16.00    10400.00
04681             -30.00    10200.00
04682             -34.00    10400.00
04683              -8.00    10400.00
04684             -40.00    10600.00
04685             -36.00    10800.00
04686             -12.00    10800.00
04687             -34.00    11000.00
04688             -36.00    11000.00
04689             -18.00    11000.00
04690             -36.00    11000.00
04691             -40.00    11000.00
04692             -10.00    11200.00
04693             -22.00    11200.00
04694             -42.00    11200.00
04695             -26.00    11400.00
04696             -26.00    11400.00
04697             -36.00    11600.00
04698             -24.00    11600.00
04699             -26.00    11600.00
04700             -36.00    11600.00
04701             -28.00    11600.00
04702             -28.00    11600.00
04703             -34.00    11600.00
04704             -26.00    11600.00
04705             -26.00    11600.00
04706             -32.00    11600.00
04707             -26.00    11800.00
04708             -32.00    11800.00
04709             -38.00    11800.00
04710             -28.00    11800.00
04711             -24.00    11600.00
04712             -34.00    11600.00
04713             -26.00    11800.00
04714             -26.00    11600.00
04715             -36.00    11800.00
04716             -34.00    11800.00
04717             -26.00    11800.00
04718             -28.00    11600.00
04719             -26.00    11600.00
04720             -20.00    11600.00
04721             -24.00    11600.00
04722             -24.00    11600.00
04723             -24.00    11600.00
04724             -26.00    11400.00
04725             -26.00    11400.00
04726             -28.00    11200.00
04727             -36.00    11200.00
04728             -34.00    11200.00
04729             -32.00    11000.00
04730             -26.00    11000.00
04731             -20.00    11000.00
04732             -14.00    11000.00
04733             -18.00    11000.00
04734             -20.00    10800.00
04735             -28.00    10800.00
04736             -32.00    10800.00
04737             -32.00    10400.00
04738             -26.00    10400.00
04739             -22.00    10400.00
04740             -20.00    10200.00
04741             -20.00    10400.00
04742             -22.00    10200.00
04743             -22.00    10000.00
04744             -20.00    10000.00
04745             -20.00     9800.00
04746             -26.00     9600.00
04747             -26.00     9600.00
04748             -26.00     9600.00
04749             -24.00     9400.00
04750             -20.00     9200.00
04751             -20.00     9200.00
04752             -18.00     9000.00
04753             -16.00     8800.00
04754             -20.00     8800.00
04755             -20.00     8600.00
04756             -20.00     8600.00
04757             -24.00     8400.00
04758             -20.00     8200.00
04759             -20.00     8000.00
04760             -22.00     8000.00
04761             -22.00     8000.00
04762             -18.00     7600.00
04763             -18.00     7600.00
04764             -18.00     7400.00
04765             -12.00     7200.00
04766             -16.00     7000.00
04767             -18.00     7000.00
04768             -18.00     6800.00
04769             -18.00     6800.00
04770             -20.00     6400.00
04771             -12.00     6200.00
04772             -12.00     6000.00
04773             -16.00     5800.00
04774             -14.00     5800.00
04775             -18.00     5600.00
04776             -18.00     5400.00
04777             -12.00     5200.00
04778             -10.00     5200.00
04779              -8.00     5000.00
04780             -10.00     4800.00
04781              -8.00     4600.00
04782              -8.00     4400.00
04783             -10.00     4400.00
04784             -10.00     4000.00
04785              -8.00     3800.00
04786              -8.00     3600.00
04787              -8.00     3400.00
04788              -8.00     3200.00
04789              -6.00     3000.00
04790              -4.00     3000.00
04791              -4.00     2800.00
04792              -4.00     2800.00
04793              -2.00     2400.00
04794              -8.00     2200.00
04795              -6.00     2200.00
04796              -4.00     2000.00
04797              -4.00     1600.00
04798               0.00     1400.00
04799               0.00     1400.00
04800               0.00     1200.00
04801               0.00      800.00
04802              -2.00      800.00
04803               0.00      600.00
04804               0.00      400.00
04805               0.00      200.00
04806               2.00        0.00
04807               4.00     -200.00
04808              14.00     -400.00
04809              28.00     -600.00
04810              14.00     -800.00
04811              -8.00    -1200.00
04812               6.00    -1000.00
04813              16.00    -1200.00
04814              12.00    -1400.00
04815              30.00    -1600.00
04816             156.00    -1800.00
04817             246.00    -2400.00
04818            -122.00    -2600.00
04819            -248.00    -2800.00
04820             -84.00    -2800.00
04821              94.00    -2800.00
04822              -8.00    -2600.00
04823             252.00    -3200.00
04824              40.00    -3800.00
04825            -248.00    -3000.00
04826             252.00    -4000.00
04827             252.00    -4200.00
04828            -248.00    -3600.00
04829              32.00    -4800.00
04830             244.00    -4400.00
04831            -116.00    -4200.00
04832              30.00    -5200.00
04833             -12.00    -5000.00
04834             -42.00    -5000.00
04835             102.00    -5600.00
04836              24.00    -5200.00
04837             -20.00    -5800.00
04838             -20.00    -6000.00
04839              38.00    -5800.00
04840              72.00    -6400.00
04841              -4.00    -6400.00
04842               6.00    -6600.00
04843             -18.00    -6600.00
04844              28.00    -6800.00
04845              92.00    -7200.00
04846             -34.00    -7000.00
04847             -18.00    -7400.00
04848              54.00    -7600.00
04849              28.00    -7400.00
04850              14.00    -7800.00
04851               6.00    -8000.00
04852              38.00    -8000.00
04853              28.00    -8400.00
04854               6.00    -8400.00
04855              22.00    -8400.00
04856               6.00    -8600.00
04857              40.00    -8800.00
04858              44.00    -8800.00
04859               0.00    -9000.00
04860              14.00    -9200.00
04861              28.00    -9200.00
04862              30.00    -9400.00
04863              30.00    -9600.00
04864              24.00    -9600.00
04865              18.00    -9800.00
04866              26.00    -9800.00
04867              32.00   -10000.00
04868              14.00   -10000.00
04869              22.00   -10000.00
04870              40.00   -10200.00
04871              28.00   -10200.00
04872              20.00   -10400.00
04873              24.00   -10600.00
04874              22.00   -10400.00
04875              24.00   -10800.00
04876              32.00   -10600.00
04877              24.00   -10800.00
04878              28.00   -10800.00
04879              30.00   -11000.00
04880              22.00   -11000.00
04881              20.00   -11200.00
04882              26.00   -11200.00
04883              28.00   -11200.00
04884              30.00   -11400.00
04885              32.00   -11400.00
04886              22.00   -11400.00
04887              18.00   -11400.00
04888              28.00   -11600.00
04889              28.00   -11400.00
04890              24.00   -11600.00
04891              30.00   -11600.00
04892              28.00   -11600.00
04893              20.00   -11600.00
04894              28.00   -11600.00
04895              24.00   -11600.00
04896              24.00   -11800.00
04897              30.00   -11600.00
04898              30.00   -11600.00
04899              22.00   -11800.00
04900              24.00   -11600.00
04901              22.00   -11800.00
04902              24.00   -11600.00
04903              30.00   -11600.00
04904              28.00   -11800.00
04905              22.00   -11800.00
04906              24.00   -11800.00
04907              24.00   -11600.00
04908              22.00   -11600.00
04909              28.00   -11600.00
04910              28.00   -11600.00
04911              24.00   -11600.00
04912              28.00   -11600.00
04913              24.00   -11400.00
04914              22.00   -11600.00
04915              24.00   -11600.00
04916              28.00   -11400.00
04917              26.00   -11400.00
04918              28.00   -11400.00
04919              22.00   -11200.00
04920              22.00   -11200.00
04921              24.00   -11200.00
04922              22.00   -11200.00
04923              24.00   -11000.00
04924              28.00   -10800.00
04925              24.00   -10800.00
04926              22.00   -10800.00
04927              20.00   -10800.00
04928              22.00   -10600.00
04929              22.00   -10600.00
04930              24.00   -10400.00
04931              26.00   -10400.00
04932              22.00   -10400.00
04933              20.00   -10400.00
04934              20.00   -10000.00
04935              20.00   -10000.00
04936              20.00    -9800.00
04937              22.00    -9800.00
04938              22.00    -9600.00
04939              16.00    -9600.00
04940              16.00    -9600.00
04941              18.00    -9400.00
04942              20.00    -9200.00
04943              20.00    -9200.00
04944              20.00    -9000.00
04945              16.00    -9000.00
04946              16.00    -8800.00
04947              14.00    -8800.00
04948              14.00    -8400.00
04949              14.00    -8200.00
04950              16.00    -8200.00
04951              14.00    -8000.00
04952              14.00    -8000.00
04953              12.00    -7800.00
04954              10.00    -7600.00
04955              12.00    -7400.00
04956              12.00    -7400.00
04957              14.00    -7200.00
04958              12.00    -7200.00
04959              12.00    -6800.00
04960               8.00    -6600.00
04961               6.00    -6600.00
04962               6.00    -6400.00
04963              12.00    -6400.00
04964               8.00    -6000.00
04965               8.00    -5800.00
04966               6.00    -5600.00
04967               6.00    -5600.00
04968               6.00    -5400.00
04969               6.00    -5200.00
04970               6.00    -5000.00
04971               6.00    -5000.00
04972               6.00    -4800.00
04973               4.00    -4400.00
04974               4.00    -4400.00
04975               0.00    -4200.00
04976               4.00    -4000.00
04977               6.00    -3800.00
04978               4.00    -3600.00
04979               4.00    -3600.00
04980               0.00    -3200.00
04981              -2.00    -3200.00
04982               4.00    -2800.00
04983               0.00    -2600.00
04984               4.00    -2600.00
04985               0.00    -2400.00
04986              -2.00    -2000.00
04987              -2.00    -2000.00
04988              -4.00    -1800.00
04989              -2.00    -1600.00
04990              -2.00    -1600.00
04991               0.00    -1200.00
04992              -2.00    -1000.00
04993              -4.00     -800.00
04994              -6.00     -800.00
04995              -4.00     -400.00
04996              -4.00     -200.00
04997              -2.00     -200.00
04998              -2.00        0.00
04999               0.00      400.00
05000              20.00      600.00
