Unit:(mV)
                     CH1         CH2
Frequency              ? 261.286 kHz
00001               0.00    -4000.00
00002               4.00    -3800.00
00003               6.00    -3600.00
00004               0.00    -3600.00
00005               0.00    -3200.00
00006               4.00    -3000.00
00007              -4.00    -3000.00
00008             -10.00    -2800.00
00009               4.00    -2600.00
00010               6.00    -2400.00
00011               0.00    -2400.00
00012              -4.00    -1800.00
00013              -2.00    -2000.00
00014              -4.00    -1600.00
00015              -6.00    -1600.00
00016               2.00    -1200.00
00017               0.00    -1200.00
00018              -4.00    -1000.00
00019             -12.00    -1000.00
00020              -8.00     -600.00
00021              -2.00     -400.00
00022              -6.00     -200.00
00023              -4.00        0.00
00024              -2.00        0.00
00025               6.00      400.00
00026              22.00      400.00
00027               8.00      600.00
00028             -12.00      800.00
00029             -16.00     1000.00
00030               0.00     1000.00
00031               6.00     1200.00
00032              40.00     1400.00
00033             252.00     1800.00
00034             178.00     2000.00
00035            -248.00     2200.00
00036            -248.00     2400.00
00037             -10.00     2400.00
00038             206.00     2600.00
00039             252.00     2800.00
00040              28.00     3000.00
00041            -248.00     3200.00
00042             252.00     3200.00
00043             252.00     3600.00
00044            -248.00     4000.00
00045            -176.00     3600.00
00046             252.00     4000.00
00047            -248.00     4600.00
00048              72.00     3800.00
00049             126.00     4800.00
00050            -248.00     5200.00
00051             232.00     4400.00
00052             100.00     5400.00
00053            -248.00     5400.00
00054              80.00     4800.00
00055               8.00     6200.00
00056             -52.00     5800.00
00057              50.00     5600.00
00058              22.00     6400.00
00059            -106.00     6000.00
00060            -100.00     6200.00
00061             204.00     7000.00
00062             -64.00     6400.00
00063            -176.00     6800.00
00064             176.00     7200.00
00065             -98.00     7400.00
00066             -84.00     7200.00
00067             118.00     7400.00
00068             -88.00     7800.00
00069              -4.00     7400.00
00070              20.00     8000.00
00071             -76.00     8000.00
00072             -20.00     7600.00
00073              36.00     8400.00
00074              -2.00     8400.00
00075             -90.00     8400.00
00076              22.00     8800.00
00077             -10.00     8600.00
00078             -74.00     8800.00
00079              62.00     8800.00
00080             -42.00     9200.00
00081             -76.00     9200.00
00082              48.00     9200.00
00083             -24.00     9600.00
00084             -62.00     9200.00
00085              -2.00     9600.00
00086              -2.00     9600.00
00087             -40.00     9600.00
00088             -10.00    10000.00
00089             -18.00    10000.00
00090             -50.00    10000.00
00091               6.00    10200.00
00092             -10.00    10200.00
00093             -58.00    10200.00
00094               0.00    10200.00
00095              -8.00    10400.00
00096             -44.00    10400.00
00097              -6.00    10600.00
00098             -22.00    10800.00
00099             -50.00    10600.00
00100              -2.00    10800.00
00101               4.00    10800.00
00102             -48.00    10800.00
00103             -26.00    11000.00
00104             -10.00    11000.00
00105             -36.00    11000.00
00106             -16.00    11000.00
00107              -8.00    11200.00
00108             -36.00    11000.00
00109             -20.00    11200.00
00110             -14.00    11200.00
00111             -34.00    11200.00
00112             -20.00    11200.00
00113             -10.00    11200.00
00114             -28.00    11200.00
00115             -18.00    11200.00
00116             -18.00    11200.00
00117             -36.00    11200.00
00118             -20.00    11200.00
00119             -10.00    11200.00
00120             -26.00    11200.00
00121             -20.00    11000.00
00122             -12.00    11200.00
00123             -28.00    11200.00
00124             -24.00    11200.00
00125             -12.00    11200.00
00126             -26.00    11000.00
00127             -22.00    11200.00
00128             -12.00    11000.00
00129             -24.00    11200.00
00130             -24.00    11000.00
00131             -18.00    11000.00
00132             -26.00    11000.00
00133             -18.00    11000.00
00134             -10.00    11000.00
00135             -20.00    10800.00
00136             -24.00    10800.00
00137             -16.00    10800.00
00138             -24.00    10600.00
00139             -18.00    10600.00
00140             -10.00    10400.00
00141             -20.00    10400.00
00142             -20.00    10400.00
00143             -16.00    10400.00
00144             -18.00    10200.00
00145             -22.00    10000.00
00146             -12.00    10200.00
00147             -18.00    10000.00
00148             -16.00    10000.00
00149             -16.00    10000.00
00150             -22.00     9600.00
00151             -20.00     9600.00
00152             -16.00     9600.00
00153             -16.00     9600.00
00154             -18.00     9400.00
00155             -14.00     9200.00
00156             -18.00     9200.00
00157             -20.00     9000.00
00158             -18.00     9000.00
00159             -16.00     8800.00
00160             -14.00     8600.00
00161             -12.00     8600.00
00162             -18.00     8400.00
00163             -18.00     8400.00
00164             -16.00     8400.00
00165             -16.00     8200.00
00166             -16.00     7800.00
00167             -10.00     7800.00
00168             -12.00     7600.00
00169             -18.00     7600.00
00170             -12.00     7400.00
00171             -14.00     7400.00
00172             -14.00     7200.00
00173             -12.00     7000.00
00174             -12.00     6800.00
00175             -10.00     6800.00
00176             -12.00     6600.00
00177             -12.00     6400.00
00178             -14.00     6200.00
00179             -10.00     6200.00
00180              -8.00     6000.00
00181             -10.00     6000.00
00182              -8.00     5600.00
00183             -10.00     5600.00
00184             -10.00     5400.00
00185             -10.00     5200.00
00186              -6.00     5200.00
00187              -8.00     4800.00
00188              -8.00     4800.00
00189              -8.00     4400.00
00190              -8.00     4400.00
00191              -8.00     4200.00
00192              -6.00     4000.00
00193              -4.00     3800.00
00194              -4.00     3600.00
00195              -4.00     3600.00
00196              -8.00     3400.00
00197              -8.00     3000.00
00198              -4.00     2800.00
00199              -4.00     2800.00
00200              -4.00     2400.00
00201              -2.00     2400.00
00202              -4.00     2200.00
00203              -4.00     2000.00
00204              -2.00     2000.00
00205              -2.00     1600.00
00206              -2.00     1600.00
00207               0.00     1200.00
00208              -2.00     1000.00
00209              -2.00      800.00
00210              -2.00      800.00
00211              -2.00      600.00
00212              -2.00      400.00
00213              -2.00        0.00
00214               0.00     -200.00
00215               4.00     -200.00
00216               6.00     -400.00
00217              22.00     -600.00
00218              24.00     -800.00
00219              -4.00     -800.00
00220             -12.00    -1200.00
00221              12.00    -1000.00
00222              22.00    -1200.00
00223              20.00    -1600.00
00224              80.00    -1600.00
00225             252.00    -2000.00
00226             100.00    -2400.00
00227            -248.00    -2600.00
00228            -248.00    -2800.00
00229              78.00    -2800.00
00230             120.00    -2600.00
00231             252.00    -2800.00
00232             218.00    -3600.00
00233            -248.00    -3000.00
00234             -48.00    -3400.00
00235             252.00    -4200.00
00236            -180.00    -3400.00
00237            -248.00    -4200.00
00238             214.00    -4600.00
00239              32.00    -4000.00
00240              60.00    -4800.00
00241              24.00    -5000.00
00242            -210.00    -4400.00
00243              78.00    -5200.00
00244             190.00    -5200.00
00245             -36.00    -5000.00
00246            -106.00    -5800.00
00247              -8.00    -5600.00
00248             112.00    -5800.00
00249              54.00    -6000.00
00250             -20.00    -6400.00
00251             -68.00    -6400.00
00252             -10.00    -6400.00
00253             154.00    -6800.00
00254              20.00    -6800.00
00255            -112.00    -7000.00
00256              30.00    -7200.00
00257              64.00    -7200.00
00258              22.00    -7400.00
00259              -4.00    -7600.00
00260              -4.00    -7600.00
00261              36.00    -7800.00
00262              24.00    -8000.00
00263               6.00    -8000.00
00264             -16.00    -8200.00
00265              24.00    -8400.00
00266              64.00    -8600.00
00267               4.00    -8800.00
00268             -14.00    -8800.00
00269               8.00    -9000.00
00270              24.00    -9000.00
00271              40.00    -9200.00
00272              20.00    -9200.00
00273              -8.00    -9400.00
00274              14.00    -9400.00
00275              38.00    -9600.00
00276              12.00    -9600.00
00277              -2.00    -9600.00
00278              32.00    -9800.00
00279              28.00   -10000.00
00280              12.00   -10000.00
00281              14.00   -10000.00
00282               8.00   -10000.00
00283              14.00   -10200.00
00284              28.00   -10200.00
00285              16.00   -10400.00
00286              12.00   -10600.00
00287              24.00   -10600.00
00288              16.00   -10600.00
00289               8.00   -10600.00
00290              16.00   -10600.00
00291              16.00   -10800.00
00292              20.00   -10800.00
00293              28.00   -11000.00
00294              14.00   -10800.00
00295               6.00   -11000.00
00296              16.00   -11000.00
00297              20.00   -11200.00
00298              20.00   -11200.00
00299              22.00   -11200.00
00300              20.00   -11200.00
00301              12.00   -11200.00
00302              12.00   -11400.00
00303              20.00   -11200.00
00304              16.00   -11400.00
00305              22.00   -11400.00
00306              24.00   -11200.00
00307              16.00   -11400.00
00308              12.00   -11400.00
00309              14.00   -11200.00
00310              18.00   -11400.00
00311              22.00   -11200.00
00312              22.00   -11200.00
00313              16.00   -11400.00
00314              16.00   -11400.00
00315              20.00   -11400.00
00316              12.00   -11200.00
00317              16.00   -11400.00
00318              24.00   -11200.00
00319              20.00   -11200.00
00320              16.00   -11200.00
00321              20.00   -11000.00
00322              14.00   -11200.00
00323              14.00   -11000.00
00324              20.00   -11200.00
00325              20.00   -11200.00
00326              20.00   -11000.00
00327              16.00   -10800.00
00328              12.00   -10800.00
00329              14.00   -10800.00
00330              14.00   -10600.00
00331              16.00   -10600.00
00332              18.00   -10600.00
00333              20.00   -10600.00
00334              14.00   -10400.00
00335              12.00   -10400.00
00336              12.00   -10400.00
00337              16.00   -10400.00
00338              16.00   -10400.00
00339              20.00   -10000.00
00340              14.00   -10000.00
00341              12.00    -9800.00
00342              12.00    -9800.00
00343              12.00    -9800.00
00344              14.00    -9600.00
00345              14.00    -9600.00
00346              14.00    -9400.00
00347               8.00    -9200.00
00348               8.00    -9200.00
00349               8.00    -9000.00
00350               8.00    -9200.00
00351              10.00    -8800.00
00352              12.00    -8800.00
00353              12.00    -8800.00
00354              10.00    -8600.00
00355               6.00    -8400.00
00356               6.00    -8200.00
00357               6.00    -8200.00
00358               8.00    -8000.00
00359               8.00    -8000.00
00360               8.00    -7600.00
00361               6.00    -7600.00
00362               4.00    -7600.00
00363               6.00    -7400.00
00364               6.00    -7200.00
00365               6.00    -7000.00
00366               8.00    -6800.00
00367               6.00    -6800.00
00368               4.00    -6600.00
00369               2.00    -6400.00
00370               4.00    -6400.00
00371               8.00    -6000.00
00372               6.00    -6000.00
00373               8.00    -5800.00
00374               4.00    -5600.00
00375               2.00    -5400.00
00376               0.00    -5200.00
00377               0.00    -5200.00
00378               4.00    -5000.00
00379               4.00    -4800.00
00380               4.00    -4800.00
00381               4.00    -4400.00
00382              -2.00    -4200.00
00383               0.00    -4200.00
00384               4.00    -4000.00
00385               4.00    -3800.00
00386               2.00    -3600.00
00387               0.00    -3400.00
00388              -4.00    -3200.00
00389              -4.00    -3200.00
00390              -2.00    -3000.00
00391               0.00    -2600.00
00392               0.00    -2600.00
00393               0.00    -2400.00
00394              -2.00    -2400.00
00395              -4.00    -2000.00
00396              -4.00    -1800.00
00397              -4.00    -1600.00
00398              -2.00    -1600.00
00399               0.00    -1200.00
00400              -4.00    -1200.00
00401              -4.00     -800.00
00402              -4.00    -1000.00
00403              -4.00     -600.00
00404              -4.00     -400.00
00405              -2.00     -200.00
00406              -2.00     -200.00
00407              -2.00      200.00
00408               8.00        0.00
00409              24.00      600.00
00410               0.00      600.00
00411             -20.00     1000.00
00412             -10.00     1000.00
00413               8.00     1200.00
00414               8.00     1400.00
00415              86.00     1600.00
00416             252.00     2000.00
00417              16.00     2200.00
00418            -248.00     2400.00
00419            -248.00     2400.00
00420              54.00     2400.00
00421             252.00     2600.00
00422             252.00     2800.00
00423            -248.00     2800.00
00424            -248.00     3200.00
00425             252.00     3200.00
00426             252.00     3600.00
00427            -248.00     3800.00
00428             206.00     3600.00
00429             252.00     4400.00
00430            -248.00     4400.00
00431             236.00     4000.00
00432             -84.00     5000.00
00433            -248.00     4800.00
00434             252.00     4600.00
00435             -82.00     5600.00
00436            -176.00     5200.00
00437             108.00     5000.00
00438             -52.00     6200.00
00439             -10.00     5600.00
00440              52.00     5600.00
00441              -4.00     6600.00
00442            -148.00     6000.00
00443              -8.00     6400.00
00444             198.00     6800.00
00445            -184.00     6400.00
00446             -54.00     7000.00
00447             156.00     7000.00
00448            -170.00     7200.00
00449              14.00     7000.00
00450              66.00     7600.00
00451             -98.00     7600.00
00452              36.00     7600.00
00453             -20.00     8400.00
00454             -68.00     7800.00
00455               0.00     7800.00
00456              40.00     8600.00
00457             -36.00     8200.00
00458             -72.00     8600.00
00459              44.00     8600.00
00460             -56.00     8800.00
00461             -34.00     8800.00
00462              64.00     8800.00
00463             -88.00     9200.00
00464             -32.00     9200.00
00465              46.00     9400.00
00466             -50.00     9400.00
00467             -44.00     9400.00
00468               8.00     9600.00
00469             -14.00     9600.00
00470             -36.00     9600.00
00471              -2.00    10000.00
00472             -28.00    10000.00
00473             -40.00    10000.00
00474              16.00    10200.00
00475             -34.00    10200.00
00476             -48.00    10200.00
00477              12.00    10400.00
00478             -26.00    10400.00
00479             -34.00    10400.00
00480              -2.00    10400.00
00481             -36.00    10600.00
00482             -40.00    10400.00
00483              12.00    10800.00
00484             -16.00    10800.00
00485             -44.00    10800.00
00486             -12.00    11000.00
00487             -20.00    10800.00
00488             -36.00    11000.00
00489              -8.00    11000.00
00490             -16.00    11000.00
00491             -36.00    11000.00
00492             -16.00    11200.00
00493             -18.00    11200.00
00494             -34.00    11200.00
00495             -12.00    11200.00
00496             -16.00    11200.00
00497             -28.00    11200.00
00498             -12.00    11400.00
00499             -22.00    11200.00
00500             -36.00    11200.00
00501             -12.00    11200.00
00502             -12.00    11200.00
00503             -28.00    11200.00
00504             -16.00    11400.00
00505             -18.00    11200.00
00506             -30.00    11200.00
00507             -20.00    11200.00
00508             -14.00    11200.00
00509             -28.00    11000.00
00510             -20.00    11000.00
00511             -16.00    11200.00
00512             -26.00    11000.00
00513             -20.00    11000.00
00514             -18.00    11000.00
00515             -26.00    11000.00
00516             -16.00    11000.00
00517             -16.00    11000.00
00518             -24.00    10800.00
00519             -20.00    11000.00
00520             -20.00    10800.00
00521             -20.00    10800.00
00522             -16.00    10400.00
00523             -12.00    10400.00
00524             -20.00    10400.00
00525             -18.00    10400.00
00526             -18.00    10400.00
00527             -20.00    10200.00
00528             -20.00    10200.00
00529             -12.00    10000.00
00530             -18.00    10000.00
00531             -18.00    10000.00
00532             -16.00     9800.00
00533             -20.00     9600.00
00534             -18.00     9600.00
00535             -14.00     9400.00
00536             -16.00     9400.00
00537             -16.00     9400.00
00538             -16.00     9200.00
00539             -18.00     9200.00
00540             -18.00     9200.00
00541             -16.00     9000.00
00542             -18.00     8600.00
00543             -16.00     8600.00
00544             -10.00     8600.00
00545             -18.00     8400.00
00546             -18.00     8400.00
00547             -12.00     8400.00
00548             -18.00     8000.00
00549             -12.00     8000.00
00550             -12.00     7800.00
00551             -14.00     7800.00
00552             -16.00     7400.00
00553             -20.00     7600.00
00554              -8.00     7200.00
00555             -12.00     7200.00
00556             -16.00     7000.00
00557             -12.00     7000.00
00558             -10.00     6800.00
00559             -12.00     6400.00
00560             -12.00     6400.00
00561             -18.00     6200.00
00562              -8.00     6000.00
00563              -4.00     6000.00
00564             -16.00     5800.00
00565             -14.00     5600.00
00566              -8.00     5400.00
00567             -10.00     5200.00
00568              -8.00     5200.00
00569              -4.00     4800.00
00570             -10.00     4800.00
00571              -8.00     4800.00
00572             -10.00     4400.00
00573             -10.00     4400.00
00574              -4.00     4000.00
00575             -10.00     3800.00
00576              -8.00     3800.00
00577              -2.00     3600.00
00578              -4.00     3400.00
00579              -8.00     3200.00
00580              -6.00     3000.00
00581              -2.00     2800.00
00582              -4.00     2800.00
00583              -4.00     2400.00
00584              -4.00     2400.00
00585              -4.00     2200.00
00586              -2.00     2000.00
00587              -4.00     2000.00
00588              -4.00     1600.00
00589              -2.00     1400.00
00590               0.00     1200.00
00591              -2.00      800.00
00592              -2.00     1000.00
00593               0.00      800.00
00594              -4.00      600.00
00595              -2.00      400.00
00596               4.00        0.00
00597               4.00        0.00
00598               4.00     -200.00
00599              10.00     -400.00
00600              28.00     -400.00
00601              20.00     -800.00
00602              -8.00    -1000.00
00603             -10.00    -1000.00
00604              14.00    -1200.00
00605              22.00    -1200.00
00606              22.00    -1600.00
00607             132.00    -1600.00
00608             252.00    -2400.00
00609             -56.00    -2600.00
00610            -248.00    -2600.00
00611            -226.00    -2800.00
00612             126.00    -2800.00
00613             150.00    -2600.00
00614             252.00    -3000.00
00615             -64.00    -3600.00
00616            -248.00    -2800.00
00617             252.00    -3600.00
00618             252.00    -4000.00
00619            -248.00    -3200.00
00620            -148.00    -4600.00
00621             222.00    -4400.00
00622             -20.00    -4000.00
00623             104.00    -5200.00
00624             -74.00    -4800.00
00625            -170.00    -4600.00
00626             164.00    -5400.00
00627             128.00    -5200.00
00628             -82.00    -5400.00
00629             -90.00    -5800.00
00630              38.00    -5800.00
00631             114.00    -5800.00
00632              24.00    -6200.00
00633             -34.00    -6400.00
00634             -72.00    -6400.00
00635              38.00    -6600.00
00636             156.00    -6800.00
00637             -52.00    -7000.00
00638             -84.00    -7000.00
00639              60.00    -7200.00
00640              48.00    -7200.00
00641              14.00    -7800.00
00642             -10.00    -7600.00
00643               8.00    -7600.00
00644              38.00    -8000.00
00645              20.00    -8000.00
00646               4.00    -8200.00
00647             -12.00    -8200.00
00648              40.00    -8400.00
00649              54.00    -8400.00
00650              -8.00    -8800.00
00651              -8.00    -8800.00
00652              12.00    -8800.00
00653              30.00    -9000.00
00654              40.00    -9200.00
00655               8.00    -9200.00
00656              -4.00    -9600.00
00657              26.00    -9400.00
00658              34.00    -9600.00
00659               2.00    -9800.00
00660               6.00    -9800.00
00661              36.00    -9800.00
00662              22.00   -10000.00
00663              12.00   -10000.00
00664              14.00   -10000.00
00665              12.00   -10200.00
00666              22.00   -10400.00
00667              28.00   -10200.00
00668              14.00   -10400.00
00669              14.00   -10600.00
00670              24.00   -10600.00
00671              14.00   -10600.00
00672              12.00   -10800.00
00673              16.00   -10800.00
00674              16.00   -10800.00
00675              22.00   -10800.00
00676              28.00   -10800.00
00677               8.00   -10800.00
00678               6.00   -11000.00
00679              22.00   -11200.00
00680              22.00   -11200.00
00681              16.00   -11200.00
00682              24.00   -11200.00
00683              14.00   -11200.00
00684              12.00   -11400.00
00685              16.00   -11200.00
00686              12.00   -11400.00
00687              16.00   -11200.00
00688              22.00   -11200.00
00689              20.00   -11400.00
00690              14.00   -11400.00
00691              12.00   -11400.00
00692              14.00   -11400.00
00693              16.00   -11400.00
00694              22.00   -11400.00
00695              22.00   -11400.00
00696              16.00   -11200.00
00697              14.00   -11400.00
00698              14.00   -11400.00
00699              10.00   -11200.00
00700              20.00   -11400.00
00701              22.00   -11200.00
00702              20.00   -11200.00
00703              14.00   -11200.00
00704              12.00   -11200.00
00705              12.00   -11200.00
00706              14.00   -11000.00
00707              16.00   -11200.00
00708              20.00   -11200.00
00709              18.00   -11000.00
00710              14.00   -10800.00
00711              12.00   -10800.00
00712              14.00   -10800.00
00713              16.00   -10600.00
00714              16.00   -10600.00
00715              20.00   -10400.00
00716              16.00   -10400.00
00717              12.00   -10400.00
00718              12.00   -10400.00
00719              14.00   -10400.00
00720              16.00   -10200.00
00721              16.00   -10000.00
00722              18.00   -10000.00
00723              12.00   -10000.00
00724               8.00   -10000.00
00725              10.00    -9600.00
00726              12.00    -9800.00
00727              14.00    -9600.00
00728              14.00    -9600.00
00729              14.00    -9200.00
00730              10.00    -9400.00
00731              10.00    -9000.00
00732               6.00    -9000.00
00733              10.00    -8800.00
00734              12.00    -8800.00
00735              14.00    -8800.00
00736              12.00    -8600.00
00737               6.00    -8400.00
00738               6.00    -8400.00
00739               8.00    -8200.00
00740               8.00    -8000.00
00741              12.00    -8000.00
00742              12.00    -7800.00
00743               6.00    -7800.00
00744               4.00    -7600.00
00745               2.00    -7400.00
00746               6.00    -7200.00
00747               6.00    -7200.00
00748               8.00    -7200.00
00749               6.00    -6800.00
00750               6.00    -6600.00
00751               0.00    -6600.00
00752               2.00    -6400.00
00753               6.00    -6200.00
00754               4.00    -6200.00
00755               6.00    -5800.00
00756               4.00    -5800.00
00757               0.00    -5800.00
00758               2.00    -5400.00
00759               0.00    -5400.00
00760               0.00    -5200.00
00761               6.00    -5000.00
00762               4.00    -4800.00
00763               4.00    -4800.00
00764               0.00    -4400.00
00765               0.00    -4200.00
00766               0.00    -4200.00
00767               4.00    -4000.00
00768               0.00    -3800.00
00769               4.00    -3600.00
00770              -2.00    -3600.00
00771              -2.00    -3400.00
00772              -4.00    -3000.00
00773              -4.00    -2800.00
00774               0.00    -2800.00
00775               0.00    -2600.00
00776               0.00    -2400.00
00777              -2.00    -2000.00
00778              -4.00    -2000.00
00779              -4.00    -1800.00
00780              -2.00    -1600.00
00781              -2.00    -1600.00
00782              -4.00    -1200.00
00783              -4.00    -1000.00
00784              -4.00    -1000.00
00785              -8.00     -800.00
00786              -4.00     -400.00
00787              -4.00     -400.00
00788              -4.00     -200.00
00789              -2.00        0.00
00790              -2.00        0.00
00791              14.00      400.00
00792              22.00      600.00
00793              -8.00     1000.00
00794             -20.00     1000.00
00795              -2.00     1200.00
00796              12.00     1200.00
00797              14.00     1400.00
00798             150.00     1600.00
00799             252.00     2000.00
00800            -172.00     2200.00
00801            -248.00     2200.00
00802            -186.00     2200.00
00803             100.00     2400.00
00804             252.00     2800.00
00805             252.00     3000.00
00806            -248.00     2800.00
00807            -248.00     3400.00
00808             252.00     3200.00
00809              14.00     3800.00
00810            -248.00     3600.00
00811             252.00     3600.00
00812              30.00     4600.00
00813            -240.00     4000.00
00814             252.00     4200.00
00815            -248.00     5200.00
00816             -50.00     4600.00
00817             252.00     4800.00
00818            -218.00     5600.00
00819             -58.00     4800.00
00820              92.00     5600.00
00821             -80.00     6200.00
00822              24.00     5400.00
00823              44.00     6000.00
00824             -40.00     6200.00
00825            -164.00     5800.00
00826             100.00     6800.00
00827             124.00     6600.00
00828            -240.00     6600.00
00829              72.00     7000.00
00830              70.00     7200.00
00831            -180.00     7200.00
00832              92.00     7000.00
00833              -4.00     7800.00
00834             -72.00     7600.00
00835              46.00     7600.00
00836             -52.00     8200.00
00837             -52.00     7800.00
00838              16.00     8000.00
00839              32.00     8600.00
00840             -68.00     8000.00
00841             -36.00     8800.00
00842              38.00     8600.00
00843             -84.00     8600.00
00844              16.00     8800.00
00845              32.00     9000.00
00846            -100.00     9200.00
00847              12.00     9200.00
00848              24.00     9600.00
00849             -68.00     9400.00
00850             -24.00     9400.00
00851              10.00     9800.00
00852             -26.00     9600.00
00853             -26.00     9800.00
00854               0.00    10000.00
00855             -42.00    10000.00
00856             -20.00    10200.00
00857              14.00    10200.00
00858             -50.00    10200.00
00859             -26.00    10200.00
00860              12.00    10400.00
00861             -38.00    10400.00
00862             -24.00    10400.00
00863              -4.00    10600.00
00864             -44.00    10800.00
00865             -26.00    10600.00
00866              12.00    10800.00
00867             -30.00    10800.00
00868             -40.00    10800.00
00869              -6.00    10800.00
00870             -28.00    11000.00
00871             -28.00    11000.00
00872              -2.00    11000.00
00873             -24.00    11000.00
00874             -32.00    11200.00
00875             -12.00    11200.00
00876             -26.00    11000.00
00877             -28.00    11000.00
00878             -10.00    11200.00
00879             -24.00    11200.00
00880             -26.00    11200.00
00881             -10.00    11200.00
00882             -32.00    11200.00
00883             -28.00    11200.00
00884             -10.00    11200.00
00885             -20.00    11200.00
00886             -28.00    11200.00
00887             -14.00    11200.00
00888             -24.00    11200.00
00889             -32.00    11200.00
00890             -14.00    11200.00
00891             -16.00    11200.00
00892             -28.00    11200.00
00893             -14.00    11200.00
00894             -18.00    11200.00
00895             -26.00    11000.00
00896             -20.00    11000.00
00897             -20.00    11000.00
00898             -24.00    10800.00
00899             -12.00    10800.00
00900             -16.00    10800.00
00901             -26.00    10800.00
00902             -20.00    10800.00
00903             -18.00    10800.00
00904             -24.00    10400.00
00905             -16.00    10400.00
00906             -18.00    10400.00
00907             -24.00    10400.00
00908             -18.00    10200.00
00909             -18.00    10200.00
00910             -24.00    10200.00
00911             -18.00    10000.00
00912             -16.00    10200.00
00913             -20.00    10000.00
00914             -18.00     9800.00
00915             -18.00    10000.00
00916             -20.00     9600.00
00917             -20.00     9600.00
00918             -12.00     9400.00
00919             -18.00     9400.00
00920             -18.00     9200.00
00921             -14.00     9200.00
00922             -16.00     9000.00
00923             -14.00     8800.00
00924             -12.00     8800.00
00925             -20.00     8600.00
00926             -18.00     8800.00
00927             -10.00     8400.00
00928             -10.00     8400.00
00929             -18.00     8400.00
00930             -18.00     8200.00
00931             -20.00     8000.00
00932             -14.00     7800.00
00933              -4.00     7800.00
00934             -12.00     7600.00
00935             -20.00     7600.00
00936             -18.00     7200.00
00937             -16.00     7400.00
00938             -12.00     7000.00
00939              -4.00     6800.00
00940             -12.00     6800.00
00941             -12.00     6600.00
00942             -12.00     6400.00
00943             -16.00     6200.00
00944             -16.00     6200.00
00945              -6.00     6000.00
00946             -10.00     5800.00
00947             -12.00     5600.00
00948             -10.00     5400.00
00949             -10.00     5400.00
00950             -12.00     5200.00
00951              -8.00     5000.00
00952              -8.00     4800.00
00953             -10.00     4600.00
00954              -8.00     4400.00
00955             -10.00     4400.00
00956             -10.00     4000.00
00957              -8.00     4000.00
00958              -8.00     3800.00
00959              -8.00     3800.00
00960              -4.00     3200.00
00961              -4.00     3200.00
00962             -10.00     3000.00
00963              -8.00     2800.00
00964              -4.00     2800.00
00965              -4.00     2800.00
00966              -2.00     2400.00
00967              -4.00     2200.00
00968              -4.00     2200.00
00969              -4.00     2000.00
00970              -4.00     1800.00
00971              -4.00     1600.00
00972              -2.00     1200.00
00973               0.00     1200.00
00974              -2.00     1200.00
00975              -4.00      800.00
00976              -2.00      600.00
00977              -2.00      600.00
00978               0.00      200.00
00979               4.00        0.00
00980               6.00     -200.00
00981               6.00     -200.00
00982              14.00     -400.00
00983              30.00     -800.00
00984              12.00     -800.00
00985             -12.00     -800.00
00986               2.00    -1000.00
00987              20.00    -1200.00
00988              20.00    -1400.00
00989              38.00    -1600.00
00990             192.00    -1800.00
00991             246.00    -2200.00
00992            -216.00    -2400.00
00993            -248.00    -2600.00
00994             -82.00    -2800.00
00995             134.00    -2800.00
00996             222.00    -2600.00
00997             252.00    -3400.00
00998            -248.00    -3600.00
00999            -248.00    -2800.00
01000             252.00    -4200.00
01001             252.00    -3800.00
01002            -248.00    -3400.00
01003              44.00    -4800.00
01004             166.00    -4000.00
01005             -12.00    -4400.00
01006             106.00    -5200.00
01007            -164.00    -4400.00
01008             -76.00    -5000.00
01009             208.00    -5600.00
01010              56.00    -5000.00
01011            -104.00    -5600.00
01012             -64.00    -5800.00
01013              78.00    -5800.00
01014              96.00    -6000.00
01015               0.00    -6200.00
01016             -50.00    -6400.00
01017             -62.00    -6600.00
01018             100.00    -6800.00
01019             116.00    -7000.00
01020            -100.00    -6800.00
01021             -36.00    -7400.00
01022              70.00    -7200.00
01023              36.00    -7400.00
01024               8.00    -7600.00
01025             -16.00    -7400.00
01026              22.00    -8000.00
01027              32.00    -8000.00
01028              16.00    -8000.00
01029              -8.00    -8200.00
01030              -2.00    -8200.00
01031              56.00    -8400.00
01032              32.00    -8600.00
01033             -20.00    -8800.00
01034               0.00    -9000.00
01035              16.00    -9000.00
01036              38.00    -9200.00
01037              36.00    -9200.00
01038              -2.00    -9200.00
01039               0.00    -9600.00
01040              36.00    -9400.00
01041              26.00    -9600.00
01042              -4.00    -9600.00
01043              16.00    -9800.00
01044              36.00   -10000.00
01045              16.00   -10000.00
01046              14.00   -10000.00
01047              12.00   -10200.00
01048              12.00   -10000.00
01049              24.00   -10400.00
01050              22.00   -10400.00
01051              12.00   -10400.00
01052              18.00   -10600.00
01053              24.00   -10600.00
01054              14.00   -10600.00
01055              12.00   -10800.00
01056              24.00   -10800.00
01057              14.00   -10800.00
01058              28.00   -10800.00
01059              28.00   -11000.00
01060               4.00   -10800.00
01061              12.00   -11200.00
01062              28.00   -11000.00
01063              16.00   -11200.00
01064              22.00   -11200.00
01065              22.00   -11200.00
01066              14.00   -11200.00
01067              10.00   -11200.00
01068              18.00   -11400.00
01069              16.00   -11200.00
01070              20.00   -11400.00
01071              24.00   -11200.00
01072              14.00   -11400.00
01073              12.00   -11400.00
01074              14.00   -11400.00
01075              14.00   -11400.00
01076              16.00   -11400.00
01077              22.00   -11200.00
01078              16.00   -11400.00
01079              14.00   -11400.00
01080              16.00   -11200.00
01081              12.00   -11400.00
01082              12.00   -11400.00
01083              20.00   -11200.00
01084              20.00   -11400.00
01085              16.00   -11200.00
01086              16.00   -11200.00
01087              12.00   -11200.00
01088               8.00   -11200.00
01089              16.00   -11000.00
01090              20.00   -11000.00
01091              20.00   -11000.00
01092              20.00   -10800.00
01093              14.00   -10800.00
01094              10.00   -10800.00
01095              14.00   -10800.00
01096              14.00   -10600.00
01097              14.00   -10800.00
01098              14.00   -10600.00
01099              16.00   -10400.00
01100              12.00   -10400.00
01101              12.00   -10400.00
01102              14.00   -10400.00
01103              16.00   -10400.00
01104              18.00   -10000.00
01105              14.00   -10000.00
01106              12.00   -10000.00
01107              10.00   -10000.00
01108               8.00    -9600.00
01109              12.00    -9600.00
01110              14.00    -9600.00
01111              16.00    -9600.00
01112              14.00    -9600.00
01113               8.00    -9200.00
01114               8.00    -9200.00
01115               6.00    -9000.00
01116              14.00    -9000.00
01117              12.00    -8800.00
01118              14.00    -8800.00
01119              12.00    -8600.00
01120               6.00    -8400.00
01121               6.00    -8200.00
01122               8.00    -8200.00
01123               8.00    -8000.00
01124              12.00    -8000.00
01125              12.00    -7800.00
01126               6.00    -7600.00
01127               4.00    -7600.00
01128               4.00    -7400.00
01129               6.00    -7400.00
01130               6.00    -7200.00
01131               8.00    -7200.00
01132               8.00    -6800.00
01133               0.00    -6800.00
01134               2.00    -6600.00
01135               4.00    -6600.00
01136               4.00    -6200.00
01137               4.00    -6000.00
01138               6.00    -5800.00
01139               4.00    -5800.00
01140               0.00    -5600.00
01141               0.00    -5400.00
01142               0.00    -5200.00
01143               0.00    -5000.00
01144               6.00    -5000.00
01145               0.00    -4800.00
01146               0.00    -4600.00
01147              -2.00    -4400.00
01148              -2.00    -4200.00
01149               0.00    -4000.00
01150               0.00    -3800.00
01151               4.00    -3800.00
01152               0.00    -3600.00
01153              -2.00    -3400.00
01154              -2.00    -3200.00
01155              -2.00    -2800.00
01156              -2.00    -2800.00
01157               0.00    -2600.00
01158               0.00    -2600.00
01159              -2.00    -2400.00
01160              -4.00    -2200.00
01161              -4.00    -1800.00
01162              -4.00    -1800.00
01163              -4.00    -1600.00
01164              -2.00    -1400.00
01165              -4.00    -1200.00
01166              -4.00    -1000.00
01167              -8.00     -800.00
01168              -8.00     -800.00
01169              -4.00     -400.00
01170              -4.00     -200.00
01171              -2.00        0.00
01172              -2.00        0.00
01173               0.00      400.00
01174              18.00      400.00
01175              12.00      600.00
01176             -12.00      800.00
01177             -18.00     1000.00
01178               4.00     1200.00
01179               8.00     1200.00
01180              32.00     1400.00
01181             224.00     1800.00
01182             228.00     2200.00
01183            -248.00     2200.00
01184            -248.00     2400.00
01185             -56.00     2200.00
01186             166.00     2400.00
01187             252.00     2800.00
01188             216.00     2800.00
01189            -248.00     3000.00
01190              84.00     3200.00
01191             252.00     3200.00
01192            -248.00     4000.00
01193            -248.00     3600.00
01194             252.00     3800.00
01195            -236.00     4600.00
01196             -26.00     4000.00
01197             196.00     4600.00
01198            -248.00     5200.00
01199             156.00     4400.00
01200             180.00     5200.00
01201            -248.00     5400.00
01202              44.00     4800.00
01203              32.00     6000.00
01204             -66.00     6000.00
01205              46.00     5400.00
01206              28.00     6600.00
01207             -90.00     6000.00
01208            -132.00     6000.00
01209             182.00     6800.00
01210              -2.00     6600.00
01211            -216.00     6800.00
01212             158.00     7000.00
01213             -50.00     7400.00
01214            -122.00     7200.00
01215             118.00     7400.00
01216             -68.00     7800.00
01217             -28.00     7200.00
01218              28.00     8000.00
01219             -72.00     8000.00
01220             -32.00     7800.00
01221              28.00     8400.00
01222              12.00     8200.00
01223             -88.00     8400.00
01224               6.00     8600.00
01225               8.00     8600.00
01226             -84.00     8800.00
01227              54.00     8800.00
01228             -20.00     9200.00
01229             -88.00     9000.00
01230              40.00     9200.00
01231              -8.00     9600.00
01232             -66.00     9200.00
01233              -4.00     9600.00
01234               4.00     9600.00
01235             -36.00     9600.00
01236             -16.00    10000.00
01237              -8.00    10000.00
01238             -48.00    10000.00
01239               0.00    10200.00
01240               0.00    10000.00
01241             -58.00    10200.00
01242              -4.00    10400.00
01243              -2.00    10400.00
01244             -42.00    10400.00
01245             -10.00    10400.00
01246             -12.00    10800.00
01247             -48.00    10600.00
01248              -8.00    10800.00
01249               8.00    10800.00
01250             -42.00    10800.00
01251             -28.00    11000.00
01252              -4.00    11000.00
01253             -36.00    10800.00
01254             -18.00    11000.00
01255              -4.00    11000.00
01256             -34.00    11000.00
01257             -24.00    11200.00
01258             -14.00    11200.00
01259             -34.00    11200.00
01260             -22.00    11000.00
01261             -10.00    11200.00
01262             -26.00    11200.00
01263             -24.00    11200.00
01264             -12.00    11200.00
01265             -34.00    11200.00
01266             -26.00    11400.00
01267             -10.00    11200.00
01268             -26.00    11200.00
01269             -26.00    11200.00
01270             -12.00    11200.00
01271             -32.00    11200.00
01272             -26.00    11200.00
01273             -14.00    11200.00
01274             -24.00    11200.00
01275             -26.00    11200.00
01276             -12.00    11200.00
01277             -20.00    11200.00
01278             -26.00    11000.00
01279             -20.00    11000.00
01280             -24.00    10800.00
01281             -24.00    11000.00
01282             -10.00    11000.00
01283             -20.00    10800.00
01284             -26.00    10800.00
01285             -20.00    10800.00
01286             -24.00    10800.00
01287             -20.00    10600.00
01288             -12.00    10800.00
01289             -20.00    10400.00
01290             -20.00    10400.00
01291             -18.00    10400.00
01292             -20.00    10200.00
01293             -24.00    10200.00
01294             -14.00    10200.00
01295             -16.00    10000.00
01296             -18.00    10000.00
01297             -18.00    10000.00
01298             -18.00     9800.00
01299             -20.00     9600.00
01300             -16.00     9600.00
01301             -18.00     9600.00
01302             -18.00     9400.00
01303             -12.00     9200.00
01304             -18.00     9400.00
01305             -18.00     9000.00
01306             -16.00     8800.00
01307             -14.00     8800.00
01308             -16.00     8600.00
01309             -12.00     8600.00
01310             -14.00     8400.00
01311             -18.00     8400.00
01312             -18.00     8400.00
01313             -12.00     8200.00
01314             -16.00     8000.00
01315             -12.00     7800.00
01316             -10.00     7800.00
01317             -16.00     7600.00
01318             -16.00     7600.00
01319             -10.00     7400.00
01320             -12.00     7000.00
01321             -12.00     7000.00
01322             -10.00     6800.00
01323             -10.00     6800.00
01324             -12.00     6600.00
01325             -12.00     6400.00
01326             -16.00     6200.00
01327             -12.00     6000.00
01328              -8.00     6000.00
01329             -12.00     5800.00
01330             -10.00     5600.00
01331             -10.00     5400.00
01332             -14.00     5400.00
01333             -10.00     5200.00
01334              -4.00     5000.00
01335             -10.00     4800.00
01336             -10.00     4600.00
01337              -8.00     4600.00
01338             -10.00     4200.00
01339             -10.00     4200.00
01340              -8.00     4000.00
01341              -4.00     3800.00
01342              -6.00     3600.00
01343              -4.00     3600.00
01344              -8.00     3200.00
01345              -4.00     3000.00
01346              -8.00     3000.00
01347              -6.00     2800.00
01348              -2.00     2600.00
01349              -4.00     2400.00
01350              -4.00     2200.00
01351              -4.00     2000.00
01352              -4.00     1800.00
01353              -4.00     1600.00
01354              -2.00     1600.00
01355               0.00     1400.00
01356               0.00     1200.00
01357              -2.00     1000.00
01358              -2.00      800.00
01359              -2.00      600.00
01360              -2.00      400.00
01361               0.00      200.00
01362               4.00        0.00
01363               4.00     -200.00
01364               6.00     -400.00
01365              20.00     -400.00
01366              28.00     -800.00
01367               0.00     -800.00
01368             -12.00    -1000.00
01369               8.00    -1200.00
01370              22.00    -1200.00
01371              20.00    -1400.00
01372              68.00    -1600.00
01373             248.00    -2000.00
01374             156.00    -2600.00
01375            -248.00    -2400.00
01376            -248.00    -2800.00
01377              38.00    -2800.00
01378             124.00    -2600.00
01379             252.00    -2800.00
01380             252.00    -3600.00
01381            -248.00    -3200.00
01382            -210.00    -3200.00
01383             252.00    -4400.00
01384             -28.00    -3400.00
01385            -248.00    -4000.00
01386             180.00    -4800.00
01387              72.00    -4000.00
01388              36.00    -4800.00
01389              58.00    -5200.00
01390            -212.00    -4600.00
01391              30.00    -5200.00
01392             206.00    -5400.00
01393             -12.00    -5200.00
01394            -106.00    -5600.00
01395             -26.00    -5600.00
01396             104.00    -5800.00
01397              70.00    -6000.00
01398             -16.00    -6200.00
01399             -64.00    -6400.00
01400             -34.00    -6400.00
01401             142.00    -6800.00
01402              54.00    -6800.00
01403            -116.00    -7000.00
01404              12.00    -7400.00
01405              66.00    -7200.00
01406              26.00    -7400.00
01407              -4.00    -7600.00
01408             -10.00    -7600.00
01409              36.00    -8000.00
01410              24.00    -8000.00
01411              10.00    -8000.00
01412             -12.00    -8200.00
01413              14.00    -8200.00
01414              64.00    -8400.00
01415              12.00    -8600.00
01416             -18.00    -8800.00
01417               8.00    -8800.00
01418              20.00    -9000.00
01419              42.00    -9200.00
01420              24.00    -9200.00
01421              -8.00    -9400.00
01422               8.00    -9400.00
01423              38.00    -9600.00
01424              14.00    -9600.00
01425              -4.00    -9800.00
01426              30.00    -9800.00
01427              30.00   -10000.00
01428              12.00   -10000.00
01429              16.00   -10200.00
01430              14.00   -10000.00
01431              12.00   -10200.00
01432              30.00   -10400.00
01433              20.00   -10400.00
01434              10.00   -10600.00
01435              24.00   -10400.00
01436              20.00   -10600.00
01437               8.00   -10800.00
01438              20.00   -10600.00
01439              20.00   -10800.00
01440              20.00   -10800.00
01441              32.00   -10800.00
01442              16.00   -10800.00
01443               0.00   -10800.00
01444              16.00   -11200.00
01445              22.00   -11000.00
01446              20.00   -11200.00
01447              22.00   -11200.00
01448              24.00   -11200.00
01449              12.00   -11200.00
01450              16.00   -11200.00
01451              20.00   -11200.00
01452              14.00   -11200.00
01453              20.00   -11400.00
01454              20.00   -11400.00
01455              16.00   -11400.00
01456              20.00   -11400.00
01457              16.00   -11400.00
01458              12.00   -11400.00
01459              20.00   -11200.00
01460              20.00   -11400.00
01461              16.00   -11200.00
01462              16.00   -11400.00
01463              14.00   -11400.00
01464              12.00   -11200.00
01465              18.00   -11200.00
01466              22.00   -11400.00
01467              14.00   -11200.00
01468              16.00   -11400.00
01469              16.00   -11200.00
01470              12.00   -11200.00
01471              14.00   -11200.00
01472              20.00   -11000.00
01473              20.00   -11200.00
01474              16.00   -11200.00
01475              14.00   -11000.00
01476               8.00   -10800.00
01477              14.00   -10800.00
01478              16.00   -10800.00
01479              14.00   -10600.00
01480              14.00   -10800.00
01481              18.00   -10600.00
01482              14.00   -10600.00
01483              12.00   -10400.00
01484              14.00   -10400.00
01485              12.00   -10400.00
01486              16.00   -10200.00
01487              16.00   -10000.00
01488              14.00   -10000.00
01489               8.00   -10000.00
01490               8.00    -9800.00
01491              14.00    -9600.00
01492              14.00    -9600.00
01493              14.00    -9600.00
01494              16.00    -9400.00
01495               8.00    -9400.00
01496               8.00    -9200.00
01497               8.00    -9200.00
01498               8.00    -9000.00
01499              12.00    -9000.00
01500              14.00    -8800.00
01501              10.00    -8600.00
01502               8.00    -8600.00
01503              12.00    -8400.00
01504               6.00    -8200.00
01505               8.00    -8200.00
01506              12.00    -8000.00
01507              12.00    -8000.00
01508              12.00    -7800.00
01509               6.00    -7600.00
01510               4.00    -7400.00
01511               6.00    -7400.00
01512               8.00    -7200.00
01513               8.00    -7000.00
01514               6.00    -7200.00
01515               8.00    -6800.00
01516               6.00    -6800.00
01517               4.00    -6600.00
01518               4.00    -6400.00
01519               6.00    -6400.00
01520               4.00    -6000.00
01521               6.00    -5800.00
01522               4.00    -5600.00
01523               0.00    -5600.00
01524               0.00    -5400.00
01525               0.00    -5200.00
01526               4.00    -5200.00
01527               4.00    -5000.00
01528               4.00    -4600.00
01529              -2.00    -4600.00
01530              -2.00    -4400.00
01531               0.00    -4200.00
01532               0.00    -4000.00
01533               4.00    -4000.00
01534               0.00    -3600.00
01535              -2.00    -3600.00
01536               0.00    -3400.00
01537              -4.00    -3200.00
01538              -4.00    -3000.00
01539               0.00    -2600.00
01540               4.00    -2600.00
01541               0.00    -2400.00
01542              -4.00    -2400.00
01543             -10.00    -2200.00
01544             -10.00    -1800.00
01545              -4.00    -1600.00
01546               6.00    -1400.00
01547               6.00    -1200.00
01548               4.00    -1200.00
01549              -4.00     -800.00
01550             -18.00     -800.00
01551             -14.00     -400.00
01552              -4.00     -400.00
01553              -2.00     -200.00
01554               0.00     -200.00
01555               4.00      200.00
01556               4.00      200.00
01557              20.00      400.00
01558               6.00      600.00
01559             -16.00      800.00
01560             -10.00     1000.00
01561               6.00     1200.00
01562               8.00     1400.00
01563              64.00     1600.00
01564             252.00     2000.00
01565              90.00     2000.00
01566            -248.00     2200.00
01567            -248.00     2400.00
01568              30.00     2400.00
01569             252.00     2600.00
01570             252.00     2800.00
01571            -236.00     2800.00
01572            -248.00     3000.00
01573             252.00     3200.00
01574             252.00     3400.00
01575            -248.00     3800.00
01576              50.00     3600.00
01577             252.00     4000.00
01578            -248.00     4400.00
01579             178.00     3800.00
01580              10.00     4800.00
01581            -248.00     4800.00
01582             252.00     4400.00
01583              -4.00     5600.00
01584            -216.00     5200.00
01585             104.00     4800.00
01586             -32.00     6200.00
01587             -28.00     5600.00
01588              52.00     5600.00
01589               6.00     6400.00
01590            -136.00     6000.00
01591             -52.00     6400.00
01592             208.00     6800.00
01593            -138.00     6600.00
01594            -112.00     6800.00
01595             172.00     7000.00
01596            -148.00     7200.00
01597             -26.00     7000.00
01598              88.00     7600.00
01599             -98.00     7800.00
01600              20.00     7400.00
01601             -10.00     8000.00
01602             -68.00     8000.00
01603              -8.00     7800.00
01604              30.00     8600.00
01605             -18.00     8000.00
01606             -82.00     8600.00
01607              32.00     8600.00
01608             -34.00     8600.00
01609             -52.00     8800.00
01610              60.00     8800.00
01611             -68.00     9200.00
01612             -52.00     9000.00
01613              50.00     9200.00
01614             -36.00     9600.00
01615             -54.00     9400.00
01616               4.00     9600.00
01617              -4.00     9600.00
01618             -36.00     9800.00
01619             -10.00    10000.00
01620             -24.00    10000.00
01621             -42.00    10000.00
01622              14.00    10200.00
01623             -26.00    10200.00
01624             -52.00    10200.00
01625              10.00    10400.00
01626             -12.00    10400.00
01627             -44.00    10400.00
01628              -4.00    10400.00
01629             -20.00    10600.00
01630             -44.00    10600.00
01631               6.00    10800.00
01632              -4.00    10800.00
01633             -52.00    10800.00
01634             -18.00    10800.00
01635             -10.00    11000.00
01636             -34.00    11000.00
01637              -8.00    11000.00
01638             -14.00    11000.00
01639             -40.00    11000.00
01640             -12.00    11200.00
01641             -12.00    11200.00
01642             -36.00    11000.00
01643             -18.00    11200.00
01644             -10.00    11200.00
01645             -30.00    11200.00
01646             -18.00    11200.00
01647             -18.00    11200.00
01648             -36.00    11200.00
01649             -20.00    11200.00
01650             -16.00    11200.00
01651             -28.00    11200.00
01652             -16.00    11200.00
01653             -16.00    11200.00
01654             -36.00    11200.00
01655             -24.00    11200.00
01656             -12.00    11200.00
01657             -26.00    11200.00
01658             -20.00    11200.00
01659             -14.00    11200.00
01660             -26.00    11000.00
01661             -26.00    11200.00
01662             -20.00    11000.00
01663             -26.00    11000.00
01664             -20.00    10800.00
01665             -12.00    11000.00
01666             -26.00    11000.00
01667             -22.00    10800.00
01668             -20.00    10800.00
01669             -26.00    10600.00
01670             -18.00    10400.00
01671             -14.00    10400.00
01672             -20.00    10400.00
01673             -24.00    10400.00
01674             -18.00    10200.00
01675             -24.00    10400.00
01676             -20.00    10200.00
01677             -16.00    10000.00
01678             -16.00    10000.00
01679             -18.00    10000.00
01680             -18.00    10000.00
01681             -20.00     9800.00
01682             -20.00     9600.00
01683             -12.00     9600.00
01684             -18.00     9400.00
01685             -18.00     9400.00
01686             -12.00     9400.00
01687             -20.00     9200.00
01688             -18.00     9000.00
01689             -12.00     8800.00
01690             -18.00     8800.00
01691             -12.00     8800.00
01692             -10.00     8600.00
01693             -18.00     8400.00
01694             -18.00     8400.00
01695             -16.00     8400.00
01696             -16.00     8200.00
01697             -14.00     7800.00
01698             -12.00     7800.00
01699             -12.00     7800.00
01700             -12.00     7600.00
01701             -14.00     7400.00
01702             -16.00     7200.00
01703             -12.00     7400.00
01704             -10.00     7000.00
01705             -10.00     6800.00
01706              -6.00     6800.00
01707             -12.00     6600.00
01708             -12.00     6400.00
01709             -16.00     6200.00
01710              -8.00     6000.00
01711              -8.00     6000.00
01712              -8.00     5800.00
01713             -10.00     5600.00
01714             -10.00     5600.00
01715             -10.00     5400.00
01716              -8.00     5200.00
01717              -8.00     5000.00
01718             -10.00     4800.00
01719              -4.00     4600.00
01720              -8.00     4400.00
01721             -10.00     4200.00
01722             -10.00     4200.00
01723             -10.00     3800.00
01724              -4.00     3800.00
01725              -4.00     3600.00
01726              -6.00     3200.00
01727              -8.00     3200.00
01728              -8.00     3000.00
01729              -8.00     2800.00
01730              -4.00     2800.00
01731              -2.00     2400.00
01732              -4.00     2400.00
01733              -6.00     2200.00
01734              -4.00     2000.00
01735              -2.00     1800.00
01736              -8.00     1600.00
01737              -4.00     1400.00
01738               0.00     1200.00
01739              -2.00     1200.00
01740              -2.00     1000.00
01741              -4.00      600.00
01742               0.00      600.00
01743              -2.00      400.00
01744               2.00        0.00
01745               4.00        0.00
01746               6.00     -200.00
01747               8.00     -200.00
01748              26.00     -600.00
01749              22.00     -800.00
01750              -8.00     -800.00
01751              -8.00    -1000.00
01752              14.00    -1200.00
01753              22.00    -1200.00
01754              22.00    -1600.00
01755             110.00    -1600.00
01756             252.00    -2200.00
01757              20.00    -2600.00
01758            -248.00    -2400.00
01759            -248.00    -2600.00
01760             112.00    -2800.00
01761             134.00    -2600.00
01762             252.00    -2800.00
01763              70.00    -3600.00
01764            -248.00    -2800.00
01765             164.00    -3600.00
01766             252.00    -4200.00
01767            -248.00    -3200.00
01768            -232.00    -4200.00
01769             230.00    -4400.00
01770              -2.00    -4000.00
01771              92.00    -5000.00
01772             -32.00    -4800.00
01773            -194.00    -4400.00
01774             134.00    -5600.00
01775             160.00    -5200.00
01776             -64.00    -5200.00
01777             -98.00    -5800.00
01778              16.00    -5800.00
01779             116.00    -6000.00
01780              38.00    -6000.00
01781             -28.00    -6200.00
01782             -74.00    -6600.00
01783              16.00    -6600.00
01784             158.00    -6800.00
01785             -24.00    -6800.00
01786            -100.00    -7000.00
01787              48.00    -7400.00
01788              54.00    -7200.00
01789              22.00    -7600.00
01790              -4.00    -7400.00
01791               0.00    -7600.00
01792              32.00    -8000.00
01793              16.00    -8200.00
01794               4.00    -8200.00
01795             -12.00    -8200.00
01796              32.00    -8400.00
01797              54.00    -8600.00
01798             -10.00    -8600.00
01799             -10.00    -8800.00
01800              14.00    -8800.00
01801              28.00    -9000.00
01802              38.00    -9000.00
01803              10.00    -9200.00
01804              -8.00    -9600.00
01805              22.00    -9600.00
01806              36.00    -9600.00
01807               4.00    -9600.00
01808              -2.00    -9800.00
01809              36.00    -9800.00
01810              28.00    -9800.00
01811              14.00   -10000.00
01812              12.00   -10200.00
01813               6.00   -10200.00
01814              20.00   -10400.00
01815              32.00   -10400.00
01816              20.00   -10400.00
01817              12.00   -10600.00
01818              20.00   -10400.00
01819              16.00   -10600.00
01820              16.00   -10600.00
01821              20.00   -10800.00
01822              14.00   -10800.00
01823              22.00   -10800.00
01824              28.00   -10800.00
01825              14.00   -11000.00
01826              10.00   -11000.00
01827              22.00   -11200.00
01828              20.00   -11200.00
01829              16.00   -11200.00
01830              24.00   -11200.00
01831              22.00   -11400.00
01832              14.00   -11200.00
01833              14.00   -11200.00
01834              14.00   -11200.00
01835              20.00   -11400.00
01836              22.00   -11400.00
01837              24.00   -11200.00
01838              14.00   -11200.00
01839              16.00   -11400.00
01840              14.00   -11400.00
01841              20.00   -11400.00
01842              22.00   -11400.00
01843              20.00   -11400.00
01844              16.00   -11400.00
01845              16.00   -11400.00
01846              14.00   -11200.00
01847              12.00   -11400.00
01848              18.00   -11400.00
01849              20.00   -11200.00
01850              16.00   -11400.00
01851              16.00   -11400.00
01852              14.00   -11000.00
01853              12.00   -11200.00
01854              14.00   -11200.00
01855              16.00   -11000.00
01856              20.00   -11000.00
01857              16.00   -11000.00
01858              14.00   -10800.00
01859              10.00   -10800.00
01860              12.00   -10800.00
01861              14.00   -10600.00
01862              16.00   -10600.00
01863              16.00   -10600.00
01864              16.00   -10600.00
01865               8.00   -10400.00
01866              12.00   -10400.00
01867              10.00   -10400.00
01868              12.00   -10400.00
01869              14.00   -10400.00
01870              16.00   -10000.00
01871              12.00   -10000.00
01872               8.00   -10000.00
01873              10.00    -9800.00
01874              12.00    -9600.00
01875              14.00    -9600.00
01876              16.00    -9600.00
01877              14.00    -9400.00
01878              12.00    -9200.00
01879               8.00    -9200.00
01880               8.00    -9000.00
01881              12.00    -9000.00
01882              14.00    -8800.00
01883              12.00    -8800.00
01884              12.00    -8600.00
01885               8.00    -8400.00
01886               6.00    -8400.00
01887               6.00    -8200.00
01888              12.00    -8000.00
01889              12.00    -8000.00
01890              12.00    -7600.00
01891              10.00    -7600.00
01892               6.00    -7600.00
01893               6.00    -7400.00
01894               6.00    -7400.00
01895               8.00    -7000.00
01896               8.00    -7200.00
01897               8.00    -6800.00
01898               6.00    -6800.00
01899               6.00    -6600.00
01900               4.00    -6600.00
01901               6.00    -6200.00
01902               6.00    -6200.00
01903               8.00    -6000.00
01904               4.00    -5600.00
01905               6.00    -5600.00
01906               4.00    -5400.00
01907               2.00    -5400.00
01908               4.00    -5200.00
01909               4.00    -5000.00
01910               4.00    -4800.00
01911               4.00    -4600.00
01912               0.00    -4400.00
01913              -4.00    -4400.00
01914              -2.00    -4200.00
01915               2.00    -4000.00
01916               4.00    -3600.00
01917               0.00    -3600.00
01918               0.00    -3600.00
01919              -2.00    -3200.00
01920              -4.00    -3200.00
01921              -2.00    -2800.00
01922              -2.00    -2800.00
01923               0.00    -2600.00
01924              -2.00    -2400.00
01925              -4.00    -2200.00
01926              -8.00    -2200.00
01927              -6.00    -1800.00
01928              -4.00    -1600.00
01929              -4.00    -1400.00
01930              -2.00    -1200.00
01931              -4.00    -1200.00
01932              -4.00    -1000.00
01933              -8.00     -800.00
01934              -6.00     -600.00
01935              -4.00     -400.00
01936              -2.00     -200.00
01937               0.00        0.00
01938              -2.00        0.00
01939              12.00      400.00
01940              22.00      600.00
01941              -4.00     1000.00
01942             -22.00      800.00
01943              -4.00     1000.00
01944               8.00     1200.00
01945              14.00     1400.00
01946             118.00     1600.00
01947             252.00     2000.00
01948             -88.00     2200.00
01949            -248.00     2400.00
01950            -248.00     2400.00
01951              82.00     2400.00
01952             252.00     2800.00
01953             252.00     3000.00
01954            -248.00     2800.00
01955            -248.00     3200.00
01956             252.00     3200.00
01957             252.00     4000.00
01958            -248.00     3800.00
01959             252.00     3400.00
01960             164.00     4400.00
01961            -248.00     4000.00
01962             252.00     4200.00
01963            -200.00     5200.00
01964            -142.00     4600.00
01965             252.00     4600.00
01966            -170.00     5600.00
01967            -108.00     5000.00
01968             108.00     5400.00
01969             -72.00     6400.00
01970              12.00     5400.00
01971              46.00     6000.00
01972             -22.00     6400.00
01973            -164.00     6000.00
01974              56.00     6600.00
01975             166.00     6800.00
01976            -228.00     6600.00
01977              20.00     7000.00
01978             118.00     7000.00
01979            -188.00     7400.00
01980              62.00     7200.00
01981              28.00     7600.00
01982             -90.00     7600.00
01983              44.00     7600.00
01984             -42.00     8400.00
01985             -60.00     7800.00
01986              12.00     8000.00
01987              36.00     8600.00
01988             -58.00     8200.00
01989             -56.00     8600.00
01990              42.00     8600.00
01991             -74.00     8800.00
01992              -8.00     8800.00
01993              46.00     8800.00
01994             -98.00     9200.00
01995              -8.00     9000.00
01996              32.00     9400.00
01997             -64.00     9400.00
01998             -34.00     9400.00
01999              12.00     9800.00
02000             -24.00     9600.00
02001             -32.00     9800.00
02002               0.00    10000.00
02003             -40.00    10000.00
02004             -32.00    10200.00
02005              14.00    10200.00
02006             -44.00    10000.00
02007             -34.00    10200.00
02008              14.00    10400.00
02009             -36.00    10400.00
02010             -32.00    10400.00
02011              -2.00    10800.00
02012             -40.00    10600.00
02013             -32.00    10800.00
02014              14.00    10800.00
02015             -26.00    10800.00
02016             -44.00    10800.00
02017              -4.00    11000.00
02018             -24.00    11000.00
02019             -32.00    10800.00
02020              -4.00    11200.00
02021             -22.00    11000.00
02022             -36.00    11000.00
02023             -10.00    11200.00
02024             -24.00    11200.00
02025             -32.00    11200.00
02026             -10.00    11200.00
02027             -20.00    11200.00
02028             -26.00    11200.00
02029             -10.00    11200.00
02030             -26.00    11200.00
02031             -34.00    11200.00
02032             -12.00    11200.00
02033             -18.00    11200.00
02034             -28.00    11200.00
02035             -12.00    11200.00
02036             -20.00    11400.00
02037             -28.00    11200.00
02038             -16.00    11200.00
02039             -18.00    11200.00
02040             -26.00    11200.00
02041             -18.00    11200.00
02042             -18.00    11200.00
02043             -28.00    11200.00
02044             -20.00    11000.00
02045             -20.00    11000.00
02046             -26.00    10800.00
02047             -16.00    10800.00
02048             -16.00    10800.00
02049             -24.00    10800.00
02050             -20.00    10800.00
02051             -20.00    10600.00
02052             -26.00    10800.00
02053             -16.00    10400.00
02054             -16.00    10400.00
02055             -24.00    10400.00
02056             -18.00    10200.00
02057             -16.00    10400.00
02058             -24.00    10200.00
02059             -20.00    10200.00
02060             -12.00    10000.00
02061             -20.00    10000.00
02062             -18.00    10000.00
02063             -16.00    10000.00
02064             -24.00     9800.00
02065             -18.00     9600.00
02066             -12.00     9400.00
02067             -18.00     9600.00
02068             -12.00     9400.00
02069             -16.00     9200.00
02070             -20.00     9200.00
02071             -12.00     9200.00
02072             -16.00     8800.00
02073             -20.00     8800.00
02074             -10.00     8600.00
02075             -16.00     8600.00
02076             -18.00     8400.00
02077             -12.00     8400.00
02078             -16.00     8200.00
02079             -12.00     8000.00
02080             -12.00     7800.00
02081             -12.00     7800.00
02082             -12.00     7800.00
02083             -14.00     7600.00
02084             -12.00     7600.00
02085             -16.00     7400.00
02086             -10.00     7000.00
02087             -10.00     6800.00
02088             -10.00     6800.00
02089              -8.00     6800.00
02090             -12.00     6600.00
02091             -12.00     6400.00
02092             -10.00     6200.00
02093              -8.00     6000.00
02094              -8.00     6000.00
02095              -8.00     5800.00
02096             -10.00     5600.00
02097             -10.00     5600.00
02098              -8.00     5200.00
02099              -8.00     5200.00
02100              -8.00     5000.00
02101              -8.00     4800.00
02102              -8.00     4600.00
02103              -4.00     4600.00
02104              -8.00     4400.00
02105             -10.00     4000.00
02106              -6.00     4000.00
02107              -4.00     3600.00
02108              -4.00     3600.00
02109              -8.00     3200.00
02110             -10.00     3000.00
02111              -4.00     3000.00
02112              -8.00     2800.00
02113              -6.00     2800.00
02114              -2.00     2400.00
02115              -4.00     2400.00
02116              -4.00     2000.00
02117              -8.00     2000.00
02118              -2.00     1800.00
02119              -4.00     1600.00
02120              -4.00     1400.00
02121               0.00     1400.00
02122              -2.00     1200.00
02123              -4.00     1000.00
02124              -4.00      600.00
02125              -2.00      400.00
02126              -2.00      200.00
02127               0.00        0.00
02128               4.00        0.00
02129               4.00     -200.00
02130               8.00     -400.00
02131              28.00     -600.00
02132              12.00     -800.00
02133             -12.00    -1000.00
02134              -4.00    -1000.00
02135              16.00    -1200.00
02136              18.00    -1200.00
02137              32.00    -1600.00
02138             164.00    -1600.00
02139             252.00    -2200.00
02140            -148.00    -2600.00
02141            -248.00    -2600.00
02142            -144.00    -2800.00
02143             136.00    -2600.00
02144             188.00    -2600.00
02145             252.00    -3200.00
02146            -238.00    -3600.00
02147            -248.00    -2800.00
02148             252.00    -4000.00
02149             252.00    -4000.00
02150            -248.00    -3400.00
02151             -32.00    -4600.00
02152             198.00    -4400.00
02153             -24.00    -4200.00
02154             116.00    -5200.00
02155            -128.00    -4600.00
02156            -122.00    -4800.00
02157             198.00    -5600.00
02158              92.00    -5000.00
02159             -98.00    -5600.00
02160             -76.00    -5800.00
02161              62.00    -5800.00
02162             104.00    -6000.00
02163              12.00    -6200.00
02164             -42.00    -6400.00
02165             -68.00    -6400.00
02166              78.00    -6600.00
02167             140.00    -6800.00
02168             -84.00    -6800.00
02169             -58.00    -7200.00
02170              70.00    -7200.00
02171              40.00    -7200.00
02172              12.00    -7600.00
02173             -12.00    -7600.00
02174              14.00    -8000.00
02175              36.00    -8200.00
02176              16.00    -8000.00
02177              -4.00    -8200.00
02178             -10.00    -8400.00
02179              54.00    -8400.00
02180              40.00    -8600.00
02181             -18.00    -8800.00
02182              -4.00    -9000.00
02183              14.00    -8800.00
02184              30.00    -9200.00
02185              36.00    -9200.00
02186               0.00    -9200.00
02187              -2.00    -9600.00
02188              30.00    -9400.00
02189              28.00    -9600.00
02190              -4.00    -9800.00
02191              12.00    -9800.00
02192              34.00   -10000.00
02193              16.00   -10000.00
02194              12.00   -10000.00
02195              12.00   -10200.00
02196               8.00   -10200.00
02197              28.00   -10400.00
02198              24.00   -10400.00
02199              12.00   -10400.00
02200              20.00   -10400.00
02201              26.00   -10600.00
02202              10.00   -10600.00
02203              16.00   -10600.00
02204              20.00   -10600.00
02205              14.00   -10800.00
02206              28.00   -10800.00
02207              28.00   -10800.00
02208               6.00   -11000.00
02209              10.00   -11200.00
02210              24.00   -11200.00
02211              20.00   -11200.00
02212              20.00   -11200.00
02213              28.00   -11200.00
02214              16.00   -11200.00
02215              12.00   -11200.00
02216              20.00   -11400.00
02217              16.00   -11200.00
02218              20.00   -11200.00
02219              28.00   -11200.00
02220              20.00   -11400.00
02221              14.00   -11400.00
02222              14.00   -11400.00
02223              16.00   -11400.00
02224              20.00   -11400.00
02225              24.00   -11400.00
02226              20.00   -11400.00
02227              18.00   -11400.00
02228              16.00   -11400.00
02229              14.00   -11200.00
02230              12.00   -11400.00
02231              22.00   -11200.00
02232              22.00   -11200.00
02233              20.00   -11200.00
02234              16.00   -11200.00
02235              14.00   -11200.00
02236              14.00   -11200.00
02237              16.00   -11000.00
02238              20.00   -11000.00
02239              16.00   -11000.00
02240              20.00   -10800.00
02241              14.00   -10800.00
02242              10.00   -10800.00
02243              14.00   -10800.00
02244              16.00   -10600.00
02245              14.00   -10800.00
02246              20.00   -10600.00
02247              14.00   -10600.00
02248               8.00   -10400.00
02249              12.00   -10400.00
02250              12.00   -10400.00
02251              14.00   -10200.00
02252              16.00   -10200.00
02253              16.00   -10000.00
02254              14.00   -10000.00
02255               8.00    -9800.00
02256              10.00    -9800.00
02257              12.00    -9800.00
02258              14.00    -9600.00
02259              16.00    -9600.00
02260              12.00    -9400.00
02261               8.00    -9200.00
02262               8.00    -9200.00
02263               6.00    -9200.00
02264               8.00    -9000.00
02265              12.00    -8800.00
02266              12.00    -8800.00
02267              12.00    -8800.00
02268               8.00    -8600.00
02269               6.00    -8400.00
02270               6.00    -8200.00
02271              12.00    -8200.00
02272               8.00    -8000.00
02273              12.00    -7800.00
02274               8.00    -7800.00
02275               4.00    -7400.00
02276               6.00    -7400.00
02277               8.00    -7400.00
02278               6.00    -7200.00
02279               8.00    -7200.00
02280               8.00    -6800.00
02281               4.00    -6600.00
02282               4.00    -6800.00
02283               6.00    -6400.00
02284               4.00    -6200.00
02285               6.00    -6000.00
02286               8.00    -6000.00
02287               4.00    -5800.00
02288               4.00    -5600.00
02289               2.00    -5400.00
02290               4.00    -5200.00
02291               6.00    -5000.00
02292               4.00    -4800.00
02293               6.00    -4800.00
02294               2.00    -4800.00
02295               0.00    -4400.00
02296               0.00    -4200.00
02297               0.00    -4000.00
02298               4.00    -4000.00
02299               4.00    -3600.00
02300               0.00    -3600.00
02301              -2.00    -3400.00
02302              -4.00    -3200.00
02303              -4.00    -3000.00
02304              -2.00    -2800.00
02305               0.00    -2600.00
02306               0.00    -2600.00
02307              -2.00    -2400.00
02308              -4.00    -2200.00
02309              -6.00    -2000.00
02310              -4.00    -1800.00
02311              -6.00    -1600.00
02312              -4.00    -1200.00
02313              -4.00    -1200.00
02314              -4.00    -1200.00
02315             -10.00    -1000.00
02316              -6.00     -600.00
02317              -4.00     -400.00
02318              -4.00     -400.00
02319              -4.00     -200.00
02320              -2.00        0.00
02321              -2.00      200.00
02322              16.00      400.00
02323              14.00      600.00
02324             -10.00      600.00
02325             -22.00     1000.00
02326               0.00     1200.00
02327              12.00     1200.00
02328              20.00     1400.00
02329             192.00     1600.00
02330             252.00     2000.00
02331            -248.00     2200.00
02332            -248.00     2400.00
02333            -108.00     2200.00
02334             130.00     2400.00
02335             252.00     2800.00
02336             252.00     2800.00
02337            -248.00     2800.00
02338            -160.00     3200.00
02339             252.00     3200.00
02340            -248.00     4000.00
02341            -248.00     3600.00
02342             252.00     3800.00
02343            -136.00     4600.00
02344            -120.00     4000.00
02345             252.00     4600.00
02346            -248.00     5200.00
02347              74.00     4400.00
02348             248.00     5200.00
02349            -248.00     5600.00
02350               6.00     4800.00
02351              62.00     6000.00
02352             -76.00     6000.00
02353              40.00     5400.00
02354              36.00     6400.00
02355             -68.00     6200.00
02356            -152.00     6000.00
02357             158.00     6800.00
02358              58.00     6600.00
02359            -240.00     6800.00
02360             132.00     7000.00
02361               6.00     7200.00
02362            -156.00     7200.00
02363             116.00     7200.00
02364             -42.00     7800.00
02365             -52.00     7600.00
02366              40.00     7800.00
02367             -66.00     8200.00
02368             -40.00     7800.00
02369              26.00     8400.00
02370              22.00     8400.00
02371             -84.00     8200.00
02372             -12.00     8600.00
02373              24.00     8600.00
02374             -90.00     8800.00
02375              40.00     8800.00
02376               4.00     9000.00
02377            -100.00     9000.00
02378              30.00     9200.00
02379               6.00     9600.00
02380             -70.00     9400.00
02381             -16.00     9600.00
02382               6.00     9800.00
02383             -34.00     9600.00
02384             -24.00     9800.00
02385              -2.00    10000.00
02386             -48.00    10000.00
02387             -10.00    10000.00
02388               4.00    10200.00
02389             -58.00    10200.00
02390             -16.00    10000.00
02391               2.00    10400.00
02392             -44.00    10400.00
02393             -16.00    10400.00
02394             -12.00    10400.00
02395             -50.00    10800.00
02396             -14.00    10800.00
02397              12.00    10800.00
02398             -36.00    10800.00
02399             -34.00    10800.00
02400              -8.00    11000.00
02401             -32.00    11000.00
02402             -20.00    11000.00
02403              -2.00    11000.00
02404             -32.00    11000.00
02405             -26.00    11200.00
02406             -10.00    11200.00
02407             -28.00    11200.00
02408             -24.00    11200.00
02409              -8.00    11200.00
02410             -26.00    11200.00
02411             -20.00    11200.00
02412             -10.00    11200.00
02413             -32.00    11200.00
02414             -26.00    11200.00
02415              -8.00    11200.00
02416             -20.00    11200.00
02417             -26.00    11200.00
02418             -10.00    11200.00
02419             -26.00    11200.00
02420             -28.00    11200.00
02421             -12.00    11200.00
02422             -20.00    11200.00
02423             -24.00    11200.00
02424             -12.00    11200.00
02425             -18.00    11200.00
02426             -26.00    11000.00
02427             -16.00    11200.00
02428             -20.00    11000.00
02429             -24.00    11000.00
02430             -12.00    10800.00
02431             -18.00    10800.00
02432             -26.00    11000.00
02433             -18.00    10800.00
02434             -24.00    10600.00
02435             -24.00    10600.00
02436             -14.00    10400.00
02437             -20.00    10400.00
02438             -24.00    10400.00
02439             -16.00    10400.00
02440             -20.00    10400.00
02441             -24.00    10200.00
02442             -16.00    10200.00
02443             -18.00    10000.00
02444             -18.00    10000.00
02445             -16.00    10000.00
02446             -20.00     9800.00
02447             -22.00     9600.00
02448             -16.00     9600.00
02449             -16.00     9400.00
02450             -18.00     9400.00
02451             -16.00     9200.00
02452             -18.00     9200.00
02453             -20.00     9200.00
02454             -16.00     9200.00
02455             -20.00     8800.00
02456             -18.00     8600.00
02457             -12.00     8600.00
02458             -16.00     8600.00
02459             -18.00     8400.00
02460             -16.00     8400.00
02461             -16.00     8000.00
02462             -16.00     8000.00
02463             -10.00     7800.00
02464             -12.00     7600.00
02465             -16.00     7600.00
02466             -16.00     7400.00
02467             -16.00     7400.00
02468             -14.00     7200.00
02469             -10.00     7000.00
02470             -12.00     7000.00
02471             -10.00     6800.00
02472              -8.00     6600.00
02473             -12.00     6400.00
02474             -12.00     6200.00
02475             -12.00     6200.00
02476              -8.00     6000.00
02477             -10.00     6000.00
02478              -8.00     5600.00
02479             -10.00     5600.00
02480             -10.00     5400.00
02481             -10.00     5200.00
02482              -6.00     5200.00
02483              -8.00     4800.00
02484              -8.00     4800.00
02485              -4.00     4600.00
02486             -10.00     4400.00
02487              -8.00     4200.00
02488              -8.00     4000.00
02489              -4.00     3800.00
02490              -4.00     3600.00
02491              -4.00     3600.00
02492              -8.00     3200.00
02493              -4.00     3000.00
02494              -4.00     3000.00
02495              -4.00     2800.00
02496              -2.00     2600.00
02497              -2.00     2400.00
02498              -4.00     2400.00
02499              -4.00     2000.00
02500              -4.00     2000.00
02501              -4.00     1800.00
02502              -4.00     1600.00
02503               0.00     1400.00
02504               0.00     1200.00
02505              -2.00     1000.00
02506              -4.00      800.00
02507               0.00      600.00
02508              -4.00      400.00
02509              -2.00      200.00
02510               0.00        0.00
02511               6.00        0.00
02512               6.00     -400.00
02513              14.00     -400.00
02514              28.00     -400.00
02515               4.00     -800.00
02516             -16.00    -1000.00
02517               4.00    -1200.00
02518              20.00    -1200.00
02519              16.00    -1200.00
02520              48.00    -1600.00
02521             226.00    -2000.00
02522             198.00    -2400.00
02523            -248.00    -2600.00
02524            -248.00    -2600.00
02525              -8.00    -2800.00
02526             126.00    -2600.00
02527             252.00    -2600.00
02528             252.00    -3400.00
02529            -248.00    -3200.00
02530            -248.00    -3000.00
02531             252.00    -4200.00
02532             118.00    -3600.00
02533            -248.00    -3600.00
02534             134.00    -4800.00
02535             110.00    -4000.00
02536              12.00    -4400.00
02537              86.00    -5200.00
02538            -196.00    -4400.00
02539             -16.00    -5200.00
02540             214.00    -5400.00
02541              14.00    -5000.00
02542            -106.00    -5600.00
02543             -40.00    -5600.00
02544              96.00    -5800.00
02545              80.00    -6000.00
02546              -4.00    -6200.00
02547             -58.00    -6400.00
02548             -48.00    -6600.00
02549             130.00    -6600.00
02550              82.00    -6800.00
02551            -114.00    -6800.00
02552              -4.00    -7200.00
02553              72.00    -7200.00
02554              32.00    -7400.00
02555               2.00    -7600.00
02556             -10.00    -7600.00
02557              30.00    -8000.00
02558              30.00    -8000.00
02559              16.00    -8000.00
02560             -10.00    -8200.00
02561               6.00    -8400.00
02562              62.00    -8400.00
02563              20.00    -8400.00
02564             -16.00    -8800.00
02565               6.00    -9000.00
02566              18.00    -8800.00
02567              38.00    -9200.00
02568              24.00    -9200.00
02569              -2.00    -9200.00
02570               6.00    -9600.00
02571              36.00    -9600.00
02572              22.00    -9600.00
02573              -4.00    -9800.00
02574              22.00    -9800.00
02575              32.00    -9800.00
02576              12.00   -10000.00
02577              14.00   -10000.00
02578              12.00   -10000.00
02579              10.00   -10200.00
02580              28.00   -10400.00
02581              24.00   -10400.00
02582               6.00   -10600.00
02583              20.00   -10600.00
02584              22.00   -10600.00
02585               6.00   -10600.00
02586              18.00   -10800.00
02587              20.00   -10800.00
02588              16.00   -10800.00
02589              28.00   -10800.00
02590              22.00   -10800.00
02591               4.00   -11000.00
02592              14.00   -11000.00
02593              24.00   -11000.00
02594              16.00   -11200.00
02595              20.00   -11200.00
02596              22.00   -11200.00
02597              12.00   -11200.00
02598              12.00   -11200.00
02599              20.00   -11200.00
02600              14.00   -11400.00
02601              22.00   -11200.00
02602              28.00   -11400.00
02603              16.00   -11400.00
02604              14.00   -11200.00
02605              14.00   -11200.00
02606              14.00   -11400.00
02607              20.00   -11200.00
02608              24.00   -11200.00
02609              16.00   -11400.00
02610              20.00   -11200.00
02611              20.00   -11400.00
02612              14.00   -11400.00
02613              16.00   -11400.00
02614              20.00   -11200.00
02615              20.00   -11200.00
02616              16.00   -11200.00
02617              16.00   -11200.00
02618              14.00   -11200.00
02619              14.00   -11200.00
02620              20.00   -10800.00
02621              20.00   -11000.00
02622              22.00   -10800.00
02623              20.00   -11000.00
02624              14.00   -10800.00
02625              12.00   -10800.00
02626              20.00   -10800.00
02627              14.00   -10600.00
02628              20.00   -10600.00
02629              20.00   -10600.00
02630              12.00   -10600.00
02631               8.00   -10400.00
02632              12.00   -10400.00
02633               8.00   -10400.00
02634              16.00   -10200.00
02635              16.00   -10200.00
02636              12.00   -10000.00
02637              14.00   -10000.00
02638               6.00    -9800.00
02639               8.00    -9800.00
02640              16.00    -9600.00
02641              12.00    -9600.00
02642              12.00    -9200.00
02643              16.00    -9600.00
02644               4.00    -9200.00
02645               6.00    -9200.00
02646              12.00    -9000.00
02647               8.00    -8800.00
02648              12.00    -8800.00
02649              10.00    -8800.00
02650               8.00    -8600.00
02651               6.00    -8400.00
02652               6.00    -8400.00
02653               6.00    -8200.00
02654              10.00    -8000.00
02655              12.00    -8000.00
02656               6.00    -7800.00
02657              10.00    -7600.00
02658               6.00    -7600.00
02659               4.00    -7200.00
02660               6.00    -7200.00
02661              10.00    -7200.00
02662               8.00    -7000.00
02663               6.00    -6800.00
02664               4.00    -6800.00
02665               0.00    -6400.00
02666               6.00    -6400.00
02667               6.00    -6000.00
02668               6.00    -6000.00
02669               6.00    -5800.00
02670               4.00    -5800.00
02671              -2.00    -5600.00
02672               4.00    -5400.00
02673               4.00    -5200.00
02674               4.00    -5000.00
02675               6.00    -5000.00
02676               4.00    -4600.00
02677               0.00    -4600.00
02678               0.00    -4400.00
02679               0.00    -4200.00
02680               0.00    -4000.00
02681               4.00    -3800.00
02682               4.00    -3600.00
02683              -4.00    -3400.00
02684              -2.00    -3400.00
02685              -2.00    -3200.00
02686              -2.00    -3000.00
02687               0.00    -2800.00
02688               0.00    -2600.00
02689              -2.00    -2400.00
02690               0.00    -2400.00
02691              -4.00    -2000.00
02692              -4.00    -2000.00
02693              -4.00    -1800.00
02694              -4.00    -1600.00
02695              -4.00    -1400.00
02696              -2.00    -1200.00
02697             -10.00    -1000.00
02698              -4.00     -800.00
02699              -4.00     -800.00
02700              -8.00     -400.00
02701              -4.00     -200.00
02702              -2.00     -200.00
02703              -4.00        0.00
02704              -2.00      400.00
02705              22.00      600.00
02706              12.00      800.00
02707             -18.00      800.00
02708             -18.00     1000.00
02709               0.00     1200.00
02710               6.00     1200.00
02711              52.00     1400.00
02712             252.00     2000.00
02713             156.00     2000.00
02714            -248.00     2400.00
02715            -248.00     2400.00
02716              -4.00     2200.00
02717             222.00     2400.00
02718             252.00     3000.00
02719             -40.00     2800.00
02720            -248.00     3200.00
02721             252.00     3400.00
02722             252.00     3400.00
02723            -248.00     4000.00
02724            -122.00     3400.00
02725             252.00     4000.00
02726            -248.00     4600.00
02727              92.00     3800.00
02728              92.00     4800.00
02729            -248.00     5000.00
02730             248.00     4400.00
02731              78.00     5400.00
02732            -234.00     5200.00
02733             100.00     5000.00
02734               4.00     6000.00
02735             -42.00     5800.00
02736              50.00     5600.00
02737               8.00     6600.00
02738            -122.00     6000.00
02739             -92.00     6200.00
02740             210.00     6800.00
02741             -82.00     6400.00
02742            -160.00     6800.00
02743             184.00     7000.00
02744            -106.00     7200.00
02745             -68.00     7200.00
02746             114.00     7600.00
02747             -92.00     8000.00
02748              -2.00     7400.00
02749              12.00     8000.00
02750             -74.00     8000.00
02751             -18.00     7600.00
02752              36.00     8600.00
02753              -4.00     8400.00
02754             -86.00     8400.00
02755              26.00     8600.00
02756             -16.00     8600.00
02757             -68.00     8800.00
02758              68.00     8800.00
02759             -48.00     9200.00
02760             -72.00     9000.00
02761              48.00     9200.00
02762             -28.00     9400.00
02763             -60.00     9400.00
02764               4.00     9600.00
02765              -4.00     9600.00
02766             -36.00     9600.00
02767             -10.00    10000.00
02768             -16.00    10000.00
02769             -48.00    10000.00
02770               8.00    10200.00
02771             -12.00    10200.00
02772             -54.00    10200.00
02773               0.00    10200.00
02774             -10.00    10400.00
02775             -44.00    10400.00
02776              -8.00    10400.00
02777             -24.00    10600.00
02778             -48.00    10800.00
02779              -2.00    10600.00
02780               0.00    10800.00
02781             -46.00    10800.00
02782             -20.00    10800.00
02783             -10.00    11000.00
02784             -36.00    11000.00
02785             -16.00    11000.00
02786             -10.00    11200.00
02787             -36.00    11000.00
02788             -18.00    11200.00
02789             -16.00    11200.00
02790             -32.00    11200.00
02791             -16.00    11200.00
02792             -10.00    11200.00
02793             -28.00    11200.00
02794             -20.00    11200.00
02795             -16.00    11200.00
02796             -36.00    11200.00
02797             -20.00    11200.00
02798             -10.00    11400.00
02799             -26.00    11200.00
02800             -20.00    11400.00
02801             -10.00    11400.00
02802             -28.00    11200.00
02803             -22.00    11200.00
02804             -12.00    11200.00
02805             -26.00    11200.00
02806             -20.00    11200.00
02807             -14.00    11200.00
02808             -20.00    11000.00
02809             -24.00    11200.00
02810             -18.00    11000.00
02811             -24.00    11000.00
02812             -18.00    11000.00
02813             -10.00    11000.00
02814             -20.00    10800.00
02815             -22.00    10800.00
02816             -18.00    10800.00
02817             -24.00    10800.00
02818             -20.00    10600.00
02819             -12.00    10400.00
02820             -18.00    10400.00
02821             -20.00    10400.00
02822             -18.00    10400.00
02823             -24.00    10200.00
02824             -20.00    10000.00
02825             -18.00    10200.00
02826             -18.00    10000.00
02827             -20.00     9800.00
02828             -16.00    10000.00
02829             -20.00     9600.00
02830             -20.00     9600.00
02831             -16.00     9600.00
02832             -18.00     9400.00
02833             -18.00     9200.00
02834             -16.00     9200.00
02835             -20.00     9200.00
02836             -20.00     9000.00
02837             -18.00     9000.00
02838             -16.00     8800.00
02839             -16.00     8600.00
02840             -12.00     8600.00
02841             -16.00     8400.00
02842             -18.00     8400.00
02843             -16.00     8200.00
02844             -18.00     8000.00
02845             -14.00     8200.00
02846             -10.00     7800.00
02847             -14.00     7800.00
02848             -16.00     7600.00
02849             -16.00     7400.00
02850             -16.00     7400.00
02851             -12.00     7200.00
02852             -12.00     7000.00
02853             -12.00     7000.00
02854             -10.00     6800.00
02855             -10.00     6400.00
02856             -16.00     6400.00
02857             -12.00     6200.00
02858             -10.00     6000.00
02859              -8.00     6000.00
02860             -10.00     6000.00
02861             -10.00     5600.00
02862             -10.00     5400.00
02863             -10.00     5400.00
02864              -8.00     5200.00
02865              -4.00     5000.00
02866             -10.00     4800.00
02867              -8.00     4600.00
02868              -6.00     4400.00
02869              -8.00     4400.00
02870              -8.00     4200.00
02871              -8.00     3800.00
02872              -4.00     3800.00
02873              -4.00     3600.00
02874              -4.00     3400.00
02875              -8.00     3200.00
02876              -6.00     3200.00
02877              -4.00     2800.00
02878              -4.00     2800.00
02879              -2.00     2600.00
02880              -2.00     2400.00
02881              -4.00     2400.00
02882              -4.00     2000.00
02883              -4.00     1800.00
02884              -4.00     1600.00
02885              -2.00     1400.00
02886               0.00     1200.00
02887              -2.00     1200.00
02888               0.00     1000.00
02889              -2.00      800.00
02890              -4.00      800.00
02891               0.00      400.00
02892               0.00      200.00
02893               4.00        0.00
02894               6.00     -200.00
02895               6.00     -400.00
02896              24.00     -600.00
02897              22.00     -800.00
02898              -4.00     -800.00
02899             -12.00    -1000.00
02900              12.00    -1200.00
02901              20.00    -1200.00
02902              20.00    -1600.00
02903              88.00    -1600.00
02904             252.00    -2000.00
02905              80.00    -2600.00
02906            -248.00    -2600.00
02907            -248.00    -2800.00
02908              88.00    -2800.00
02909             124.00    -2600.00
02910             252.00    -2800.00
02911             184.00    -3600.00
02912            -248.00    -3200.00
02913               6.00    -3400.00
02914             252.00    -4400.00
02915            -224.00    -3400.00
02916            -248.00    -4000.00
02917             220.00    -4600.00
02918              22.00    -3800.00
02919              70.00    -4800.00
02920              14.00    -4800.00
02921            -212.00    -4400.00
02922              96.00    -5200.00
02923             188.00    -5200.00
02924             -48.00    -5200.00
02925            -100.00    -5800.00
02926               0.00    -5600.00
02927             112.00    -6000.00
02928              52.00    -6200.00
02929             -20.00    -6400.00
02930             -70.00    -6400.00
02931              -6.00    -6400.00
02932             160.00    -6800.00
02933               8.00    -6800.00
02934            -110.00    -7000.00
02935              38.00    -7200.00
02936              62.00    -7200.00
02937              22.00    -7600.00
02938              -4.00    -7600.00
02939              -4.00    -7600.00
02940              38.00    -8000.00
02941              28.00    -8000.00
02942               8.00    -8200.00
02943             -12.00    -8200.00
02944              28.00    -8400.00
02945              62.00    -8600.00
02946               4.00    -8600.00
02947             -10.00    -8800.00
02948              12.00    -9000.00
02949              24.00    -9000.00
02950              40.00    -9200.00
02951              16.00    -9200.00
02952              -8.00    -9400.00
02953              16.00    -9400.00
02954              36.00    -9600.00
02955               6.00    -9800.00
02956              -2.00    -9800.00
02957              32.00    -9800.00
02958              28.00   -10000.00
02959              10.00   -10000.00
02960              14.00   -10000.00
02961              12.00   -10000.00
02962              14.00   -10400.00
02963              28.00   -10400.00
02964              16.00   -10400.00
02965              12.00   -10600.00
02966              22.00   -10400.00
02967              16.00   -10600.00
02968               8.00   -10600.00
02969              16.00   -10800.00
02970              16.00   -10800.00
02971              22.00   -10800.00
02972              30.00   -10800.00
02973              14.00   -10800.00
02974               4.00   -11000.00
02975              20.00   -11000.00
02976              24.00   -11200.00
02977              16.00   -11200.00
02978              22.00   -11200.00
02979              20.00   -11200.00
02980              12.00   -11200.00
02981              14.00   -11200.00
02982              16.00   -11400.00
02983              16.00   -11400.00
02984              24.00   -11200.00
02985              22.00   -11400.00
02986              16.00   -11200.00
02987              14.00   -11200.00
02988              12.00   -11400.00
02989              16.00   -11200.00
02990              24.00   -11400.00
02991              22.00   -11400.00
02992              14.00   -11200.00
02993              20.00   -11400.00
02994              16.00   -11400.00
02995              12.00   -11200.00
02996              16.00   -11200.00
02997              22.00   -11200.00
02998              20.00   -11200.00
02999              20.00   -11200.00
03000              14.00   -11200.00
03001              12.00   -11200.00
03002              14.00   -11200.00
03003              18.00   -11000.00
03004              20.00   -11000.00
03005              22.00   -10800.00
03006              16.00   -10800.00
03007              12.00   -10800.00
03008              12.00   -10800.00
03009              16.00   -10800.00
03010              16.00   -10600.00
03011              20.00   -10600.00
03012              16.00   -10600.00
03013              12.00   -10400.00
03014               8.00   -10400.00
03015              14.00   -10400.00
03016              14.00   -10400.00
03017              16.00   -10000.00
03018              18.00   -10000.00
03019              14.00   -10000.00
03020              12.00    -9800.00
03021               8.00    -9800.00
03022               8.00    -9800.00
03023              12.00    -9800.00
03024              14.00    -9600.00
03025              12.00    -9400.00
03026               8.00    -9200.00
03027               8.00    -9200.00
03028               8.00    -9200.00
03029               6.00    -9000.00
03030              12.00    -8800.00
03031              12.00    -8800.00
03032              14.00    -8800.00
03033               6.00    -8800.00
03034               6.00    -8400.00
03035               6.00    -8200.00
03036               8.00    -8200.00
03037              12.00    -8200.00
03038              12.00    -8000.00
03039               8.00    -7600.00
03040               6.00    -7600.00
03041               4.00    -7400.00
03042               4.00    -7400.00
03043               6.00    -7200.00
03044               6.00    -7000.00
03045               6.00    -7000.00
03046               4.00    -6800.00
03047               4.00    -6600.00
03048               4.00    -6600.00
03049               4.00    -6400.00
03050               6.00    -6000.00
03051               8.00    -6000.00
03052               6.00    -5800.00
03053               4.00    -5800.00
03054               0.00    -5600.00
03055               0.00    -5400.00
03056               4.00    -5200.00
03057               6.00    -5000.00
03058               6.00    -4800.00
03059               2.00    -4600.00
03060               4.00    -4600.00
03061              -4.00    -4400.00
03062               0.00    -4200.00
03063               4.00    -4000.00
03064               2.00    -3800.00
03065               6.00    -3600.00
03066              -2.00    -3400.00
03067              -4.00    -3200.00
03068              -2.00    -3200.00
03069              -4.00    -2800.00
03070               4.00    -2800.00
03071              -2.00    -2600.00
03072              -2.00    -2400.00
03073              -2.00    -2000.00
03074              -4.00    -2000.00
03075              -4.00    -1800.00
03076              -4.00    -1600.00
03077               0.00    -1600.00
03078              -2.00    -1200.00
03079              -2.00    -1000.00
03080              -4.00    -1000.00
03081              -6.00     -800.00
03082              -8.00     -600.00
03083              -2.00     -400.00
03084              -2.00     -200.00
03085              -6.00        0.00
03086               2.00        0.00
03087               6.00      600.00
03088              22.00      400.00
03089               4.00      800.00
03090             -26.00      800.00
03091              -4.00     1000.00
03092               8.00     1200.00
03093               8.00     1400.00
03094              92.00     1400.00
03095             252.00     2000.00
03096             -10.00     2200.00
03097            -248.00     2200.00
03098            -248.00     2400.00
03099              60.00     2400.00
03100             252.00     2800.00
03101             252.00     3000.00
03102            -248.00     2800.00
03103            -248.00     3200.00
03104             252.00     3200.00
03105             252.00     3600.00
03106            -248.00     3800.00
03107             252.00     3600.00
03108             252.00     4400.00
03109            -248.00     4200.00
03110             252.00     3800.00
03111            -112.00     5200.00
03112            -224.00     4800.00
03113             252.00     4600.00
03114            -106.00     5600.00
03115            -156.00     5200.00
03116             112.00     5200.00
03117             -58.00     6200.00
03118              -4.00     5400.00
03119              52.00     5800.00
03120              -6.00     6400.00
03121            -154.00     5800.00
03122               6.00     6400.00
03123             196.00     6800.00
03124            -198.00     6400.00
03125             -38.00     7000.00
03126             152.00     7000.00
03127            -180.00     7200.00
03128              28.00     7200.00
03129              60.00     7600.00
03130            -100.00     7600.00
03131              38.00     7400.00
03132             -24.00     8200.00
03133             -64.00     7800.00
03134               4.00     8000.00
03135              40.00     8400.00
03136             -40.00     8000.00
03137             -68.00     8600.00
03138              46.00     8600.00
03139             -58.00     8800.00
03140             -28.00     9000.00
03141              56.00     9000.00
03142             -88.00     9200.00
03143             -26.00     9200.00
03144              44.00     9400.00
03145             -52.00     9600.00
03146             -42.00     9400.00
03147              12.00     9600.00
03148             -16.00     9600.00
03149             -36.00     9600.00
03150              -2.00    10000.00
03151             -32.00    10000.00
03152             -36.00    10000.00
03153              16.00    10400.00
03154             -36.00    10000.00
03155             -44.00    10200.00
03156              12.00    10200.00
03157             -28.00    10400.00
03158             -36.00    10400.00
03159               0.00    10600.00
03160             -36.00    10800.00
03161             -40.00    10600.00
03162              12.00    11000.00
03163             -16.00    10800.00
03164             -46.00    10800.00
03165             -14.00    11000.00
03166             -20.00    11000.00
03167             -36.00    11000.00
03168              -4.00    11200.00
03169             -20.00    11200.00
03170             -36.00    11000.00
03171             -16.00    11200.00
03172             -24.00    11200.00
03173             -34.00    11000.00
03174             -12.00    11200.00
03175             -18.00    11200.00
03176             -28.00    11200.00
03177             -16.00    11200.00
03178             -22.00    11200.00
03179             -36.00    11400.00
03180             -16.00    11200.00
03181             -16.00    11200.00
03182             -28.00    11200.00
03183             -16.00    11200.00
03184             -18.00    11200.00
03185             -32.00    11200.00
03186             -20.00    11400.00
03187             -16.00    11200.00
03188             -28.00    11200.00
03189             -18.00    11000.00
03190             -12.00    11200.00
03191             -26.00    11000.00
03192             -20.00    11000.00
03193             -20.00    11200.00
03194             -24.00    11000.00
03195             -12.00    11000.00
03196             -16.00    11000.00
03197             -24.00    10800.00
03198             -20.00    10800.00
03199             -20.00    10800.00
03200             -24.00    10400.00
03201             -16.00    10400.00
03202             -16.00    10400.00
03203             -22.00    10400.00
03204             -20.00    10400.00
03205             -16.00    10400.00
03206             -24.00    10200.00
03207             -20.00    10000.00
03208             -12.00    10200.00
03209             -18.00    10000.00
03210             -18.00    10000.00
03211             -18.00    10000.00
03212             -20.00     9800.00
03213             -18.00     9600.00
03214             -14.00     9600.00
03215             -18.00     9400.00
03216             -18.00     9200.00
03217             -18.00     9200.00
03218             -20.00     9200.00
03219             -18.00     9200.00
03220             -18.00     8800.00
03221             -16.00     8800.00
03222             -16.00     8800.00
03223             -12.00     8600.00
03224             -18.00     8600.00
03225             -20.00     8200.00
03226             -16.00     8400.00
03227             -18.00     8000.00
03228             -16.00     7800.00
03229             -12.00     7800.00
03230             -12.00     7600.00
03231             -18.00     7600.00
03232             -16.00     7600.00
03233             -12.00     7200.00
03234             -14.00     7000.00
03235             -12.00     7000.00
03236             -14.00     7000.00
03237             -10.00     6600.00
03238             -12.00     6400.00
03239             -16.00     6400.00
03240             -16.00     6200.00
03241             -10.00     6000.00
03242             -10.00     6000.00
03243             -10.00     5800.00
03244             -10.00     5600.00
03245             -10.00     5400.00
03246             -12.00     5400.00
03247              -8.00     5000.00
03248              -8.00     4800.00
03249              -8.00     4800.00
03250             -10.00     4600.00
03251              -8.00     4400.00
03252             -10.00     4400.00
03253             -10.00     4000.00
03254              -4.00     3800.00
03255              -2.00     3800.00
03256              -4.00     3600.00
03257              -6.00     3400.00
03258              -4.00     3200.00
03259              -6.00     3000.00
03260              -6.00     2800.00
03261              -2.00     2800.00
03262              -4.00     2400.00
03263              -4.00     2200.00
03264               0.00     2200.00
03265              -2.00     2000.00
03266              -4.00     1800.00
03267              -4.00     1600.00
03268              -2.00     1200.00
03269               2.00     1200.00
03270               2.00     1200.00
03271              -2.00      800.00
03272              -4.00      800.00
03273               0.00      600.00
03274               0.00      200.00
03275               0.00        0.00
03276               6.00        0.00
03277               6.00     -200.00
03278              10.00     -400.00
03279              28.00     -800.00
03280              18.00     -800.00
03281             -10.00    -1000.00
03282              -8.00    -1200.00
03283              14.00    -1200.00
03284              20.00    -1600.00
03285              28.00    -1600.00
03286             140.00    -1600.00
03287             252.00    -2200.00
03288             -74.00    -2600.00
03289            -248.00    -2400.00
03290            -208.00    -2800.00
03291             132.00    -2800.00
03292             160.00    -2600.00
03293             252.00    -3200.00
03294            -102.00    -3600.00
03295            -248.00    -2800.00
03296             252.00    -4000.00
03297             252.00    -4000.00
03298            -248.00    -3400.00
03299            -116.00    -4600.00
03300             220.00    -4400.00
03301             -22.00    -4000.00
03302             110.00    -5000.00
03303             -90.00    -4800.00
03304            -164.00    -4800.00
03305             174.00    -5600.00
03306             124.00    -5200.00
03307             -86.00    -5400.00
03308             -86.00    -6000.00
03309              44.00    -5600.00
03310             110.00    -5800.00
03311              22.00    -6400.00
03312             -34.00    -6200.00
03313             -74.00    -6400.00
03314              48.00    -6600.00
03315             152.00    -6800.00
03316             -62.00    -6800.00
03317             -76.00    -7200.00
03318              64.00    -7400.00
03319              46.00    -7200.00
03320              14.00    -7600.00
03321             -10.00    -7600.00
03322               8.00    -7600.00
03323              36.00    -8000.00
03324              22.00    -8000.00
03325               0.00    -8000.00
03326             -12.00    -8400.00
03327              46.00    -8400.00
03328              52.00    -8400.00
03329             -12.00    -8800.00
03330              -4.00    -9000.00
03331              14.00    -9000.00
03332              32.00    -9000.00
03333              38.00    -9000.00
03334               4.00    -9200.00
03335              -4.00    -9600.00
03336              28.00    -9600.00
03337              36.00    -9600.00
03338              -2.00    -9600.00
03339               8.00    -9800.00
03340              36.00    -9800.00
03341              20.00   -10000.00
03342              12.00   -10200.00
03343              16.00   -10000.00
03344               6.00   -10200.00
03345              24.00   -10400.00
03346              28.00   -10400.00
03347              12.00   -10400.00
03348              16.00   -10400.00
03349              24.00   -10600.00
03350              12.00   -10600.00
03351              12.00   -10600.00
03352              18.00   -10800.00
03353              14.00   -10800.00
03354              24.00   -10800.00
03355              28.00   -11000.00
03356               8.00   -11200.00
03357               6.00   -11000.00
03358              22.00   -11200.00
03359              20.00   -11000.00
03360              16.00   -11200.00
03361              22.00   -11200.00
03362              16.00   -11200.00
03363               8.00   -11200.00
03364              18.00   -11200.00
03365              20.00   -11400.00
03366              16.00   -11400.00
03367              24.00   -11400.00
03368              22.00   -11400.00
03369              12.00   -11400.00
03370              14.00   -11400.00
03371              14.00   -11400.00
03372              20.00   -11400.00
03373              22.00   -11400.00
03374              20.00   -11400.00
03375              20.00   -11200.00
03376              20.00   -11400.00
03377              14.00   -11400.00
03378              12.00   -11200.00
03379              20.00   -11400.00
03380              22.00   -11200.00
03381              16.00   -11200.00
03382              20.00   -11200.00
03383              16.00   -11200.00
03384               8.00   -11000.00
03385              16.00   -11200.00
03386              20.00   -11000.00
03387              20.00   -11000.00
03388              20.00   -10800.00
03389              14.00   -10800.00
03390               8.00   -10800.00
03391              14.00   -10600.00
03392              18.00   -10600.00
03393              16.00   -10600.00
03394              20.00   -10600.00
03395              16.00   -10600.00
03396               8.00   -10600.00
03397              12.00   -10400.00
03398              14.00   -10400.00
03399              14.00   -10000.00
03400              18.00   -10000.00
03401              16.00   -10000.00
03402              10.00   -10000.00
03403              10.00    -9800.00
03404              12.00    -9800.00
03405              12.00    -9600.00
03406              16.00    -9600.00
03407              14.00    -9600.00
03408              12.00    -9400.00
03409               8.00    -9200.00
03410               8.00    -9000.00
03411               6.00    -9200.00
03412              12.00    -9000.00
03413              12.00    -9000.00
03414              12.00    -8800.00
03415              12.00    -8800.00
03416               6.00    -8400.00
03417               6.00    -8400.00
03418               8.00    -8400.00
03419               8.00    -8000.00
03420              12.00    -8000.00
03421              10.00    -7800.00
03422               6.00    -7600.00
03423               4.00    -7600.00
03424               2.00    -7400.00
03425               6.00    -7200.00
03426               8.00    -7200.00
03427               8.00    -7200.00
03428               6.00    -6800.00
03429               6.00    -6800.00
03430               4.00    -6600.00
03431               2.00    -6400.00
03432               6.00    -6400.00
03433               6.00    -6000.00
03434               6.00    -6000.00
03435               4.00    -5800.00
03436               4.00    -5600.00
03437               0.00    -5400.00
03438               4.00    -5200.00
03439               4.00    -5200.00
03440               4.00    -4800.00
03441               4.00    -4600.00
03442               4.00    -4600.00
03443               0.00    -4400.00
03444               0.00    -4400.00
03445               0.00    -4200.00
03446               4.00    -3800.00
03447               4.00    -3800.00
03448               0.00    -3600.00
03449               0.00    -3400.00
03450              -2.00    -3200.00
03451              -4.00    -3200.00
03452               0.00    -2800.00
03453               4.00    -2600.00
03454               2.00    -2400.00
03455               0.00    -2400.00
03456              -2.00    -2200.00
03457              -4.00    -2000.00
03458              -4.00    -1800.00
03459              -2.00    -1600.00
03460              -2.00    -1400.00
03461               0.00    -1200.00
03462              -2.00    -1000.00
03463              -4.00     -800.00
03464              -8.00     -600.00
03465              -4.00     -400.00
03466               0.00     -400.00
03467              -2.00     -200.00
03468               0.00        0.00
03469               0.00      400.00
03470              16.00      400.00
03471              22.00      800.00
03472              -8.00      800.00
03473             -20.00     1000.00
03474               0.00     1000.00
03475              10.00     1200.00
03476              16.00     1400.00
03477             158.00     1800.00
03478             252.00     2000.00
03479            -202.00     2200.00
03480            -248.00     2200.00
03481            -164.00     2200.00
03482             104.00     2400.00
03483             252.00     3000.00
03484             252.00     2800.00
03485            -248.00     2800.00
03486            -248.00     3400.00
03487             252.00     3200.00
03488             -68.00     4000.00
03489            -248.00     3800.00
03490             252.00     3600.00
03491             -10.00     4400.00
03492            -210.00     4000.00
03493             252.00     4400.00
03494            -248.00     5200.00
03495             -18.00     4400.00
03496             252.00     4800.00
03497            -228.00     5800.00
03498             -42.00     4800.00
03499              80.00     5600.00
03500             -82.00     6200.00
03501              30.00     5400.00
03502              42.00     6200.00
03503             -48.00     6400.00
03504            -160.00     6000.00
03505             118.00     6800.00
03506             108.00     6800.00
03507            -248.00     6800.00
03508              94.00     7200.00
03509              58.00     7200.00
03510            -188.00     7400.00
03511             100.00     7200.00
03512             -10.00     7800.00
03513             -68.00     7600.00
03514              48.00     7600.00
03515             -58.00     8200.00
03516             -52.00     7600.00
03517              20.00     8200.00
03518              36.00     8400.00
03519             -68.00     8200.00
03520             -32.00     8600.00
03521              30.00     8600.00
03522             -90.00     8800.00
03523              26.00     8800.00
03524              28.00     9000.00
03525            -106.00     9200.00
03526              20.00     9200.00
03527              22.00     9600.00
03528             -68.00     9400.00
03529             -20.00     9400.00
03530              12.00     9800.00
03531             -30.00     9600.00
03532             -28.00     9800.00
03533              -2.00    10000.00
03534             -42.00    10000.00
03535             -16.00    10200.00
03536              12.00    10200.00
03537             -56.00    10200.00
03538             -24.00    10400.00
03539               8.00    10400.00
03540             -36.00    10400.00
03541             -20.00    10400.00
03542              -4.00    10800.00
03543             -48.00    10600.00
03544             -26.00    10600.00
03545              14.00    10800.00
03546             -30.00    10800.00
03547             -38.00    10800.00
03548              -4.00    11000.00
03549             -32.00    11000.00
03550             -26.00    11000.00
03551              -2.00    11200.00
03552             -28.00    11000.00
03553             -32.00    11000.00
03554             -10.00    11200.00
03555             -28.00    11200.00
03556             -28.00    11200.00
03557             -10.00    11200.00
03558             -22.00    11200.00
03559             -28.00    11200.00
03560             -12.00    11200.00
03561             -28.00    11200.00
03562             -36.00    11200.00
03563             -10.00    11200.00
03564             -20.00    11200.00
03565             -28.00    11200.00
03566             -12.00    11200.00
03567             -28.00    11400.00
03568             -26.00    11200.00
03569             -16.00    11200.00
03570             -20.00    11200.00
03571             -28.00    11200.00
03572             -12.00    11200.00
03573             -16.00    11200.00
03574             -28.00    11000.00
03575             -20.00    11000.00
03576             -20.00    11000.00
03577             -24.00    11000.00
03578             -10.00    10800.00
03579             -18.00    11000.00
03580             -28.00    10800.00
03581             -26.00    10800.00
03582             -24.00    10800.00
03583             -20.00    10800.00
03584              -4.00    10600.00
03585              -8.00    10600.00
03586             -22.00    10400.00
03587             -20.00    10400.00
03588             -26.00    10200.00
03589             -28.00    10400.00
03590             -16.00    10200.00
03591              -8.00    10200.00
03592             -16.00    10000.00
03593             -24.00    10000.00
03594             -20.00    10000.00
03595             -20.00     9800.00
03596             -16.00     9600.00
03597             -10.00     9400.00
03598             -18.00     9400.00
03599             -20.00     9200.00
03600             -18.00     9200.00
03601             -16.00     9200.00
03602             -10.00     8800.00
03603             -16.00     8800.00
03604             -20.00     8800.00
03605             -16.00     8600.00
03606             -10.00     8600.00
03607             -12.00     8400.00
03608             -18.00     8400.00
03609             -18.00     8200.00
03610             -18.00     8000.00
03611             -16.00     7800.00
03612              -8.00     7800.00
03613             -12.00     7600.00
03614             -18.00     7600.00
03615             -18.00     7400.00
03616             -12.00     7200.00
03617             -10.00     7200.00
03618             -10.00     7000.00
03619             -10.00     6800.00
03620             -10.00     6600.00
03621             -16.00     6400.00
03622             -12.00     6400.00
03623             -12.00     6200.00
03624             -10.00     6000.00
03625             -10.00     5800.00
03626             -12.00     5600.00
03627             -10.00     5400.00
03628             -10.00     5400.00
03629             -10.00     5400.00
03630              -8.00     5200.00
03631              -6.00     4800.00
03632             -10.00     4800.00
03633              -8.00     4600.00
03634              -8.00     4400.00
03635              -8.00     4200.00
03636              -8.00     4000.00
03637              -4.00     3800.00
03638              -4.00     3800.00
03639              -4.00     3400.00
03640              -8.00     3400.00
03641              -8.00     3000.00
03642              -8.00     3000.00
03643              -4.00     3000.00
03644              -2.00     2800.00
03645              -2.00     2600.00
03646              -2.00     2200.00
03647              -4.00     2200.00
03648              -2.00     2000.00
03649              -4.00     1600.00
03650              -2.00     1400.00
03651               0.00     1400.00
03652               4.00     1200.00
03653              -2.00     1000.00
03654              -2.00      800.00
03655              -2.00     1000.00
03656               0.00      400.00
03657               0.00      400.00
03658               4.00        0.00
03659               6.00        0.00
03660               6.00     -200.00
03661              16.00     -400.00
03662              30.00     -600.00
03663               6.00     -800.00
03664             -12.00     -800.00
03665               4.00    -1200.00
03666              20.00    -1200.00
03667              20.00    -1400.00
03668              44.00    -1600.00
03669             200.00    -1800.00
03670             238.00    -2200.00
03671            -234.00    -2600.00
03672            -248.00    -2600.00
03673             -64.00    -2800.00
03674             134.00    -2800.00
03675             232.00    -2400.00
03676             252.00    -3400.00
03677            -248.00    -3600.00
03678            -248.00    -2800.00
03679             252.00    -4200.00
03680             252.00    -3800.00
03681            -248.00    -3600.00
03682              74.00    -4800.00
03683             150.00    -4200.00
03684             -16.00    -4200.00
03685             108.00    -5200.00
03686            -172.00    -4400.00
03687             -66.00    -5000.00
03688             214.00    -5400.00
03689              44.00    -5000.00
03690            -106.00    -5600.00
03691             -58.00    -5800.00
03692              78.00    -5800.00
03693              92.00    -6000.00
03694               0.00    -6400.00
03695             -52.00    -6400.00
03696             -64.00    -6400.00
03697             108.00    -6800.00
03698             110.00    -6800.00
03699            -108.00    -6800.00
03700             -26.00    -7200.00
03701              74.00    -7200.00
03702              30.00    -7400.00
03703               6.00    -7600.00
03704             -12.00    -7600.00
03705              22.00    -8000.00
03706              36.00    -8000.00
03707              14.00    -8000.00
03708             -10.00    -8200.00
03709               0.00    -8400.00
03710              56.00    -8400.00
03711              30.00    -8600.00
03712             -18.00    -8800.00
03713               0.00    -9000.00
03714              16.00    -9000.00
03715              38.00    -9000.00
03716              32.00    -9200.00
03717              -4.00    -9200.00
03718               4.00    -9600.00
03719              36.00    -9400.00
03720              22.00    -9600.00
03721              -4.00    -9800.00
03722              16.00    -9800.00
03723              34.00    -9800.00
03724              16.00   -10000.00
03725              14.00   -10000.00
03726              14.00   -10000.00
03727              10.00   -10200.00
03728              28.00   -10200.00
03729              24.00   -10400.00
03730              10.00   -10400.00
03731              22.00   -10600.00
03732              22.00   -10600.00
03733              12.00   -10600.00
03734              14.00   -10600.00
03735              16.00   -10800.00
03736              16.00   -10800.00
03737              30.00   -10800.00
03738              22.00   -11000.00
03739               4.00   -11000.00
03740              10.00   -11200.00
03741              22.00   -11000.00
03742              16.00   -11200.00
03743              20.00   -11200.00
03744              22.00   -11200.00
03745              12.00   -11400.00
03746               8.00   -11400.00
03747              16.00   -11400.00
03748              16.00   -11200.00
03749              22.00   -11200.00
03750              22.00   -11200.00
03751              14.00   -11200.00
03752              12.00   -11200.00
03753              14.00   -11400.00
03754              14.00   -11400.00
03755              20.00   -11400.00
03756              22.00   -11400.00
03757              20.00   -11400.00
03758              16.00   -11400.00
03759              16.00   -11400.00
03760              12.00   -11400.00
03761              12.00   -11400.00
03762              22.00   -11200.00
03763              20.00   -11200.00
03764              14.00   -11200.00
03765              16.00   -11200.00
03766              14.00   -11000.00
03767              12.00   -11200.00
03768              16.00   -11200.00
03769              20.00   -11000.00
03770              16.00   -10800.00
03771              16.00   -11000.00
03772              12.00   -10800.00
03773              12.00   -10800.00
03774              14.00   -10800.00
03775              16.00   -10800.00
03776              16.00   -10600.00
03777              16.00   -10400.00
03778              16.00   -10600.00
03779              12.00   -10400.00
03780              12.00   -10400.00
03781              14.00   -10200.00
03782              12.00   -10400.00
03783              20.00   -10000.00
03784              16.00   -10000.00
03785              14.00   -10000.00
03786               8.00    -9800.00
03787               8.00    -9800.00
03788              12.00    -9600.00
03789              18.00    -9600.00
03790              16.00    -9600.00
03791              12.00    -9400.00
03792               8.00    -9200.00
03793               8.00    -9200.00
03794               8.00    -9000.00
03795              14.00    -8800.00
03796              14.00    -8800.00
03797              12.00    -8800.00
03798              10.00    -8400.00
03799               8.00    -8600.00
03800               6.00    -8400.00
03801               8.00    -8200.00
03802              10.00    -8000.00
03803              10.00    -8000.00
03804              12.00    -7800.00
03805               6.00    -7600.00
03806               4.00    -7600.00
03807               4.00    -7400.00
03808               8.00    -7200.00
03809               6.00    -7200.00
03810               6.00    -7000.00
03811               8.00    -6800.00
03812               6.00    -6600.00
03813               0.00    -6600.00
03814               0.00    -6400.00
03815               4.00    -6000.00
03816               6.00    -6000.00
03817               4.00    -5800.00
03818               6.00    -5800.00
03819               0.00    -5600.00
03820               0.00    -5400.00
03821               2.00    -5200.00
03822               4.00    -5000.00
03823               4.00    -4800.00
03824               4.00    -4800.00
03825              -2.00    -4400.00
03826              -4.00    -4400.00
03827              -2.00    -4200.00
03828               6.00    -4000.00
03829               4.00    -4000.00
03830               2.00    -3600.00
03831              -4.00    -3600.00
03832              -4.00    -3400.00
03833              -2.00    -3200.00
03834               0.00    -3000.00
03835               0.00    -2800.00
03836              -4.00    -2600.00
03837              -4.00    -2400.00
03838               0.00    -2400.00
03839              -2.00    -2000.00
03840              -4.00    -1800.00
03841              -8.00    -1800.00
03842              -4.00    -1400.00
03843              -2.00    -1400.00
03844               0.00    -1200.00
03845              -4.00    -1000.00
03846              -4.00     -800.00
03847             -10.00     -600.00
03848              -4.00     -400.00
03849              -2.00     -200.00
03850              -2.00        0.00
03851              -2.00        0.00
03852               2.00      400.00
03853              20.00      400.00
03854              12.00      600.00
03855             -12.00      800.00
03856             -18.00     1000.00
03857               6.00     1200.00
03858              12.00     1200.00
03859              32.00     1600.00
03860             232.00     1800.00
03861             214.00     2200.00
03862            -248.00     2200.00
03863            -248.00     2400.00
03864             -42.00     2200.00
03865             174.00     2600.00
03866             252.00     2800.00
03867             164.00     2800.00
03868            -248.00     3000.00
03869             156.00     3400.00
03870             252.00     3400.00
03871            -248.00     4000.00
03872            -248.00     3600.00
03873             252.00     3800.00
03874            -248.00     4600.00
03875               6.00     4000.00
03876             176.00     4600.00
03877            -248.00     5200.00
03878             184.00     4400.00
03879             156.00     5200.00
03880            -248.00     5600.00
03881              60.00     4800.00
03882              24.00     6000.00
03883             -66.00     6000.00
03884              48.00     5400.00
03885              28.00     6400.00
03886             -98.00     6000.00
03887            -124.00     6000.00
03888             192.00     6800.00
03889             -20.00     6400.00
03890            -208.00     6800.00
03891             170.00     7000.00
03892             -64.00     7200.00
03893            -114.00     7200.00
03894             120.00     7400.00
03895             -76.00     7800.00
03896             -22.00     7400.00
03897              28.00     8000.00
03898             -74.00     8200.00
03899             -26.00     7600.00
03900              32.00     8400.00
03901               6.00     8400.00
03902             -88.00     8400.00
03903              10.00     8800.00
03904               0.00     8600.00
03905             -80.00     8800.00
03906              56.00     8800.00
03907             -26.00     9200.00
03908             -86.00     9000.00
03909              44.00     9200.00
03910             -14.00     9600.00
03911             -66.00     9400.00
03912              -4.00     9800.00
03913               0.00     9600.00
03914             -36.00     9600.00
03915             -14.00    10000.00
03916              -8.00    10000.00
03917             -50.00    10000.00
03918               4.00    10200.00
03919              -4.00    10200.00
03920             -56.00    10200.00
03921              -4.00    10200.00
03922              -4.00    10400.00
03923             -44.00    10400.00
03924              -8.00    10600.00
03925             -16.00    10400.00
03926             -48.00    10800.00
03927              -4.00    10600.00
03928               6.00    10800.00
03929             -42.00    10800.00
03930             -26.00    10800.00
03931              -6.00    11000.00
03932             -34.00    11000.00
03933             -18.00    11000.00
03934              -4.00    11000.00
03935             -36.00    11000.00
03936             -24.00    11000.00
03937             -12.00    11200.00
03938             -34.00    11200.00
03939             -22.00    11200.00
03940             -10.00    11200.00
03941             -26.00    11200.00
03942             -20.00    11200.00
03943             -16.00    11200.00
03944             -34.00    11200.00
03945             -24.00    11200.00
03946             -10.00    11200.00
03947             -26.00    11000.00
03948             -20.00    11200.00
03949             -12.00    11200.00
03950             -28.00    11200.00
03951             -26.00    11200.00
03952             -14.00    11200.00
03953             -26.00    11200.00
03954             -24.00    11200.00
03955             -12.00    11200.00
03956             -24.00    11200.00
03957             -26.00    11000.00
03958             -18.00    11000.00
03959             -24.00    11000.00
03960             -20.00    10800.00
03961             -12.00    11000.00
03962             -20.00    11000.00
03963             -24.00    11000.00
03964             -18.00    10800.00
03965             -24.00    10800.00
03966             -20.00    10400.00
03967             -12.00    10600.00
03968             -18.00    10400.00
03969             -22.00    10400.00
03970             -14.00    10400.00
03971             -20.00    10200.00
03972             -20.00    10200.00
03973             -12.00    10200.00
03974             -14.00    10000.00
03975             -18.00    10000.00
03976             -18.00    10000.00
03977             -20.00     9800.00
03978             -20.00     9600.00
03979             -16.00     9600.00
03980             -16.00     9400.00
03981             -16.00     9400.00
03982             -16.00     9200.00
03983             -18.00     9200.00
03984             -20.00     9200.00
03985             -16.00     9000.00
03986             -16.00     8800.00
03987             -16.00     8800.00
03988             -10.00     8600.00
03989             -12.00     8400.00
03990             -18.00     8400.00
03991             -16.00     8200.00
03992             -12.00     8200.00
03993             -14.00     8000.00
03994             -10.00     7800.00
03995             -12.00     7800.00
03996             -16.00     7600.00
03997             -16.00     7400.00
03998             -12.00     7200.00
03999             -14.00     7200.00
04000             -12.00     7000.00
04001             -10.00     7000.00
04002             -12.00     6800.00
04003             -10.00     6600.00
04004             -16.00     6400.00
04005             -14.00     6200.00
04006             -12.00     6200.00
04007              -8.00     6000.00
04008             -10.00     5600.00
04009             -10.00     5600.00
04010             -12.00     5400.00
04011             -10.00     5400.00
04012             -10.00     5200.00
04013             -10.00     5000.00
04014              -8.00     4800.00
04015              -8.00     4600.00
04016             -10.00     4600.00
04017             -10.00     4400.00
04018              -8.00     4200.00
04019             -10.00     4000.00
04020              -6.00     3800.00
04021              -4.00     3600.00
04022              -4.00     3600.00
04023              -8.00     3200.00
04024              -6.00     3000.00
04025              -4.00     3000.00
04026              -2.00     2800.00
04027              -4.00     2600.00
04028              -2.00     2400.00
04029              -4.00     2400.00
04030              -4.00     2000.00
04031              -4.00     1800.00
04032              -4.00     1600.00
04033              -4.00     1400.00
04034              -2.00     1400.00
04035               0.00     1200.00
04036               0.00     1000.00
04037               0.00      800.00
04038              -4.00      600.00
04039               0.00      400.00
04040               2.00      400.00
04041               2.00        0.00
04042               6.00     -200.00
04043               4.00     -200.00
04044              22.00     -400.00
04045              28.00     -800.00
04046               0.00     -800.00
04047             -12.00    -1000.00
04048               8.00    -1200.00
04049              22.00    -1200.00
04050              20.00    -1400.00
04051              70.00    -1600.00
04052             252.00    -2000.00
04053             142.00    -2600.00
04054            -248.00    -2600.00
04055            -248.00    -2600.00
04056              54.00    -2800.00
04057             124.00    -2600.00
04058             252.00    -2600.00
04059             252.00    -3600.00
04060            -248.00    -3200.00
04061            -162.00    -3200.00
04062             252.00    -4400.00
04063             -78.00    -3400.00
04064            -248.00    -4000.00
04065             196.00    -4800.00
04066              54.00    -3800.00
04067              46.00    -4800.00
04068              48.00    -5200.00
04069            -216.00    -4400.00
04070              46.00    -5400.00
04071             204.00    -5400.00
04072             -20.00    -5000.00
04073            -104.00    -5600.00
04074             -20.00    -5800.00
04075             108.00    -5800.00
04076              64.00    -6200.00
04077             -16.00    -6400.00
04078             -66.00    -6400.00
04079             -30.00    -6400.00
04080             148.00    -6800.00
04081              42.00    -6800.00
04082            -120.00    -7000.00
04083              20.00    -7400.00
04084              68.00    -7200.00
04085              22.00    -7600.00
04086              -2.00    -7800.00
04087             -10.00    -7400.00
04088              32.00    -8000.00
04089              24.00    -8000.00
04090               8.00    -8000.00
04091             -16.00    -8400.00
04092              14.00    -8400.00
04093              64.00    -8600.00
04094               8.00    -8800.00
04095             -16.00    -8800.00
04096               8.00    -8800.00
04097              20.00    -9000.00
04098              42.00    -9200.00
04099              22.00    -9200.00
04100             -10.00    -9400.00
04101              16.00    -9600.00
04102              32.00    -9600.00
04103              14.00    -9800.00
04104              -4.00    -9600.00
04105              24.00    -9800.00
04106              36.00    -9800.00
04107              10.00   -10000.00
04108              12.00   -10200.00
04109              12.00   -10000.00
04110              14.00   -10200.00
04111              28.00   -10400.00
04112              20.00   -10400.00
04113              10.00   -10600.00
04114              24.00   -10400.00
04115              20.00   -10600.00
04116              12.00   -10600.00
04117              18.00   -10800.00
04118              20.00   -10800.00
04119              20.00   -10800.00
04120              28.00   -10800.00
04121              16.00   -10800.00
04122               2.00   -10800.00
04123              20.00   -10800.00
04124              24.00   -11200.00
04125              20.00   -11200.00
04126              22.00   -11200.00
04127              20.00   -11200.00
04128              12.00   -11200.00
04129              14.00   -11400.00
04130              16.00   -11200.00
04131              16.00   -11200.00
04132              22.00   -11400.00
04133              22.00   -11200.00
04134              14.00   -11400.00
04135              14.00   -11400.00
04136              14.00   -11400.00
04137              14.00   -11400.00
04138              20.00   -11200.00
04139              20.00   -11400.00
04140              18.00   -11400.00
04141              14.00   -11400.00
04142              16.00   -11400.00
04143              12.00   -11200.00
04144              14.00   -11200.00
04145              20.00   -11200.00
04146              20.00   -11200.00
04147              16.00   -11200.00
04148              14.00   -11200.00
04149              12.00   -11200.00
04150              14.00   -11000.00
04151              16.00   -10800.00
04152              20.00   -10800.00
04153              18.00   -11000.00
04154              16.00   -10800.00
04155              12.00   -10800.00
04156              12.00   -10800.00
04157              16.00   -10800.00
04158              16.00   -10800.00
04159              14.00   -10600.00
04160              20.00   -10600.00
04161              12.00   -10400.00
04162              12.00   -10600.00
04163              12.00   -10400.00
04164              14.00   -10400.00
04165              16.00   -10400.00
04166              18.00   -10000.00
04167              14.00   -10000.00
04168              12.00   -10000.00
04169              10.00    -9800.00
04170              12.00    -9800.00
04171              14.00    -9600.00
04172              16.00    -9600.00
04173              14.00    -9600.00
04174              12.00    -9200.00
04175               8.00    -9200.00
04176              10.00    -9200.00
04177              12.00    -9000.00
04178              12.00    -8800.00
04179              14.00    -8800.00
04180              14.00    -8600.00
04181               8.00    -8800.00
04182               6.00    -8200.00
04183               8.00    -8400.00
04184              10.00    -8200.00
04185              14.00    -8000.00
04186              12.00    -7800.00
04187              10.00    -7800.00
04188               6.00    -7600.00
04189               6.00    -7600.00
04190               6.00    -7400.00
04191               8.00    -7200.00
04192               8.00    -7200.00
04193               8.00    -6800.00
04194               8.00    -6800.00
04195               4.00    -6800.00
04196               4.00    -6600.00
04197               4.00    -6400.00
04198               6.00    -6400.00
04199               6.00    -6000.00
04200               4.00    -5800.00
04201               4.00    -5800.00
04202               2.00    -5400.00
04203              -2.00    -5200.00
04204               0.00    -5200.00
04205               4.00    -5000.00
04206               4.00    -4800.00
04207               2.00    -4600.00
04208               0.00    -4400.00
04209              -4.00    -4400.00
04210              -2.00    -4200.00
04211               4.00    -4000.00
04212               2.00    -4000.00
04213               0.00    -3600.00
04214               0.00    -3600.00
04215              -4.00    -3400.00
04216              -4.00    -3200.00
04217              -2.00    -3000.00
04218              -2.00    -2800.00
04219              -2.00    -2600.00
04220              -4.00    -2400.00
04221              -4.00    -2200.00
04222              -4.00    -2000.00
04223              -4.00    -1800.00
04224              -4.00    -1600.00
04225              -2.00    -1600.00
04226              -2.00    -1200.00
04227              -4.00    -1200.00
04228              -4.00    -1000.00
04229              -8.00     -800.00
04230              -8.00     -600.00
04231              -4.00     -400.00
04232              -4.00     -200.00
04233              -2.00        0.00
04234              -2.00      200.00
04235               6.00      400.00
04236              22.00      600.00
04237               6.00      800.00
04238             -20.00     1000.00
04239             -12.00     1000.00
04240               8.00     1200.00
04241              12.00     1400.00
04242              70.00     1600.00
04243             252.00     2000.00
04244              70.00     2000.00
04245            -248.00     2200.00
04246            -248.00     2400.00
04247              38.00     2400.00
04248             252.00     2800.00
04249             252.00     2800.00
04250            -248.00     2800.00
04251            -248.00     3200.00
04252             252.00     3400.00
04253             252.00     3600.00
04254            -248.00     3800.00
04255              94.00     3600.00
04256             252.00     4200.00
04257            -248.00     4400.00
04258             192.00     3800.00
04259             -18.00     4800.00
04260            -248.00     4800.00
04261             252.00     4600.00
04262             -26.00     5400.00
04263            -204.00     5200.00
04264             106.00     5000.00
04265             -36.00     6200.00
04266             -26.00     5600.00
04267              50.00     5800.00
04268               4.00     6600.00
04269            -142.00     6000.00
04270             -42.00     6400.00
04271             212.00     6800.00
04272            -154.00     6400.00
04273             -98.00     7000.00
04274             172.00     7000.00
04275            -156.00     7200.00
04276             -18.00     7000.00
04277              86.00     7600.00
04278            -100.00     7800.00
04279              22.00     7400.00
04280              -8.00     8200.00
04281             -74.00     8000.00
04282              -8.00     7800.00
04283              40.00     8600.00
04284             -26.00     8200.00
04285             -80.00     8400.00
04286              38.00     8600.00
04287             -42.00     8800.00
04288             -48.00     8800.00
04289              66.00     8800.00
04290             -74.00     9200.00
04291             -48.00     8800.00
04292              48.00     9400.00
04293             -44.00     9600.00
04294             -52.00     9200.00
04295               6.00     9600.00
04296             -10.00     9600.00
04297             -36.00     9800.00
04298              -2.00    10000.00
04299             -24.00    10000.00
04300             -42.00    10000.00
04301              16.00    10200.00
04302             -26.00    10200.00
04303             -50.00    10200.00
04304              10.00    10400.00
04305             -20.00    10400.00
04306             -40.00    10400.00
04307               2.00    10600.00
04308             -28.00    10800.00
04309             -44.00    10400.00
04310               8.00    10800.00
04311              -8.00    10800.00
04312             -46.00    10800.00
04313             -12.00    11000.00
04314             -12.00    11200.00
04315             -36.00    10800.00
04316              -8.00    11000.00
04317             -12.00    11200.00
04318             -34.00    11000.00
04319             -12.00    11200.00
04320             -18.00    11200.00
04321             -34.00    11200.00
04322             -16.00    11000.00
04323             -12.00    11200.00
04324             -28.00    11200.00
04325             -16.00    11200.00
04326             -20.00    11200.00
04327             -36.00    11200.00
04328             -18.00    11200.00
04329             -12.00    11200.00
04330             -30.00    11200.00
04331             -18.00    11200.00
04332             -16.00    11200.00
04333             -32.00    11200.00
04334             -22.00    11200.00
04335             -16.00    11200.00
04336             -28.00    11200.00
04337             -20.00    11200.00
04338             -14.00    11200.00
04339             -26.00    11000.00
04340             -24.00    11200.00
04341             -18.00    11000.00
04342             -26.00    11000.00
04343             -18.00    11000.00
04344             -12.00    11000.00
04345             -24.00    10800.00
04346             -22.00    10800.00
04347             -20.00    10800.00
04348             -24.00    10600.00
04349             -18.00    10400.00
04350             -14.00    10400.00
04351             -24.00    10400.00
04352             -22.00    10400.00
04353             -18.00    10400.00
04354             -24.00    10200.00
04355             -20.00    10200.00
04356             -12.00    10200.00
04357             -18.00    10000.00
04358             -18.00    10000.00
04359             -18.00     9800.00
04360             -22.00     9800.00
04361             -18.00     9600.00
04362             -16.00     9600.00
04363             -16.00     9600.00
04364             -12.00     9400.00
04365             -12.00     9200.00
04366             -18.00     9200.00
04367             -16.00     9200.00
04368             -18.00     8800.00
04369             -16.00     8800.00
04370             -12.00     8600.00
04371             -12.00     8600.00
04372             -16.00     8400.00
04373             -18.00     8400.00
04374             -16.00     8200.00
04375             -16.00     8000.00
04376             -12.00     8000.00
04377             -10.00     8000.00
04378             -12.00     7600.00
04379             -12.00     7600.00
04380             -16.00     7400.00
04381             -14.00     7200.00
04382             -10.00     7200.00
04383             -10.00     7200.00
04384             -10.00     6800.00
04385             -10.00     6800.00
04386             -10.00     6400.00
04387             -16.00     6400.00
04388             -16.00     6200.00
04389              -8.00     6000.00
04390             -10.00     6000.00
04391             -10.00     5800.00
04392             -10.00     5600.00
04393             -10.00     5400.00
04394             -12.00     5200.00
04395              -8.00     5000.00
04396              -6.00     5200.00
04397             -10.00     5000.00
04398             -10.00     4800.00
04399              -8.00     4600.00
04400             -10.00     4200.00
04401             -10.00     4000.00
04402              -8.00     4000.00
04403              -4.00     3800.00
04404              -4.00     3600.00
04405              -8.00     3400.00
04406              -8.00     3200.00
04407              -6.00     3200.00
04408              -4.00     2800.00
04409              -4.00     2600.00
04410              -2.00     2800.00
04411              -4.00     2400.00
04412              -8.00     2200.00
04413              -4.00     2000.00
04414              -4.00     2000.00
04415              -4.00     1600.00
04416              -2.00     1400.00
04417               0.00     1400.00
04418              -2.00     1200.00
04419              -2.00     1200.00
04420              -4.00      600.00
04421              -4.00      600.00
04422              -2.00      400.00
04423               0.00      200.00
04424               4.00        0.00
04425               4.00     -200.00
04426               6.00     -400.00
04427              24.00     -600.00
04428              22.00     -800.00
04429             -10.00     -800.00
04430              -8.00     -800.00
04431              14.00    -1200.00
04432              20.00    -1200.00
04433              22.00    -1400.00
04434             116.00    -1600.00
04435             252.00    -2000.00
04436              -4.00    -2600.00
04437            -248.00    -2600.00
04438            -248.00    -2800.00
04439             118.00    -2800.00
04440             136.00    -2400.00
04441             252.00    -2800.00
04442              38.00    -3600.00
04443            -248.00    -2800.00
04444             206.00    -3600.00
04445             252.00    -4200.00
04446            -248.00    -3200.00
04447            -212.00    -4400.00
04448             230.00    -4400.00
04449              -4.00    -3800.00
04450              94.00    -5000.00
04451             -40.00    -4800.00
04452            -186.00    -4400.00
04453             140.00    -5400.00
04454             152.00    -5200.00
04455             -66.00    -5200.00
04456             -94.00    -5600.00
04457              24.00    -5600.00
04458             114.00    -6000.00
04459              30.00    -6200.00
04460             -26.00    -6400.00
04461             -74.00    -6400.00
04462              22.00    -6400.00
04463             158.00    -6800.00
04464             -30.00    -6800.00
04465             -98.00    -7200.00
04466              56.00    -7400.00
04467              52.00    -7200.00
04468              14.00    -7600.00
04469             -12.00    -7600.00
04470               4.00    -7800.00
04471              36.00    -8000.00
04472              22.00    -8000.00
04473               4.00    -8000.00
04474             -16.00    -8400.00
04475              38.00    -8200.00
04476              56.00    -8600.00
04477              -8.00    -8600.00
04478             -10.00    -9000.00
04479              12.00    -8800.00
04480              26.00    -9200.00
04481              38.00    -9200.00
04482              12.00    -9200.00
04483              -4.00    -9400.00
04484              20.00    -9600.00
04485              32.00    -9600.00
04486               4.00    -9800.00
04487               8.00    -9800.00
04488              38.00    -9800.00
04489              24.00   -10000.00
04490               6.00   -10200.00
04491              12.00   -10000.00
04492              12.00   -10200.00
04493              22.00   -10600.00
04494              30.00   -10400.00
04495              12.00   -10400.00
04496              12.00   -10400.00
04497              26.00   -10600.00
04498              22.00   -10600.00
04499              14.00   -10600.00
04500              16.00   -10800.00
04501              16.00   -10800.00
04502              22.00   -10800.00
04503              32.00   -10800.00
04504              14.00   -10800.00
04505               4.00   -11200.00
04506              20.00   -11000.00
04507              22.00   -11000.00
04508              16.00   -11200.00
04509              24.00   -11400.00
04510              20.00   -11400.00
04511              12.00   -11200.00
04512              14.00   -11400.00
04513              18.00   -11200.00
04514              22.00   -11400.00
04515              22.00   -11400.00
04516              22.00   -11200.00
04517              16.00   -11400.00
04518              14.00   -11400.00
04519              14.00   -11200.00
04520              18.00   -11400.00
04521              20.00   -11200.00
04522              20.00   -11400.00
04523              16.00   -11200.00
04524              14.00   -11400.00
04525              14.00   -11200.00
04526              14.00   -11200.00
04527              16.00   -11400.00
04528              22.00   -11200.00
04529              20.00   -11200.00
04530              16.00   -11200.00
04531              14.00   -11200.00
04532              14.00   -11200.00
04533              12.00   -11000.00
04534              16.00   -10800.00
04535              20.00   -11000.00
04536              16.00   -10800.00
04537              14.00   -10800.00
04538              10.00   -10800.00
04539              12.00   -10800.00
04540              12.00   -10800.00
04541              20.00   -10600.00
04542              14.00   -10600.00
04543              16.00   -10400.00
04544              12.00   -10600.00
04545              12.00   -10400.00
04546              12.00   -10400.00
04547              14.00   -10200.00
04548              14.00   -10200.00
04549              16.00   -10000.00
04550              12.00   -10000.00
04551              12.00    -9800.00
04552               8.00    -9800.00
04553               8.00    -9600.00
04554              12.00    -9600.00
04555              14.00    -9600.00
04556              14.00    -9600.00
04557              12.00    -9200.00
04558               8.00    -9000.00
04559               6.00    -9200.00
04560              12.00    -9000.00
04561              12.00    -9000.00
04562              14.00    -8800.00
04563               8.00    -8600.00
04564               8.00    -8800.00
04565               8.00    -8400.00
04566               6.00    -8200.00
04567               8.00    -8200.00
04568              12.00    -7800.00
04569              14.00    -8000.00
04570               6.00    -7600.00
04571               4.00    -7600.00
04572               8.00    -7600.00
04573               6.00    -7400.00
04574               6.00    -7200.00
04575              10.00    -6800.00
04576               6.00    -6800.00
04577               8.00    -6800.00
04578               4.00    -6400.00
04579               4.00    -6400.00
04580               8.00    -6200.00
04581               6.00    -6000.00
04582               6.00    -6000.00
04583               6.00    -5800.00
04584               0.00    -5800.00
04585               4.00    -5600.00
04586              -2.00    -5200.00
04587               4.00    -5200.00
04588               6.00    -5000.00
04589               4.00    -4800.00
04590              -2.00    -4800.00
04591               0.00    -4400.00
04592               0.00    -4400.00
04593              -2.00    -4200.00
04594               0.00    -4000.00
04595               4.00    -3800.00
04596               4.00    -3600.00
04597              -2.00    -3400.00
04598              -4.00    -3400.00
04599              -4.00    -3200.00
04600              -4.00    -3000.00
04601              -2.00    -2800.00
04602              -2.00    -2600.00
04603              -2.00    -2400.00
04604              -4.00    -2400.00
04605              -4.00    -2000.00
04606              -4.00    -1800.00
04607              -4.00    -1600.00
04608              -4.00    -1400.00
04609              -2.00    -1200.00
04610              -4.00    -1000.00
04611              -4.00     -800.00
04612             -10.00     -800.00
04613              -4.00     -400.00
04614              -6.00     -400.00
04615              -2.00     -200.00
04616              -2.00        0.00
04617              -2.00      200.00
04618              12.00      400.00
04619              22.00      600.00
04620              -4.00      800.00
04621             -24.00     1000.00
04622              -4.00     1200.00
04623               8.00     1200.00
04624              14.00     1400.00
04625             126.00     1600.00
04626             252.00     2000.00
04627            -112.00     2200.00
04628            -248.00     2400.00
04629            -228.00     2400.00
04630              88.00     2400.00
04631             252.00     2800.00
04632             252.00     3000.00
04633            -248.00     3000.00
04634            -248.00     3400.00
04635             252.00     3200.00
04636             206.00     3800.00
04637            -248.00     3800.00
04638             252.00     3600.00
04639             128.00     4600.00
04640            -248.00     4200.00
04641             252.00     4200.00
04642            -220.00     5200.00
04643            -116.00     4600.00
04644             252.00     4800.00
04645            -184.00     5600.00
04646             -94.00     4800.00
04647             104.00     5400.00
04648             -72.00     6200.00
04649              14.00     5400.00
04650              46.00     6000.00
04651             -26.00     6400.00
04652            -164.00     6000.00
04653              66.00     6400.00
04654             156.00     6800.00
04655            -234.00     6600.00
04656              32.00     7000.00
04657             106.00     7200.00
04658            -188.00     7400.00
04659              70.00     7200.00
04660              20.00     7800.00
04661             -88.00     7600.00
04662              46.00     7400.00
04663             -44.00     8200.00
04664             -58.00     7800.00
04665              12.00     8000.00
04666              36.00     8400.00
04667             -60.00     8200.00
04668             -48.00     8800.00
04669              44.00     8600.00
04670             -76.00     8600.00
04671              -2.00     8800.00
04672              44.00     9000.00
04673            -100.00     9200.00
04674              -4.00     9200.00
04675              32.00     9600.00
04676             -64.00     9400.00
04677             -34.00     9400.00
04678              12.00     9800.00
04679             -24.00     9600.00
04680             -32.00     9800.00
04681               0.00    10000.00
04682             -40.00    10000.00
04683             -28.00    10000.00
04684              16.00    10200.00
04685             -48.00    10200.00
04686             -34.00    10200.00
04687              12.00    10400.00
04688             -36.00    10400.00
04689             -26.00    10400.00
04690               0.00    10600.00
04691             -42.00    10800.00
04692             -32.00    10600.00
04693              14.00    11000.00
04694             -26.00    10800.00
04695             -42.00    10800.00
04696              -8.00    11000.00
04697             -28.00    11000.00
04698             -28.00    11000.00
04699               0.00    11000.00
04700             -26.00    11200.00
04701             -32.00    11000.00
04702              -8.00    11200.00
04703             -26.00    11200.00
04704             -28.00    11200.00
04705              -8.00    11200.00
04706             -20.00    11200.00
04707             -26.00    11200.00
04708             -10.00    11400.00
04709             -28.00    11200.00
04710             -32.00    11400.00
04711             -10.00    11400.00
04712             -18.00    11200.00
04713             -26.00    11200.00
04714             -12.00    11200.00
04715             -24.00    11400.00
04716             -28.00    11200.00
04717             -18.00    11200.00
04718             -20.00    11200.00
04719             -24.00    11200.00
04720             -18.00    11200.00
04721             -20.00    11200.00
04722             -20.00    11000.00
04723             -22.00    11200.00
04724             -26.00    11000.00
04725             -20.00    11000.00
04726             -12.00    11000.00
04727             -20.00    10800.00
04728             -24.00    10800.00
04729             -20.00    10800.00
04730             -20.00    10800.00
04731             -24.00    10600.00
04732             -18.00    10600.00
04733             -18.00    10400.00
04734             -24.00    10400.00
04735             -20.00    10400.00
04736             -18.00    10400.00
04737             -20.00    10200.00
04738             -22.00    10200.00
04739             -16.00    10000.00
04740             -18.00    10000.00
04741             -18.00    10000.00
04742             -20.00     9800.00
04743             -20.00     9800.00
04744             -18.00     9600.00
04745             -18.00     9600.00
04746             -16.00     9600.00
04747             -16.00     9400.00
04748             -16.00     9400.00
04749             -18.00     9200.00
04750             -18.00     9000.00
04751             -18.00     8800.00
04752             -16.00     8800.00
04753             -16.00     8800.00
04754             -12.00     8600.00
04755             -14.00     8400.00
04756             -18.00     8400.00
04757             -18.00     8400.00
04758             -12.00     8000.00
04759             -12.00     8000.00
04760             -10.00     7800.00
04761             -10.00     7800.00
04762             -20.00     7600.00
04763             -16.00     7400.00
04764             -10.00     7400.00
04765             -10.00     7000.00
04766              -8.00     7000.00
04767             -10.00     7000.00
04768             -10.00     6600.00
04769             -12.00     6400.00
04770             -12.00     6400.00
04771             -16.00     6200.00
04772             -10.00     6000.00
04773              -8.00     5800.00
04774              -8.00     5800.00
04775             -10.00     5600.00
04776              -8.00     5400.00
04777             -10.00     5200.00
04778              -6.00     5200.00
04779              -8.00     4800.00
04780              -8.00     4600.00
04781             -10.00     4600.00
04782              -8.00     4600.00
04783             -10.00     4200.00
04784             -10.00     4000.00
04785              -8.00     3800.00
04786              -4.00     3600.00
04787              -4.00     3400.00
04788              -6.00     3200.00
04789              -6.00     3200.00
04790              -8.00     3200.00
04791              -6.00     3000.00
04792              -4.00     2800.00
04793              -4.00     2400.00
04794              -2.00     2400.00
04795              -4.00     2200.00
04796              -8.00     2000.00
04797              -2.00     1800.00
04798              -4.00     1600.00
04799              -4.00     1400.00
04800               0.00     1200.00
04801              -2.00     1000.00
04802              -4.00      800.00
04803              -4.00      800.00
04804              -2.00      400.00
04805              -2.00      400.00
04806               4.00        0.00
04807               4.00     -200.00
04808               4.00     -200.00
04809              12.00     -400.00
04810              30.00     -800.00
04811              12.00     -800.00
04812             -10.00     -800.00
04813              -2.00    -1200.00
04814              16.00    -1200.00
04815              18.00    -1400.00
04816              32.00    -1200.00
04817             172.00    -1600.00
04818             252.00    -2000.00
04819            -164.00    -2600.00
04820            -248.00    -2400.00
04821            -128.00    -2800.00
04822             140.00    -2600.00
04823             192.00    -2400.00
04824             252.00    -3200.00
04825            -248.00    -3400.00
04826            -248.00    -3000.00
04827             252.00    -4000.00
04828             252.00    -3800.00
04829            -248.00    -3400.00
04830             -16.00    -4600.00
04831             190.00    -4200.00
04832             -22.00    -4200.00
04833             116.00    -5200.00
04834            -138.00    -4600.00
04835            -112.00    -4800.00
04836             198.00    -5400.00
04837              84.00    -5000.00
04838             -96.00    -5400.00
04839             -72.00    -5600.00
04840              70.00    -5600.00
04841             102.00    -6000.00
04842              12.00    -6200.00
04843             -40.00    -6400.00
04844             -68.00    -6400.00
04845              82.00    -6600.00
04846             134.00    -6800.00
04847             -88.00    -6800.00
04848             -50.00    -7200.00
04849              72.00    -7400.00
04850              40.00    -7400.00
04851               8.00    -7600.00
04852             -14.00    -7400.00
04853              16.00    -7800.00
04854              36.00    -8000.00
04855              20.00    -8000.00
04856              -6.00    -8200.00
04857              -8.00    -8400.00
04858              54.00    -8400.00
04859              38.00    -8400.00
04860             -18.00    -8800.00
04861              -2.00    -8800.00
04862              14.00    -8800.00
04863              36.00    -9200.00
04864              36.00    -9200.00
04865              -2.00    -9200.00
04866              -2.00    -9600.00
04867              32.00    -9600.00
04868              28.00    -9600.00
04869              -4.00    -9600.00
04870              14.00    -9800.00
04871              36.00   -10000.00
04872              16.00   -10000.00
04873              12.00   -10000.00
04874              14.00   -10200.00
04875              10.00   -10400.00
04876              24.00   -10400.00
04877              28.00   -10400.00
04878              12.00   -10400.00
04879              18.00   -10600.00
04880              24.00   -10600.00
04881              12.00   -10800.00
04882              12.00   -10800.00
04883              20.00   -10600.00
04884              14.00   -10800.00
04885              28.00   -10800.00
04886              28.00   -10800.00
04887               6.00   -10800.00
04888              12.00   -11000.00
04889              24.00   -10800.00
04890              20.00   -11200.00
04891              20.00   -11200.00
04892              22.00   -11200.00
04893              16.00   -11200.00
04894              12.00   -11200.00
04895              16.00   -11400.00
04896              20.00   -11200.00
04897              20.00   -11200.00
04898              24.00   -11400.00
04899              20.00   -11400.00
04900              14.00   -11400.00
04901              16.00   -11400.00
04902              16.00   -11400.00
04903              20.00   -11400.00
04904              24.00   -11400.00
04905              20.00   -11400.00
04906              16.00   -11200.00
04907              16.00   -11600.00
04908              12.00   -11400.00
04909              14.00   -11200.00
04910              20.00   -11200.00
04911              20.00   -11200.00
04912              18.00   -11200.00
04913              14.00   -11200.00
04914              12.00   -11200.00
04915              12.00   -11200.00
04916              18.00   -11000.00
04917              20.00   -11200.00
04918              16.00   -10800.00
04919              20.00   -11000.00
04920              12.00   -11000.00
04921              10.00   -10800.00
04922              14.00   -10800.00
04923              16.00   -10800.00
04924              14.00   -10600.00
04925              14.00   -10600.00
04926              14.00   -10600.00
04927              12.00   -10400.00
04928              10.00   -10400.00
04929              14.00   -10400.00
04930              12.00   -10200.00
04931              16.00   -10200.00
04932              14.00   -10000.00
04933              12.00   -10000.00
04934              12.00   -10000.00
04935               6.00    -9800.00
04936              12.00    -9800.00
04937              12.00    -9600.00
04938              14.00    -9400.00
04939              12.00    -9200.00
04940               8.00    -9200.00
04941               8.00    -9200.00
04942               8.00    -9200.00
04943              10.00    -8800.00
04944              12.00    -8800.00
04945              14.00    -8800.00
04946               8.00    -8600.00
04947               6.00    -8600.00
04948               6.00    -8400.00
04949               6.00    -8200.00
04950              12.00    -8000.00
04951              14.00    -8000.00
04952              10.00    -7800.00
04953               8.00    -7600.00
04954               6.00    -7600.00
04955               6.00    -7400.00
04956              10.00    -7200.00
04957               6.00    -7200.00
04958              12.00    -7200.00
04959              20.00    -6800.00
04960              -4.00    -6800.00
04961             -10.00    -6600.00
04962              20.00    -6400.00
04963             -10.00    -6200.00
04964              -8.00    -5800.00
04965             -16.00    -5800.00
04966              62.00    -5400.00
04967              22.00    -5600.00
04968               4.00    -5200.00
04969             -20.00    -5200.00
04970               4.00    -5200.00
04971              12.00    -5000.00
04972             -38.00    -4800.00
04973             -20.00    -4400.00
04974              32.00    -4400.00
04975              38.00    -4400.00
04976             -12.00    -4000.00
04977             -22.00    -4000.00
04978              14.00    -3600.00
04979              30.00    -3800.00
04980             -16.00    -3400.00
04981             -28.00    -3200.00
04982              -4.00    -3000.00
04983               6.00    -2800.00
04984              12.00    -2800.00
04985              -4.00    -2600.00
04986              -4.00    -2400.00
04987              -4.00    -2000.00
04988              -4.00    -2000.00
04989              -8.00    -1800.00
04990               0.00    -1600.00
04991              -2.00    -1400.00
04992              -4.00    -1200.00
04993              -2.00    -1000.00
04994              -2.00    -1000.00
04995             -16.00     -600.00
04996             -12.00     -400.00
04997               4.00     -200.00
04998              -2.00        0.00
04999               0.00        0.00
05000              -2.00        0.00
