Unit:(mV)
                     CH1         CH2
Frequency              ? 261.334 kHz
00001               4.00    -4200.00
00002               6.00    -4000.00
00003               4.00    -3800.00
00004               4.00    -3600.00
00005               0.00    -3600.00
00006               0.00    -3200.00
00007              -2.00    -3200.00
00008               0.00    -2800.00
00009               0.00    -2800.00
00010               2.00    -2400.00
00011               0.00    -2400.00
00012              -4.00    -2200.00
00013              -4.00    -2000.00
00014              -4.00    -1800.00
00015              -2.00    -1600.00
00016              -2.00    -1200.00
00017              -2.00    -1200.00
00018              -4.00    -1000.00
00019              -6.00    -1000.00
00020              -6.00     -600.00
00021              -4.00     -400.00
00022              -4.00     -200.00
00023              -2.00        0.00
00024              -4.00        0.00
00025               0.00        0.00
00026              22.00      400.00
00027               4.00      600.00
00028             -20.00      800.00
00029             -16.00     1000.00
00030               6.00     1200.00
00031               4.00     1200.00
00032              46.00     1400.00
00033             252.00     2000.00
00034             132.00     2000.00
00035            -248.00     2200.00
00036            -248.00     2400.00
00037              24.00     2400.00
00038              86.00     2600.00
00039             252.00     2800.00
00040              88.00     3000.00
00041            -248.00     3200.00
00042             252.00     3400.00
00043             252.00     3400.00
00044            -248.00     4000.00
00045             -52.00     3800.00
00046             252.00     4000.00
00047            -248.00     4600.00
00048              52.00     4000.00
00049             118.00     4800.00
00050            -248.00     5200.00
00051             214.00     4600.00
00052               6.00     5600.00
00053            -202.00     5400.00
00054             100.00     5200.00
00055             -26.00     6400.00
00056             -44.00     6000.00
00057              20.00     5600.00
00058              28.00     6800.00
00059             -92.00     6200.00
00060            -114.00     6400.00
00061             174.00     6800.00
00062             -90.00     6800.00
00063            -134.00     7200.00
00064             156.00     7200.00
00065            -122.00     7600.00
00066             -56.00     7200.00
00067              78.00     7800.00
00068             -80.00     8000.00
00069               0.00     7600.00
00070             -20.00     8400.00
00071             -58.00     8400.00
00072             -26.00     8000.00
00073              16.00     8800.00
00074              -6.00     8400.00
00075             -88.00     8600.00
00076              18.00     8800.00
00077             -28.00     9000.00
00078             -68.00     9200.00
00079              44.00     9000.00
00080             -50.00     9400.00
00081             -60.00     9200.00
00082              22.00     9600.00
00083             -32.00     9600.00
00084             -56.00     9600.00
00085             -16.00    10000.00
00086             -10.00    10000.00
00087             -42.00    10000.00
00088             -22.00    10200.00
00089             -26.00    10200.00
00090             -48.00    10400.00
00091             -10.00    10400.00
00092             -24.00    10800.00
00093             -52.00    10400.00
00094             -12.00    10800.00
00095             -26.00    10800.00
00096             -44.00    10800.00
00097             -20.00    10800.00
00098             -32.00    11000.00
00099             -48.00    10800.00
00100             -18.00    11000.00
00101             -12.00    11200.00
00102             -44.00    11200.00
00103             -34.00    11200.00
00104             -26.00    11200.00
00105             -42.00    11200.00
00106             -28.00    11400.00
00107             -20.00    11400.00
00108             -36.00    11600.00
00109             -36.00    11400.00
00110             -28.00    11600.00
00111             -36.00    11600.00
00112             -28.00    11600.00
00113             -26.00    11600.00
00114             -34.00    11600.00
00115             -28.00    11600.00
00116             -28.00    11600.00
00117             -42.00    11600.00
00118             -34.00    11600.00
00119             -22.00    11600.00
00120             -34.00    11600.00
00121             -30.00    11600.00
00122             -26.00    11600.00
00123             -34.00    11600.00
00124             -34.00    11600.00
00125             -26.00    11600.00
00126             -32.00    11600.00
00127             -32.00    11600.00
00128             -24.00    11600.00
00129             -28.00    11400.00
00130             -32.00    11400.00
00131             -28.00    11600.00
00132             -32.00    11400.00
00133             -26.00    11200.00
00134             -24.00    11200.00
00135             -28.00    11200.00
00136             -32.00    11200.00
00137             -26.00    11200.00
00138             -30.00    11000.00
00139             -28.00    11000.00
00140             -20.00    10800.00
00141             -26.00    10800.00
00142             -28.00    10800.00
00143             -26.00    10600.00
00144             -28.00    10400.00
00145             -28.00    10400.00
00146             -26.00    10400.00
00147             -20.00    10200.00
00148             -24.00    10000.00
00149             -26.00    10200.00
00150             -26.00    10200.00
00151             -26.00    10000.00
00152             -26.00    10000.00
00153             -24.00     9800.00
00154             -20.00     9600.00
00155             -24.00     9600.00
00156             -24.00     9400.00
00157             -26.00     9200.00
00158             -20.00     9200.00
00159             -26.00     9000.00
00160             -26.00     8800.00
00161             -20.00     8800.00
00162             -24.00     8600.00
00163             -24.00     8600.00
00164             -24.00     8600.00
00165             -24.00     8400.00
00166             -20.00     8000.00
00167             -20.00     8000.00
00168             -20.00     7800.00
00169             -20.00     7800.00
00170             -20.00     7800.00
00171             -22.00     7600.00
00172             -16.00     7400.00
00173             -16.00     7200.00
00174             -22.00     7000.00
00175             -20.00     6800.00
00176             -16.00     6800.00
00177             -20.00     6600.00
00178             -18.00     6400.00
00179             -18.00     6200.00
00180             -12.00     6000.00
00181             -14.00     6000.00
00182             -16.00     5800.00
00183             -16.00     5600.00
00184             -14.00     5400.00
00185             -14.00     5200.00
00186             -10.00     5200.00
00187             -10.00     5000.00
00188             -12.00     4800.00
00189             -12.00     4600.00
00190             -10.00     4600.00
00191             -16.00     4200.00
00192             -10.00     4000.00
00193              -8.00     3800.00
00194              -8.00     3600.00
00195              -8.00     3600.00
00196              -8.00     3400.00
00197             -10.00     3200.00
00198              -8.00     3000.00
00199              -4.00     2800.00
00200              -4.00     2600.00
00201              -4.00     2400.00
00202              -6.00     2400.00
00203              -8.00     2000.00
00204              -8.00     1600.00
00205              -2.00     1800.00
00206              -4.00     1400.00
00207              -4.00     1200.00
00208              -2.00     1200.00
00209              -2.00      800.00
00210              -4.00     1000.00
00211              -2.00      600.00
00212              -2.00      200.00
00213               0.00        0.00
00214               2.00        0.00
00215               4.00     -200.00
00216              10.00     -400.00
00217              28.00     -400.00
00218              20.00     -800.00
00219              -6.00    -1000.00
00220              -4.00    -1000.00
00221              12.00    -1200.00
00222              16.00    -1400.00
00223              16.00    -1600.00
00224              94.00    -1800.00
00225             252.00    -2000.00
00226              62.00    -2800.00
00227            -248.00    -2600.00
00228            -248.00    -2800.00
00229             104.00    -2800.00
00230              32.00    -2800.00
00231             240.00    -3000.00
00232             252.00    -3800.00
00233            -248.00    -3200.00
00234             -76.00    -3400.00
00235             252.00    -4400.00
00236            -182.00    -3600.00
00237            -248.00    -4200.00
00238             252.00    -5000.00
00239             -16.00    -4000.00
00240              -8.00    -5000.00
00241              42.00    -5200.00
00242            -130.00    -4800.00
00243              80.00    -5600.00
00244             112.00    -5400.00
00245             -42.00    -5400.00
00246             -42.00    -6000.00
00247              20.00    -6000.00
00248              80.00    -6200.00
00249              20.00    -6600.00
00250               6.00    -6600.00
00251             -26.00    -6600.00
00252             -18.00    -6800.00
00253             118.00    -7200.00
00254              12.00    -7200.00
00255             -68.00    -7200.00
00256              46.00    -7600.00
00257              42.00    -7600.00
00258              16.00    -7600.00
00259               6.00    -8000.00
00260              16.00    -8000.00
00261              38.00    -8200.00
00262              16.00    -8200.00
00263              14.00    -8400.00
00264               4.00    -8400.00
00265              30.00    -8800.00
00266              54.00    -9000.00
00267               8.00    -9000.00
00268               4.00    -9200.00
00269              18.00    -9200.00
00270              24.00    -9400.00
00271              36.00    -9600.00
00272              24.00    -9600.00
00273               8.00    -9800.00
00274              22.00    -9800.00
00275              36.00    -9800.00
00276              14.00   -10000.00
00277              12.00   -10000.00
00278              36.00   -10200.00
00279              30.00   -10400.00
00280              16.00   -10400.00
00281              20.00   -10400.00
00282              22.00   -10600.00
00283              22.00   -10600.00
00284              30.00   -10800.00
00285              26.00   -10800.00
00286              20.00   -10800.00
00287              28.00   -11000.00
00288              22.00   -11000.00
00289              18.00   -11200.00
00290              22.00   -11200.00
00291              24.00   -11200.00
00292              28.00   -11400.00
00293              36.00   -11400.00
00294              22.00   -11400.00
00295              14.00   -11400.00
00296              22.00   -11600.00
00297              28.00   -11400.00
00298              24.00   -11600.00
00299              28.00   -11600.00
00300              28.00   -11600.00
00301              18.00   -11800.00
00302              22.00   -11600.00
00303              26.00   -11800.00
00304              22.00   -11600.00
00305              28.00   -11800.00
00306              28.00   -11600.00
00307              22.00   -11800.00
00308              22.00   -11600.00
00309              22.00   -11800.00
00310              22.00   -11800.00
00311              26.00   -12000.00
00312              30.00   -11600.00
00313              24.00   -11800.00
00314              22.00   -11600.00
00315              24.00   -11600.00
00316              20.00   -11800.00
00317              24.00   -11600.00
00318              30.00   -11600.00
00319              24.00   -11600.00
00320              22.00   -11600.00
00321              22.00   -11600.00
00322              20.00   -11600.00
00323              22.00   -11400.00
00324              24.00   -11400.00
00325              26.00   -11400.00
00326              24.00   -11400.00
00327              24.00   -11400.00
00328              22.00   -11200.00
00329              22.00   -11200.00
00330              22.00   -11200.00
00331              22.00   -11200.00
00332              28.00   -11000.00
00333              24.00   -11000.00
00334              22.00   -10800.00
00335              20.00   -10800.00
00336              20.00   -10600.00
00337              22.00   -10600.00
00338              22.00   -10600.00
00339              24.00   -10600.00
00340              22.00   -10400.00
00341              18.00   -10200.00
00342              18.00   -10200.00
00343              18.00   -10000.00
00344              20.00   -10000.00
00345              20.00   -10000.00
00346              22.00    -9800.00
00347              16.00    -9600.00
00348              14.00    -9600.00
00349              16.00    -9400.00
00350              16.00    -9400.00
00351              16.00    -9200.00
00352              16.00    -9000.00
00353              16.00    -9000.00
00354              14.00    -8800.00
00355              14.00    -8800.00
00356              12.00    -8400.00
00357              14.00    -8400.00
00358              16.00    -8400.00
00359              14.00    -8200.00
00360              12.00    -8000.00
00361              10.00    -8000.00
00362              10.00    -7600.00
00363               8.00    -7600.00
00364              10.00    -7600.00
00365              12.00    -7200.00
00366              12.00    -7400.00
00367               8.00    -7000.00
00368               8.00    -6800.00
00369               6.00    -6800.00
00370               6.00    -6600.00
00371               8.00    -6400.00
00372               8.00    -6400.00
00373               6.00    -6000.00
00374               4.00    -5800.00
00375               4.00    -5600.00
00376               4.00    -5400.00
00377               6.00    -5400.00
00378               6.00    -5200.00
00379               4.00    -5000.00
00380               4.00    -4800.00
00381               2.00    -4800.00
00382               0.00    -4600.00
00383               4.00    -4400.00
00384               4.00    -4200.00
00385               4.00    -4000.00
00386               2.00    -3800.00
00387               0.00    -3400.00
00388              -2.00    -3400.00
00389              -2.00    -3200.00
00390               0.00    -3000.00
00391              -2.00    -2800.00
00392               0.00    -2600.00
00393               4.00    -2400.00
00394              -2.00    -2200.00
00395              -4.00    -2000.00
00396              -4.00    -2000.00
00397              -4.00    -1600.00
00398              -2.00    -1600.00
00399              -2.00    -1200.00
00400              -4.00    -1000.00
00401              -4.00    -1000.00
00402              -8.00     -800.00
00403              -8.00     -600.00
00404              -4.00     -400.00
00405              -4.00     -200.00
00406              -2.00        0.00
00407              -4.00        0.00
00408               8.00      400.00
00409              22.00      600.00
00410              -4.00      800.00
00411             -20.00     1000.00
00412              -4.00     1000.00
00413               6.00     1200.00
00414               6.00     1200.00
00415             104.00     1600.00
00416             252.00     1800.00
00417             -58.00     2200.00
00418            -248.00     2400.00
00419            -220.00     2400.00
00420              56.00     2400.00
00421             204.00     2800.00
00422             252.00     3000.00
00423            -248.00     2800.00
00424            -248.00     3400.00
00425             252.00     3200.00
00426             252.00     3600.00
00427            -248.00     4200.00
00428             252.00     3600.00
00429             216.00     4600.00
00430            -248.00     4400.00
00431             228.00     4400.00
00432             -98.00     5200.00
00433            -148.00     5000.00
00434             252.00     4800.00
00435            -154.00     5800.00
00436             -88.00     5200.00
00437              88.00     5400.00
00438             -80.00     6200.00
00439             -14.00     5600.00
00440              22.00     6200.00
00441              16.00     6600.00
00442            -148.00     6000.00
00443              -8.00     6800.00
00444             156.00     6800.00
00445            -198.00     6800.00
00446               0.00     7200.00
00447             106.00     7200.00
00448            -176.00     7600.00
00449              36.00     7400.00
00450              20.00     7800.00
00451             -68.00     8000.00
00452              18.00     7800.00
00453             -48.00     8400.00
00454             -46.00     8000.00
00455             -20.00     8400.00
00456              28.00     8800.00
00457             -48.00     8400.00
00458             -64.00     9000.00
00459              36.00     8800.00
00460             -74.00     9000.00
00461             -26.00     9000.00
00462              36.00     9400.00
00463             -82.00     9600.00
00464             -24.00     9400.00
00465              16.00     9800.00
00466             -50.00     9600.00
00467             -44.00     9600.00
00468              -4.00    10000.00
00469             -20.00    10000.00
00470             -44.00    10000.00
00471             -10.00    10400.00
00472             -36.00    10400.00
00473             -38.00    10400.00
00474               0.00    10600.00
00475             -42.00    10400.00
00476             -42.00    10400.00
00477              -4.00    10800.00
00478             -34.00    10800.00
00479             -36.00    10800.00
00480             -16.00    11000.00
00481             -40.00    11000.00
00482             -42.00    11000.00
00483              -8.00    11200.00
00484             -26.00    11200.00
00485             -48.00    11200.00
00486             -24.00    11200.00
00487             -30.00    11200.00
00488             -40.00    11200.00
00489             -20.00    11200.00
00490             -26.00    11400.00
00491             -40.00    11400.00
00492             -26.00    11400.00
00493             -32.00    11600.00
00494             -38.00    11600.00
00495             -26.00    11600.00
00496             -26.00    11600.00
00497             -34.00    11600.00
00498             -26.00    11600.00
00499             -32.00    11600.00
00500             -42.00    11800.00
00501             -26.00    11600.00
00502             -26.00    11600.00
00503             -36.00    11600.00
00504             -26.00    11600.00
00505             -28.00    11600.00
00506             -40.00    11600.00
00507             -28.00    11600.00
00508             -26.00    11600.00
00509             -34.00    11600.00
00510             -28.00    11600.00
00511             -26.00    11400.00
00512             -32.00    11400.00
00513             -28.00    11600.00
00514             -28.00    11400.00
00515             -28.00    11200.00
00516             -26.00    11200.00
00517             -24.00    11200.00
00518             -30.00    11200.00
00519             -28.00    11200.00
00520             -28.00    11000.00
00521             -30.00    11000.00
00522             -26.00    11000.00
00523             -20.00    11000.00
00524             -28.00    10800.00
00525             -26.00    10800.00
00526             -26.00    10600.00
00527             -28.00    10600.00
00528             -28.00    10600.00
00529             -20.00    10400.00
00530             -24.00    10200.00
00531             -26.00    10200.00
00532             -24.00    10200.00
00533             -26.00    10000.00
00534             -26.00     9800.00
00535             -26.00     9800.00
00536             -20.00     9600.00
00537             -22.00     9600.00
00538             -20.00     9600.00
00539             -26.00     9400.00
00540             -26.00     9400.00
00541             -20.00     9200.00
00542             -24.00     9200.00
00543             -20.00     8800.00
00544             -20.00     8800.00
00545             -24.00     8600.00
00546             -24.00     8400.00
00547             -24.00     8400.00
00548             -20.00     8400.00
00549             -22.00     8200.00
00550             -16.00     8000.00
00551             -22.00     7800.00
00552             -22.00     7800.00
00553             -20.00     7600.00
00554             -20.00     7400.00
00555             -18.00     7200.00
00556             -18.00     7200.00
00557             -20.00     7000.00
00558             -16.00     6800.00
00559             -18.00     6600.00
00560             -24.00     6800.00
00561             -18.00     6400.00
00562             -16.00     6200.00
00563             -16.00     6200.00
00564             -12.00     5800.00
00565             -16.00     5600.00
00566             -16.00     5600.00
00567             -16.00     5400.00
00568             -12.00     5200.00
00569             -12.00     5000.00
00570             -14.00     4800.00
00571             -12.00     4600.00
00572             -12.00     4600.00
00573             -16.00     4400.00
00574             -12.00     4000.00
00575             -10.00     4000.00
00576              -8.00     3800.00
00577             -10.00     3600.00
00578             -10.00     3400.00
00579             -10.00     3200.00
00580             -10.00     3000.00
00581             -10.00     3000.00
00582              -8.00     2800.00
00583              -6.00     2600.00
00584              -4.00     2400.00
00585              -8.00     2200.00
00586              -6.00     2000.00
00587              -4.00     1800.00
00588              -4.00     1600.00
00589              -4.00     1400.00
00590              -2.00     1200.00
00591              -2.00     1000.00
00592              -4.00     1000.00
00593              -4.00      600.00
00594              -2.00      400.00
00595              -2.00      400.00
00596               0.00        0.00
00597               4.00     -200.00
00598               4.00     -400.00
00599              12.00     -400.00
00600              28.00     -800.00
00601              14.00     -800.00
00602             -10.00    -1000.00
00603              -2.00    -1200.00
00604              20.00    -1200.00
00605              14.00    -1600.00
00606              30.00    -1600.00
00607             152.00    -1800.00
00608             252.00    -2400.00
00609            -108.00    -2600.00
00610            -248.00    -2600.00
00611            -128.00    -3000.00
00612             124.00    -2800.00
00613              30.00    -2800.00
00614             252.00    -3200.00
00615              32.00    -4000.00
00616            -248.00    -3000.00
00617             252.00    -4000.00
00618             252.00    -4400.00
00619            -248.00    -3400.00
00620             -20.00    -4800.00
00621             232.00    -4600.00
00622             -90.00    -4200.00
00623              62.00    -5400.00
00624             -36.00    -5000.00
00625             -90.00    -5000.00
00626             134.00    -5800.00
00627              56.00    -5400.00
00628             -56.00    -5600.00
00629             -32.00    -6000.00
00630              48.00    -6000.00
00631              68.00    -6400.00
00632               4.00    -6400.00
00633               6.00    -6600.00
00634             -42.00    -6800.00
00635              32.00    -7000.00
00636             116.00    -7200.00
00637             -48.00    -7000.00
00638             -36.00    -7400.00
00639              60.00    -7400.00
00640              28.00    -7400.00
00641              12.00    -8000.00
00642               6.00    -7800.00
00643              30.00    -8000.00
00644              36.00    -8200.00
00645              14.00    -8400.00
00646              12.00    -8400.00
00647               2.00    -8800.00
00648              46.00    -8800.00
00649              42.00    -8800.00
00650              -4.00    -9200.00
00651               8.00    -9200.00
00652              22.00    -9200.00
00653              30.00    -9400.00
00654              36.00    -9600.00
00655              20.00    -9600.00
00656              12.00    -9800.00
00657              28.00   -10000.00
00658              30.00    -9800.00
00659               8.00   -10000.00
00660              22.00   -10000.00
00661              40.00   -10200.00
00662              22.00   -10400.00
00663              22.00   -10400.00
00664              24.00   -10600.00
00665              16.00   -10600.00
00666              28.00   -10600.00
00667              30.00   -10600.00
00668              22.00   -10800.00
00669              24.00   -10800.00
00670              30.00   -10800.00
00671              20.00   -11000.00
00672              22.00   -11000.00
00673              24.00   -11200.00
00674              24.00   -11200.00
00675              32.00   -11400.00
00676              32.00   -11400.00
00677              20.00   -11400.00
00678              20.00   -11400.00
00679              28.00   -11600.00
00680              26.00   -11600.00
00681              24.00   -11600.00
00682              32.00   -11600.00
00683              24.00   -11600.00
00684              20.00   -11600.00
00685              24.00   -11600.00
00686              22.00   -11600.00
00687              24.00   -11800.00
00688              32.00   -11600.00
00689              28.00   -11800.00
00690              20.00   -11600.00
00691              20.00   -11800.00
00692              22.00   -11800.00
00693              24.00   -12000.00
00694              28.00   -11800.00
00695              24.00   -11800.00
00696              24.00   -11600.00
00697              24.00   -11800.00
00698              22.00   -11600.00
00699              20.00   -11600.00
00700              24.00   -11600.00
00701              24.00   -11800.00
00702              24.00   -11600.00
00703              24.00   -11600.00
00704              22.00   -11600.00
00705              20.00   -11600.00
00706              22.00   -11400.00
00707              24.00   -11400.00
00708              24.00   -11400.00
00709              24.00   -11400.00
00710              22.00   -11400.00
00711              20.00   -11200.00
00712              20.00   -11200.00
00713              22.00   -11000.00
00714              22.00   -11000.00
00715              28.00   -11000.00
00716              22.00   -10800.00
00717              22.00   -10800.00
00718              18.00   -10800.00
00719              22.00   -10600.00
00720              18.00   -10600.00
00721              22.00   -10400.00
00722              22.00   -10400.00
00723              20.00   -10400.00
00724              14.00   -10400.00
00725              16.00   -10000.00
00726              20.00   -10000.00
00727              20.00   -10000.00
00728              20.00    -9800.00
00729              20.00    -9800.00
00730              16.00    -9600.00
00731              14.00    -9600.00
00732              12.00    -9400.00
00733              16.00    -9400.00
00734              16.00    -9200.00
00735              18.00    -9200.00
00736              14.00    -9000.00
00737              14.00    -8800.00
00738              12.00    -8800.00
00739              12.00    -8600.00
00740              14.00    -8200.00
00741              16.00    -8200.00
00742              12.00    -8000.00
00743              12.00    -7800.00
00744              10.00    -8000.00
00745               6.00    -7800.00
00746               8.00    -7600.00
00747              12.00    -7200.00
00748              10.00    -7400.00
00749              12.00    -7200.00
00750               8.00    -7000.00
00751               6.00    -6800.00
00752               4.00    -6800.00
00753               6.00    -6400.00
00754               6.00    -6400.00
00755               8.00    -6000.00
00756               6.00    -6000.00
00757               4.00    -5800.00
00758               4.00    -5600.00
00759               4.00    -5400.00
00760               6.00    -5200.00
00761               6.00    -5200.00
00762               6.00    -5000.00
00763               2.00    -4800.00
00764               2.00    -4600.00
00765               0.00    -4400.00
00766              -2.00    -4200.00
00767               4.00    -4000.00
00768               4.00    -3800.00
00769               0.00    -3600.00
00770               2.00    -3400.00
00771              -2.00    -3200.00
00772              -2.00    -3200.00
00773               0.00    -2800.00
00774               0.00    -2800.00
00775               0.00    -2600.00
00776              -2.00    -2400.00
00777              -2.00    -2200.00
00778              -6.00    -2000.00
00779              -4.00    -2000.00
00780              -4.00    -1600.00
00781              -2.00    -1600.00
00782              -4.00    -1200.00
00783              -4.00    -1000.00
00784              -6.00    -1000.00
00785              -8.00     -800.00
00786              -4.00     -600.00
00787              -4.00     -400.00
00788              -4.00     -200.00
00789              -2.00        0.00
00790              -4.00        0.00
00791              16.00      400.00
00792              18.00      600.00
00793             -12.00      800.00
00794             -20.00     1000.00
00795               0.00     1200.00
00796               6.00     1200.00
00797              16.00     1400.00
00798             184.00     1800.00
00799             248.00     2200.00
00800            -248.00     2400.00
00801            -248.00     2400.00
00802             -66.00     2400.00
00803              56.00     2600.00
00804             252.00     3000.00
00805             252.00     2800.00
00806            -248.00     3000.00
00807            -226.00     3600.00
00808             252.00     3200.00
00809            -248.00     4000.00
00810            -248.00     3800.00
00811             252.00     3800.00
00812            -146.00     4600.00
00813            -194.00     4200.00
00814             252.00     4600.00
00815            -248.00     5400.00
00816              52.00     4600.00
00817             172.00     5200.00
00818            -232.00     5800.00
00819              34.00     4800.00
00820              38.00     5800.00
00821             -74.00     6200.00
00822              12.00     5600.00
00823              24.00     6400.00
00824             -28.00     6200.00
00825            -162.00     6200.00
00826             112.00     6800.00
00827              48.00     6600.00
00828            -214.00     7000.00
00829             116.00     7200.00
00830             -10.00     7600.00
00831            -146.00     7400.00
00832              86.00     7400.00
00833             -42.00     8000.00
00834             -36.00     7600.00
00835               6.00     8000.00
00836             -58.00     8400.00
00837             -36.00     8000.00
00838              -2.00     8600.00
00839              22.00     8600.00
00840             -80.00     8600.00
00841             -20.00     9000.00
00842              20.00     8800.00
00843             -82.00     9200.00
00844               4.00     9200.00
00845              -2.00     9400.00
00846             -84.00     9400.00
00847              -2.00     9400.00
00848             -42.00     9800.00
00849             -58.00     9600.00
00850              22.00    10000.00
00851               6.00    10000.00
00852             -32.00    10000.00
00853             -42.00    10000.00
00854              12.00    10400.00
00855             -68.00    10400.00
00856             -64.00    10400.00
00857             -16.00    10600.00
00858             -26.00    10400.00
00859             -12.00    10800.00
00860             -34.00    10800.00
00861             -36.00    10800.00
00862              -2.00    11000.00
00863              -4.00    11000.00
00864             -74.00    11000.00
00865             -36.00    11000.00
00866               0.00    11200.00
00867             -42.00    11200.00
00868             -40.00    11200.00
00869             -16.00    11400.00
00870             -28.00    11200.00
00871             -36.00    11400.00
00872             -22.00    11600.00
00873             -26.00    11400.00
00874             -32.00    11600.00
00875             -34.00    11600.00
00876             -42.00    11600.00
00877             -26.00    11400.00
00878             -16.00    11600.00
00879             -44.00    11600.00
00880             -34.00    11600.00
00881             -18.00    11600.00
00882             -34.00    11600.00
00883             -40.00    11600.00
00884             -28.00    11600.00
00885             -26.00    11600.00
00886             -34.00    11600.00
00887             -20.00    11400.00
00888             -36.00    11600.00
00889             -40.00    11600.00
00890             -26.00    11600.00
00891             -26.00    11600.00
00892             -32.00    11400.00
00893             -28.00    11600.00
00894             -34.00    11600.00
00895             -36.00    11400.00
00896             -26.00    11600.00
00897             -34.00    11400.00
00898             -32.00    11200.00
00899             -24.00    11200.00
00900             -24.00    11200.00
00901             -30.00    11000.00
00902             -32.00    11000.00
00903             -34.00    11000.00
00904             -34.00    11000.00
00905             -26.00    11000.00
00906             -24.00    10800.00
00907             -28.00    10800.00
00908             -26.00    10800.00
00909             -26.00    10800.00
00910             -28.00    10400.00
00911             -26.00    10400.00
00912             -28.00    10400.00
00913             -28.00    10200.00
00914             -26.00    10200.00
00915             -26.00    10000.00
00916             -28.00    10000.00
00917             -26.00    10000.00
00918             -20.00     9800.00
00919             -20.00     9600.00
00920             -24.00     9600.00
00921             -28.00     9600.00
00922             -26.00     9200.00
00923             -24.00     9200.00
00924             -24.00     9200.00
00925             -20.00     8800.00
00926             -18.00     9000.00
00927             -20.00     8800.00
00928             -26.00     8600.00
00929             -26.00     8600.00
00930             -20.00     8400.00
00931             -20.00     8200.00
00932             -18.00     8000.00
00933             -20.00     8000.00
00934             -26.00     7800.00
00935             -20.00     7800.00
00936             -18.00     7600.00
00937             -18.00     7600.00
00938             -18.00     7200.00
00939             -18.00     7400.00
00940             -20.00     7000.00
00941             -16.00     6800.00
00942             -16.00     6400.00
00943             -24.00     6400.00
00944             -20.00     6400.00
00945             -16.00     6200.00
00946             -16.00     6000.00
00947             -10.00     5600.00
00948             -16.00     5600.00
00949             -20.00     5600.00
00950             -18.00     5400.00
00951             -12.00     5200.00
00952             -12.00     5200.00
00953             -12.00     4800.00
00954             -12.00     4600.00
00955             -14.00     4600.00
00956             -12.00     4400.00
00957             -10.00     4000.00
00958             -12.00     4000.00
00959             -10.00     3800.00
00960             -10.00     3600.00
00961             -12.00     3200.00
00962             -10.00     3200.00
00963             -10.00     3000.00
00964              -4.00     3000.00
00965              -8.00     2800.00
00966              -4.00     2600.00
00967              -8.00     2200.00
00968              -6.00     2200.00
00969              -8.00     2000.00
00970              -6.00     1600.00
00971              -8.00     1600.00
00972              -4.00     1600.00
00973              -4.00     1200.00
00974              -4.00     1000.00
00975              -4.00      800.00
00976              -2.00      600.00
00977              -4.00      400.00
00978               0.00        0.00
00979               4.00        0.00
00980               6.00     -200.00
00981               6.00     -200.00
00982              18.00     -600.00
00983              28.00     -600.00
00984               0.00    -1000.00
00985             -12.00    -1000.00
00986               8.00    -1200.00
00987              20.00    -1200.00
00988              14.00    -1400.00
00989              54.00    -1800.00
00990             220.00    -2000.00
00991             196.00    -2600.00
00992            -248.00    -2800.00
00993            -248.00    -2800.00
00994              22.00    -3000.00
00995              84.00    -2800.00
00996             112.00    -2800.00
00997             252.00    -3600.00
00998            -248.00    -3600.00
00999            -248.00    -3200.00
01000             252.00    -4400.00
01001             140.00    -3800.00
01002            -248.00    -3800.00
01003             174.00    -5000.00
01004             116.00    -4200.00
01005             -74.00    -4600.00
01006              84.00    -5400.00
01007            -108.00    -4800.00
01008              -4.00    -5400.00
01009             148.00    -5600.00
01010              -4.00    -5400.00
01011             -52.00    -6000.00
01012              -8.00    -6200.00
01013              70.00    -6000.00
01014              46.00    -6600.00
01015               4.00    -6400.00
01016              -4.00    -6800.00
01017             -42.00    -6800.00
01018              88.00    -7000.00
01019              72.00    -7200.00
01020             -78.00    -7200.00
01021              12.00    -7600.00
01022              54.00    -7600.00
01023              20.00    -7600.00
01024              12.00    -8000.00
01025               6.00    -8000.00
01026              36.00    -8200.00
01027              22.00    -8400.00
01028              12.00    -8400.00
01029               6.00    -8600.00
01030              14.00    -8600.00
01031              54.00    -9000.00
01032              22.00    -9000.00
01033              -2.00    -9200.00
01034              16.00    -9200.00
01035              22.00    -9200.00
01036              38.00    -9600.00
01037              30.00    -9600.00
01038              12.00    -9600.00
01039              14.00    -9800.00
01040              36.00    -9800.00
01041              24.00   -10000.00
01042               8.00   -10000.00
01043              28.00   -10200.00
01044              38.00   -10200.00
01045              20.00   -10400.00
01046              20.00   -10400.00
01047              22.00   -10600.00
01048              22.00   -10800.00
01049              28.00   -10600.00
01050              30.00   -10800.00
01051              22.00   -10800.00
01052              28.00   -10800.00
01053              26.00   -10800.00
01054              20.00   -11200.00
01055              22.00   -11200.00
01056              26.00   -11200.00
01057              24.00   -11200.00
01058              32.00   -11400.00
01059              30.00   -11400.00
01060              14.00   -11400.00
01061              22.00   -11400.00
01062              30.00   -11600.00
01063              24.00   -11600.00
01064              28.00   -11800.00
01065              32.00   -11600.00
01066              22.00   -11600.00
01067              20.00   -11600.00
01068              24.00   -11600.00
01069              24.00   -11600.00
01070              28.00   -11600.00
01071              28.00   -11800.00
01072              24.00   -11800.00
01073              20.00   -11600.00
01074              22.00   -11800.00
01075              22.00   -11600.00
01076              28.00   -11800.00
01077              28.00   -11600.00
01078              26.00   -11800.00
01079              22.00   -11600.00
01080              22.00   -11800.00
01081              22.00   -11600.00
01082              20.00   -11600.00
01083              26.00   -11600.00
01084              22.00   -11600.00
01085              24.00   -11600.00
01086              22.00   -11600.00
01087              20.00   -11600.00
01088              18.00   -11600.00
01089              22.00   -11400.00
01090              24.00   -11400.00
01091              24.00   -11400.00
01092              22.00   -11400.00
01093              20.00   -11400.00
01094              20.00   -11200.00
01095              20.00   -11200.00
01096              22.00   -11000.00
01097              22.00   -11200.00
01098              26.00   -10800.00
01099              20.00   -10800.00
01100              16.00   -10800.00
01101              16.00   -10600.00
01102              20.00   -10600.00
01103              20.00   -10600.00
01104              22.00   -10400.00
01105              22.00   -10400.00
01106              16.00   -10400.00
01107              16.00   -10200.00
01108              16.00   -10000.00
01109              16.00   -10000.00
01110              22.00    -9800.00
01111              22.00    -9800.00
01112              18.00    -9800.00
01113              14.00    -9600.00
01114              12.00    -9600.00
01115              16.00    -9200.00
01116              20.00    -9200.00
01117              16.00    -9000.00
01118              14.00    -9000.00
01119              14.00    -9000.00
01120              12.00    -8800.00
01121              14.00    -8600.00
01122              14.00    -8400.00
01123              12.00    -8200.00
01124              16.00    -8200.00
01125              14.00    -8000.00
01126              14.00    -8000.00
01127              12.00    -7800.00
01128              10.00    -7600.00
01129              10.00    -7600.00
01130              14.00    -7400.00
01131              12.00    -7200.00
01132              12.00    -7200.00
01133               8.00    -6800.00
01134               6.00    -6800.00
01135               6.00    -6600.00
01136               8.00    -6400.00
01137              10.00    -6400.00
01138               6.00    -6000.00
01139               4.00    -6000.00
01140               4.00    -5800.00
01141               2.00    -5400.00
01142               6.00    -5400.00
01143               6.00    -5200.00
01144               6.00    -5200.00
01145               4.00    -5000.00
01146               2.00    -4800.00
01147               0.00    -4600.00
01148               0.00    -4400.00
01149               0.00    -4200.00
01150               4.00    -4000.00
01151               4.00    -3800.00
01152               2.00    -3600.00
01153               0.00    -3400.00
01154              -4.00    -3200.00
01155              -2.00    -3200.00
01156               0.00    -3000.00
01157              -2.00    -2800.00
01158               0.00    -2600.00
01159              -2.00    -2400.00
01160              -6.00    -2400.00
01161              -4.00    -2000.00
01162              -4.00    -1800.00
01163              -4.00    -1600.00
01164              -4.00    -1400.00
01165              -4.00    -1200.00
01166              -4.00    -1000.00
01167              -8.00     -800.00
01168             -10.00     -600.00
01169              -4.00     -600.00
01170              -4.00     -200.00
01171              -2.00     -200.00
01172              -4.00        0.00
01173               4.00      400.00
01174              22.00      600.00
01175               6.00      600.00
01176             -18.00     1000.00
01177             -12.00     1000.00
01178               6.00     1200.00
01179               6.00     1400.00
01180              52.00     1600.00
01181             252.00     2000.00
01182             124.00     2200.00
01183            -248.00     2200.00
01184            -248.00     2400.00
01185              32.00     2400.00
01186              90.00     2800.00
01187             252.00     3000.00
01188              70.00     3000.00
01189            -248.00     3200.00
01190             252.00     3400.00
01191             252.00     3600.00
01192            -248.00     4000.00
01193             -30.00     3600.00
01194             252.00     4000.00
01195            -248.00     4600.00
01196              62.00     4000.00
01197             112.00     5000.00
01198            -248.00     5200.00
01199             214.00     4600.00
01200              -2.00     5600.00
01201            -188.00     5400.00
01202             100.00     5200.00
01203             -28.00     6200.00
01204             -44.00     6000.00
01205              14.00     5600.00
01206              30.00     6800.00
01207             -90.00     6000.00
01208            -110.00     6400.00
01209             176.00     7000.00
01210             -96.00     6800.00
01211            -130.00     7200.00
01212             152.00     7400.00
01213            -128.00     7400.00
01214             -52.00     7400.00
01215              72.00     7600.00
01216             -80.00     8000.00
01217               0.00     7600.00
01218             -24.00     8400.00
01219             -56.00     8400.00
01220             -28.00     8000.00
01221              14.00     8800.00
01222             -10.00     8400.00
01223             -90.00     8800.00
01224              16.00     8800.00
01225             -30.00     8800.00
01226             -68.00     9200.00
01227              44.00     9200.00
01228             -52.00     9400.00
01229             -58.00     9400.00
01230              22.00     9600.00
01231             -34.00     9800.00
01232             -56.00     9600.00
01233             -14.00    10000.00
01234             -10.00    10000.00
01235             -44.00    10000.00
01236             -20.00    10200.00
01237             -22.00    10200.00
01238             -50.00    10400.00
01239              -8.00    10400.00
01240             -26.00    10600.00
01241             -50.00    10400.00
01242             -10.00    10800.00
01243             -24.00    10800.00
01244             -44.00    10800.00
01245             -20.00    11000.00
01246             -28.00    11000.00
01247             -48.00    11200.00
01248             -12.00    11200.00
01249             -12.00    11200.00
01250             -44.00    11200.00
01251             -32.00    11200.00
01252             -20.00    11400.00
01253             -40.00    11400.00
01254             -24.00    11200.00
01255             -20.00    11600.00
01256             -36.00    11600.00
01257             -30.00    11600.00
01258             -26.00    11600.00
01259             -36.00    11600.00
01260             -28.00    11600.00
01261             -24.00    11600.00
01262             -34.00    11600.00
01263             -28.00    11600.00
01264             -26.00    11600.00
01265             -42.00    11600.00
01266             -34.00    11600.00
01267             -24.00    11600.00
01268             -34.00    11600.00
01269             -30.00    11600.00
01270             -26.00    11600.00
01271             -36.00    11600.00
01272             -34.00    11400.00
01273             -26.00    11600.00
01274             -32.00    11600.00
01275             -32.00    11600.00
01276             -26.00    11600.00
01277             -34.00    11600.00
01278             -36.00    11400.00
01279             -32.00    11200.00
01280             -32.00    11200.00
01281             -26.00    11400.00
01282             -26.00    11200.00
01283             -30.00    11200.00
01284             -34.00    11200.00
01285             -28.00    11200.00
01286             -32.00    11000.00
01287             -30.00    10800.00
01288             -24.00    10800.00
01289             -28.00    10800.00
01290             -30.00    10800.00
01291             -26.00    10600.00
01292             -28.00    10800.00
01293             -28.00    10400.00
01294             -26.00    10400.00
01295             -24.00    10400.00
01296             -26.00    10200.00
01297             -26.00    10200.00
01298             -28.00    10000.00
01299             -28.00    10000.00
01300             -24.00    10000.00
01301             -26.00     9800.00
01302             -24.00     9600.00
01303             -24.00     9600.00
01304             -26.00     9600.00
01305             -26.00     9200.00
01306             -24.00     9200.00
01307             -20.00     9200.00
01308             -22.00     9000.00
01309             -18.00     8800.00
01310             -20.00     8800.00
01311             -24.00     8600.00
01312             -20.00     8400.00
01313             -22.00     8400.00
01314             -20.00     8200.00
01315             -18.00     8000.00
01316             -16.00     8000.00
01317             -20.00     7800.00
01318             -20.00     7600.00
01319             -20.00     7600.00
01320             -18.00     7600.00
01321             -18.00     7200.00
01322             -18.00     7200.00
01323             -16.00     6800.00
01324             -16.00     6800.00
01325             -20.00     6600.00
01326             -16.00     6400.00
01327             -16.00     6400.00
01328             -12.00     6200.00
01329             -16.00     6000.00
01330             -16.00     5800.00
01331             -18.00     5600.00
01332             -16.00     5400.00
01333             -16.00     5200.00
01334             -12.00     5200.00
01335             -10.00     5000.00
01336             -12.00     4800.00
01337             -12.00     4600.00
01338             -12.00     4400.00
01339             -10.00     4200.00
01340             -12.00     4000.00
01341             -10.00     3800.00
01342              -8.00     3600.00
01343             -10.00     3400.00
01344              -8.00     3200.00
01345             -10.00     3200.00
01346             -12.00     2800.00
01347             -10.00     2600.00
01348              -4.00     2600.00
01349              -6.00     2400.00
01350              -8.00     2200.00
01351              -8.00     2200.00
01352              -6.00     2000.00
01353              -8.00     1600.00
01354              -4.00     1600.00
01355              -4.00     1400.00
01356              -2.00     1000.00
01357              -4.00      800.00
01358              -8.00      800.00
01359               0.00      600.00
01360               0.00      400.00
01361              -2.00        0.00
01362               4.00     -200.00
01363               4.00     -200.00
01364               6.00     -400.00
01365              24.00     -800.00
01366              22.00     -800.00
01367              -8.00     -800.00
01368              -6.00    -1000.00
01369              14.00    -1200.00
01370              16.00    -1200.00
01371              20.00    -1600.00
01372             100.00    -1800.00
01373             252.00    -2200.00
01374              54.00    -2800.00
01375            -248.00    -2600.00
01376            -248.00    -2800.00
01377             108.00    -2800.00
01378              36.00    -2800.00
01379             246.00    -2800.00
01380             252.00    -3600.00
01381            -248.00    -3400.00
01382             -60.00    -3400.00
01383             252.00    -4400.00
01384            -196.00    -3400.00
01385            -234.00    -4400.00
01386             252.00    -5000.00
01387             -24.00    -4000.00
01388              -2.00    -5000.00
01389              40.00    -5200.00
01390            -124.00    -4800.00
01391              84.00    -5600.00
01392             108.00    -5400.00
01393             -40.00    -5400.00
01394             -42.00    -6000.00
01395              22.00    -6000.00
01396              80.00    -6000.00
01397              20.00    -6400.00
01398               8.00    -6600.00
01399             -26.00    -6600.00
01400             -16.00    -6800.00
01401             118.00    -7200.00
01402               8.00    -7200.00
01403             -70.00    -7200.00
01404              46.00    -7600.00
01405              44.00    -7400.00
01406              14.00    -8000.00
01407               6.00    -8000.00
01408              16.00    -7800.00
01409              36.00    -8200.00
01410              12.00    -8400.00
01411              16.00    -8400.00
01412               0.00    -8600.00
01413              28.00    -8800.00
01414              52.00    -8800.00
01415               6.00    -9000.00
01416               4.00    -9200.00
01417              16.00    -9200.00
01418              22.00    -9200.00
01419              38.00    -9600.00
01420              22.00    -9600.00
01421               8.00    -9600.00
01422              20.00   -10000.00
01423              34.00    -9800.00
01424              14.00   -10000.00
01425               8.00   -10000.00
01426              38.00   -10200.00
01427              30.00   -10400.00
01428              20.00   -10400.00
01429              22.00   -10400.00
01430              20.00   -10600.00
01431              22.00   -10800.00
01432              30.00   -10800.00
01433              24.00   -10800.00
01434              22.00   -10800.00
01435              28.00   -11200.00
01436              22.00   -11000.00
01437              18.00   -11000.00
01438              22.00   -11200.00
01439              24.00   -11200.00
01440              28.00   -11200.00
01441              36.00   -11400.00
01442              24.00   -11400.00
01443              14.00   -11400.00
01444              24.00   -11600.00
01445              30.00   -11600.00
01446              24.00   -11600.00
01447              28.00   -11600.00
01448              28.00   -11600.00
01449              20.00   -11600.00
01450              22.00   -11800.00
01451              24.00   -11600.00
01452              22.00   -11600.00
01453              28.00   -11600.00
01454              30.00   -11800.00
01455              24.00   -11600.00
01456              22.00   -11800.00
01457              22.00   -11600.00
01458              24.00   -11800.00
01459              28.00   -11800.00
01460              28.00   -11600.00
01461              22.00   -11800.00
01462              22.00   -11800.00
01463              22.00   -11600.00
01464              18.00   -11600.00
01465              22.00   -11600.00
01466              28.00   -11600.00
01467              24.00   -11600.00
01468              24.00   -11600.00
01469              22.00   -11400.00
01470              20.00   -11600.00
01471              16.00   -11400.00
01472              22.00   -11400.00
01473              22.00   -11400.00
01474              24.00   -11400.00
01475              22.00   -11200.00
01476              20.00   -11200.00
01477              20.00   -11200.00
01478              22.00   -11200.00
01479              20.00   -11200.00
01480              22.00   -10800.00
01481              24.00   -10800.00
01482              16.00   -10800.00
01483              16.00   -10800.00
01484              16.00   -10600.00
01485              18.00   -10600.00
01486              20.00   -10600.00
01487              22.00   -10600.00
01488              20.00   -10600.00
01489              16.00   -10400.00
01490              16.00   -10000.00
01491              16.00   -10000.00
01492              18.00   -10000.00
01493              20.00    -9800.00
01494              20.00    -9600.00
01495              16.00    -9600.00
01496              12.00    -9600.00
01497              14.00    -9600.00
01498              14.00    -9200.00
01499              14.00    -9200.00
01500              20.00    -9200.00
01501              16.00    -9000.00
01502              14.00    -8800.00
01503              12.00    -8800.00
01504              12.00    -8600.00
01505              14.00    -8400.00
01506              16.00    -8200.00
01507              14.00    -8200.00
01508              14.00    -8000.00
01509              12.00    -8000.00
01510              10.00    -7800.00
01511              12.00    -7600.00
01512              14.00    -7600.00
01513              12.00    -7400.00
01514              12.00    -7200.00
01515              12.00    -7000.00
01516               8.00    -6800.00
01517               8.00    -6600.00
01518               8.00    -6600.00
01519               8.00    -6400.00
01520              12.00    -6200.00
01521              12.00    -6000.00
01522               6.00    -5800.00
01523               4.00    -5600.00
01524               6.00    -5400.00
01525               4.00    -5400.00
01526               6.00    -5200.00
01527               6.00    -5000.00
01528               4.00    -4800.00
01529               2.00    -4800.00
01530              -2.00    -4400.00
01531              -2.00    -4400.00
01532               4.00    -4200.00
01533               4.00    -4000.00
01534               4.00    -3800.00
01535               0.00    -3600.00
01536               0.00    -3400.00
01537              -2.00    -3200.00
01538              -2.00    -3000.00
01539               0.00    -2800.00
01540              -2.00    -2600.00
01541               0.00    -2600.00
01542              -2.00    -2400.00
01543              -4.00    -2000.00
01544              -4.00    -1800.00
01545              -2.00    -1800.00
01546              -2.00    -1600.00
01547              -4.00    -1200.00
01548              -4.00    -1200.00
01549              -8.00    -1000.00
01550              -4.00     -800.00
01551             -10.00     -800.00
01552              -8.00     -400.00
01553              -4.00     -200.00
01554              -4.00        0.00
01555              -4.00        0.00
01556               8.00      400.00
01557              20.00      400.00
01558              -4.00      600.00
01559             -20.00     1000.00
01560              -4.00     1000.00
01561               6.00     1200.00
01562               6.00     1400.00
01563             110.00     1600.00
01564             252.00     2000.00
01565             -66.00     2200.00
01566            -248.00     2400.00
01567            -210.00     2400.00
01568              60.00     2600.00
01569             206.00     2800.00
01570             252.00     3000.00
01571            -248.00     3000.00
01572            -248.00     3400.00
01573             252.00     3200.00
01574             252.00     3800.00
01575            -248.00     4000.00
01576             252.00     3600.00
01577             200.00     4600.00
01578            -248.00     4600.00
01579             240.00     4000.00
01580            -102.00     5200.00
01581            -146.00     4800.00
01582             252.00     4800.00
01583            -164.00     5600.00
01584             -74.00     5200.00
01585              96.00     5400.00
01586             -72.00     6400.00
01587             -10.00     5600.00
01588              20.00     6200.00
01589              16.00     6800.00
01590            -148.00     6200.00
01591              -2.00     6800.00
01592             156.00     6800.00
01593            -202.00     7000.00
01594               6.00     7000.00
01595             102.00     7400.00
01596            -172.00     7600.00
01597              38.00     7200.00
01598              16.00     8000.00
01599             -68.00     7800.00
01600              16.00     7800.00
01601             -48.00     8600.00
01602             -44.00     8000.00
01603             -20.00     8400.00
01604              24.00     8800.00
01605             -50.00     8400.00
01606             -66.00     8800.00
01607              32.00     8800.00
01608             -74.00     9200.00
01609             -26.00     9200.00
01610              30.00     9200.00
01611             -84.00     9400.00
01612             -24.00     9400.00
01613              12.00     9800.00
01614             -52.00     9600.00
01615             -44.00     9800.00
01616              -6.00    10000.00
01617             -20.00    10000.00
01618             -44.00    10000.00
01619             -10.00    10200.00
01620             -38.00    10400.00
01621             -40.00    10200.00
01622              -2.00    10400.00
01623             -42.00    10400.00
01624             -42.00    10400.00
01625              -4.00    10800.00
01626             -36.00    10800.00
01627             -40.00    10800.00
01628             -16.00    11000.00
01629             -36.00    11000.00
01630             -42.00    11000.00
01631              -4.00    11200.00
01632             -28.00    11200.00
01633             -46.00    11200.00
01634             -24.00    11200.00
01635             -28.00    11200.00
01636             -40.00    11200.00
01637             -20.00    11600.00
01638             -26.00    11600.00
01639             -36.00    11600.00
01640             -26.00    11600.00
01641             -28.00    11600.00
01642             -36.00    11600.00
01643             -24.00    11600.00
01644             -26.00    11600.00
01645             -34.00    11600.00
01646             -26.00    11600.00
01647             -32.00    11600.00
01648             -40.00    11600.00
01649             -26.00    11600.00
01650             -26.00    11600.00
01651             -34.00    11600.00
01652             -26.00    11600.00
01653             -28.00    11600.00
01654             -36.00    11600.00
01655             -28.00    11600.00
01656             -26.00    11600.00
01657             -32.00    11600.00
01658             -26.00    11400.00
01659             -28.00    11600.00
01660             -32.00    11600.00
01661             -32.00    11400.00
01662             -30.00    11400.00
01663             -32.00    11400.00
01664             -26.00    11200.00
01665             -26.00    11200.00
01666             -34.00    11200.00
01667             -32.00    11000.00
01668             -28.00    11000.00
01669             -34.00    11000.00
01670             -28.00    11000.00
01671             -26.00    10800.00
01672             -28.00    10800.00
01673             -28.00    10800.00
01674             -26.00    10800.00
01675             -32.00    10400.00
01676             -28.00    10400.00
01677             -26.00    10200.00
01678             -26.00    10400.00
01679             -26.00    10200.00
01680             -26.00    10200.00
01681             -32.00    10000.00
01682             -28.00    10000.00
01683             -24.00     9800.00
01684             -26.00     9600.00
01685             -24.00     9600.00
01686             -22.00     9400.00
01687             -26.00     9600.00
01688             -26.00     9200.00
01689             -24.00     9200.00
01690             -24.00     8800.00
01691             -20.00     9000.00
01692             -26.00     8800.00
01693             -20.00     8600.00
01694             -24.00     8600.00
01695             -26.00     8600.00
01696             -16.00     8400.00
01697             -20.00     8200.00
01698             -24.00     8000.00
01699             -14.00     7800.00
01700             -20.00     8000.00
01701             -20.00     7600.00
01702             -16.00     7600.00
01703             -18.00     7200.00
01704             -20.00     7200.00
01705             -16.00     7200.00
01706              -8.00     6800.00
01707             -26.00     6800.00
01708             -16.00     6600.00
01709             -10.00     6400.00
01710             -18.00     6200.00
01711             -18.00     6000.00
01712             -10.00     6000.00
01713             -10.00     5600.00
01714             -18.00     5400.00
01715             -20.00     5400.00
01716             -10.00     5200.00
01717              -8.00     5200.00
01718             -14.00     4800.00
01719             -12.00     4800.00
01720              -8.00     4600.00
01721             -16.00     4400.00
01722             -18.00     4000.00
01723              -8.00     4000.00
01724              -4.00     3800.00
01725             -10.00     3600.00
01726             -12.00     3400.00
01727             -10.00     3200.00
01728              -8.00     3000.00
01729              -8.00     2800.00
01730              -8.00     2800.00
01731              -4.00     2400.00
01732              -4.00     2400.00
01733              -8.00     2200.00
01734              -8.00     2000.00
01735              -4.00     1800.00
01736              -6.00     1600.00
01737              -8.00     1400.00
01738              -4.00     1200.00
01739               0.00     1000.00
01740              -4.00     1000.00
01741              -8.00      600.00
01742              -4.00      400.00
01743               0.00      200.00
01744               0.00        0.00
01745               0.00     -200.00
01746               4.00     -400.00
01747               8.00     -400.00
01748              28.00     -800.00
01749              12.00     -800.00
01750             -10.00    -1000.00
01751               0.00    -1200.00
01752              20.00    -1200.00
01753              14.00    -1600.00
01754              28.00    -1600.00
01755             156.00    -1800.00
01756             252.00    -2400.00
01757            -120.00    -2600.00
01758            -248.00    -2600.00
01759            -116.00    -3200.00
01760             120.00    -2800.00
01761              32.00    -2600.00
01762             252.00    -3200.00
01763              22.00    -4000.00
01764            -248.00    -3200.00
01765             252.00    -4000.00
01766             252.00    -4400.00
01767            -248.00    -3400.00
01768              -4.00    -4800.00
01769             228.00    -4400.00
01770             -92.00    -4200.00
01771              66.00    -5400.00
01772             -38.00    -5000.00
01773             -82.00    -5000.00
01774             136.00    -5800.00
01775              46.00    -5200.00
01776             -50.00    -5800.00
01777             -26.00    -6000.00
01778              52.00    -5800.00
01779              68.00    -6200.00
01780               6.00    -6400.00
01781               6.00    -6600.00
01782             -40.00    -6600.00
01783              36.00    -6800.00
01784             112.00    -7200.00
01785             -48.00    -7200.00
01786             -28.00    -7400.00
01787              60.00    -7600.00
01788              26.00    -7600.00
01789              16.00    -8000.00
01790               4.00    -8000.00
01791              28.00    -8000.00
01792              28.00    -8400.00
01793              12.00    -8200.00
01794              12.00    -8600.00
01795               6.00    -8600.00
01796              46.00    -8800.00
01797              38.00    -9000.00
01798              -2.00    -9000.00
01799              12.00    -9200.00
01800              20.00    -9200.00
01801              28.00    -9200.00
01802              32.00    -9600.00
01803              20.00    -9600.00
01804              12.00    -9800.00
01805              28.00    -9800.00
01806              30.00   -10000.00
01807               6.00   -10000.00
01808              16.00   -10000.00
01809              38.00   -10200.00
01810              24.00   -10400.00
01811              16.00   -10600.00
01812              22.00   -10400.00
01813              20.00   -10600.00
01814              24.00   -10800.00
01815              30.00   -10800.00
01816              22.00   -10800.00
01817              22.00   -10800.00
01818              24.00   -11200.00
01819              20.00   -11200.00
01820              22.00   -11000.00
01821              28.00   -11200.00
01822              26.00   -11200.00
01823              24.00   -11400.00
01824              28.00   -11200.00
01825              22.00   -11400.00
01826              20.00   -11400.00
01827              28.00   -11400.00
01828              24.00   -11400.00
01829              22.00   -11600.00
01830              28.00   -11600.00
01831              30.00   -11600.00
01832              20.00   -11800.00
01833              22.00   -11600.00
01834              22.00   -11600.00
01835              24.00   -11600.00
01836              30.00   -11800.00
01837              30.00   -11800.00
01838              22.00   -11600.00
01839              20.00   -11800.00
01840              22.00   -11600.00
01841              24.00   -11800.00
01842              28.00   -11600.00
01843              28.00   -11800.00
01844              24.00   -11600.00
01845              22.00   -11800.00
01846              20.00   -11800.00
01847              22.00   -11600.00
01848              26.00   -11600.00
01849              28.00   -11600.00
01850              24.00   -11600.00
01851              24.00   -11600.00
01852              22.00   -11600.00
01853              20.00   -11600.00
01854              20.00   -11400.00
01855              24.00   -11400.00
01856              24.00   -11400.00
01857              24.00   -11200.00
01858              20.00   -11400.00
01859              20.00   -11200.00
01860              18.00   -11200.00
01861              22.00   -11200.00
01862              20.00   -11000.00
01863              24.00   -11200.00
01864              22.00   -10800.00
01865              16.00   -10800.00
01866              20.00   -10800.00
01867              18.00   -10600.00
01868              18.00   -10600.00
01869              22.00   -10400.00
01870              22.00   -10400.00
01871              18.00   -10200.00
01872              16.00   -10400.00
01873              14.00   -10400.00
01874              16.00   -10000.00
01875              20.00   -10000.00
01876              20.00    -9800.00
01877              20.00    -9800.00
01878              16.00    -9600.00
01879              14.00    -9600.00
01880              14.00    -9600.00
01881              16.00    -9200.00
01882              20.00    -9200.00
01883              20.00    -9000.00
01884              14.00    -9000.00
01885              14.00    -8800.00
01886              12.00    -8800.00
01887              12.00    -8600.00
01888              14.00    -8400.00
01889              16.00    -8200.00
01890              14.00    -8200.00
01891              14.00    -8000.00
01892              12.00    -7800.00
01893              12.00    -7600.00
01894              12.00    -7600.00
01895              12.00    -7400.00
01896              12.00    -7200.00
01897              12.00    -7200.00
01898              12.00    -7200.00
01899               6.00    -6800.00
01900               6.00    -6600.00
01901               8.00    -6600.00
01902              12.00    -6400.00
01903              12.00    -6000.00
01904               8.00    -6000.00
01905               6.00    -5800.00
01906               6.00    -5400.00
01907               6.00    -5400.00
01908               8.00    -5400.00
01909               6.00    -5200.00
01910               6.00    -5000.00
01911               6.00    -4800.00
01912               4.00    -4600.00
01913               2.00    -4400.00
01914               0.00    -4400.00
01915               6.00    -4000.00
01916               4.00    -4000.00
01917               4.00    -3600.00
01918               0.00    -3600.00
01919              -2.00    -3400.00
01920              -2.00    -3200.00
01921              -2.00    -2800.00
01922               4.00    -2800.00
01923               0.00    -2600.00
01924               0.00    -2400.00
01925              -4.00    -2400.00
01926              -4.00    -2000.00
01927              -4.00    -2000.00
01928              -4.00    -1800.00
01929              -4.00    -1600.00
01930              -2.00    -1200.00
01931              -4.00    -1200.00
01932              -8.00     -800.00
01933              -8.00     -800.00
01934              -8.00     -400.00
01935              -4.00     -400.00
01936              -4.00     -200.00
01937              -4.00        0.00
01938              -2.00      400.00
01939              16.00      400.00
01940              14.00      600.00
01941             -12.00      800.00
01942             -20.00     1000.00
01943               0.00     1000.00
01944               6.00     1200.00
01945              20.00     1400.00
01946             188.00     1800.00
01947             244.00     2200.00
01948            -248.00     2200.00
01949            -248.00     2400.00
01950             -58.00     2400.00
01951              54.00     2600.00
01952             252.00     3000.00
01953             252.00     2800.00
01954            -248.00     3000.00
01955            -192.00     3600.00
01956             252.00     3400.00
01957            -248.00     4000.00
01958            -248.00     3800.00
01959             252.00     3800.00
01960            -162.00     4600.00
01961            -180.00     4200.00
01962             248.00     4600.00
01963            -248.00     5400.00
01964              64.00     4800.00
01965             162.00     5200.00
01966            -234.00     5800.00
01967              40.00     5200.00
01968              40.00     6000.00
01969             -74.00     6200.00
01970              12.00     5600.00
01971              24.00     6400.00
01972             -28.00     6400.00
01973            -162.00     6200.00
01974             118.00     7000.00
01975              44.00     6800.00
01976            -210.00     7200.00
01977             120.00     7200.00
01978             -18.00     7600.00
01979            -138.00     7400.00
01980              86.00     7400.00
01981             -44.00     8000.00
01982             -34.00     7800.00
01983               4.00     8000.00
01984             -58.00     8400.00
01985             -36.00     8000.00
01986              -2.00     8600.00
01987              20.00     8600.00
01988             -82.00     8400.00
01989             -18.00     9000.00
01990              12.00     8800.00
01991             -88.00     9200.00
01992              22.00     9200.00
01993             -10.00     9200.00
01994             -84.00     9400.00
01995               8.00     9200.00
01996             -10.00    10000.00
01997             -60.00     9600.00
01998             -28.00     9800.00
01999              -4.00    10000.00
02000             -36.00    10000.00
02001             -36.00    10200.00
02002             -12.00    10200.00
02003             -48.00    10400.00
02004             -22.00    10400.00
02005             -10.00    10400.00
02006             -56.00    10600.00
02007             -26.00    10800.00
02008             -10.00    10800.00
02009             -44.00    10800.00
02010             -28.00    11000.00
02011             -20.00    11000.00
02012             -48.00    11000.00
02013             -26.00    11200.00
02014              -4.00    11200.00
02015             -36.00    11200.00
02016             -42.00    11200.00
02017             -20.00    11400.00
02018             -36.00    11400.00
02019             -36.00    11200.00
02020             -18.00    11600.00
02021             -32.00    11600.00
02022             -34.00    11400.00
02023             -26.00    11600.00
02024             -34.00    11600.00
02025             -32.00    11600.00
02026             -22.00    11600.00
02027             -30.00    11600.00
02028             -32.00    11600.00
02029             -22.00    11600.00
02030             -36.00    11600.00
02031             -36.00    11600.00
02032             -20.00    11600.00
02033             -28.00    11600.00
02034             -34.00    11600.00
02035             -20.00    11600.00
02036             -32.00    11600.00
02037             -34.00    11600.00
02038             -26.00    11600.00
02039             -26.00    11600.00
02040             -34.00    11400.00
02041             -24.00    11600.00
02042             -26.00    11600.00
02043             -32.00    11400.00
02044             -28.00    11400.00
02045             -28.00    11600.00
02046             -30.00    11200.00
02047             -20.00    11200.00
02048             -26.00    11200.00
02049             -34.00    11200.00
02050             -28.00    11200.00
02051             -28.00    11000.00
02052             -32.00    11000.00
02053             -22.00    11000.00
02054             -26.00    10800.00
02055             -30.00    10800.00
02056             -26.00    10600.00
02057             -26.00    10600.00
02058             -30.00    10400.00
02059             -26.00    10400.00
02060             -24.00    10400.00
02061             -26.00    10400.00
02062             -26.00    10200.00
02063             -26.00    10000.00
02064             -28.00    10000.00
02065             -26.00    10000.00
02066             -24.00     9800.00
02067             -24.00     9600.00
02068             -26.00     9600.00
02069             -26.00     9400.00
02070             -26.00     9400.00
02071             -24.00     9200.00
02072             -20.00     9200.00
02073             -22.00     8800.00
02074             -20.00     9000.00
02075             -20.00     8800.00
02076             -26.00     8600.00
02077             -22.00     8400.00
02078             -22.00     8400.00
02079             -22.00     8400.00
02080             -18.00     8000.00
02081             -16.00     7800.00
02082             -20.00     7800.00
02083             -20.00     7800.00
02084             -22.00     7600.00
02085             -18.00     7400.00
02086             -18.00     7400.00
02087             -12.00     7000.00
02088             -16.00     7200.00
02089             -18.00     6800.00
02090             -20.00     6600.00
02091             -16.00     6400.00
02092             -16.00     6200.00
02093             -16.00     6200.00
02094             -12.00     6000.00
02095             -12.00     5800.00
02096             -16.00     5600.00
02097             -18.00     5400.00
02098             -16.00     5400.00
02099             -10.00     5200.00
02100             -10.00     5000.00
02101             -12.00     4800.00
02102             -10.00     4600.00
02103             -10.00     4600.00
02104             -12.00     4200.00
02105             -12.00     4000.00
02106              -8.00     3800.00
02107             -10.00     3800.00
02108              -4.00     3600.00
02109              -8.00     3400.00
02110             -10.00     3200.00
02111             -10.00     3000.00
02112              -8.00     2800.00
02113              -8.00     2600.00
02114              -4.00     2400.00
02115              -6.00     2200.00
02116              -8.00     2000.00
02117              -4.00     2000.00
02118             -10.00     1800.00
02119              -4.00     1600.00
02120              -4.00     1200.00
02121               0.00     1200.00
02122              -4.00     1000.00
02123              -4.00      800.00
02124              -4.00      600.00
02125              -4.00      400.00
02126              -2.00      200.00
02127               0.00        0.00
02128               2.00     -200.00
02129               2.00     -400.00
02130              20.00     -400.00
02131              24.00     -800.00
02132               0.00    -1000.00
02133             -10.00    -1000.00
02134               6.00    -1200.00
02135              18.00    -1200.00
02136              12.00    -1600.00
02137              54.00    -1600.00
02138             224.00    -2000.00
02139             184.00    -2600.00
02140            -248.00    -2800.00
02141            -248.00    -2800.00
02142              28.00    -2800.00
02143              78.00    -2800.00
02144             118.00    -2800.00
02145             252.00    -3600.00
02146            -248.00    -3600.00
02147            -248.00    -3200.00
02148             252.00    -4400.00
02149             116.00    -4000.00
02150            -248.00    -3800.00
02151             182.00    -5000.00
02152             104.00    -4200.00
02153             -72.00    -4600.00
02154              84.00    -5200.00
02155            -108.00    -4800.00
02156               2.00    -5200.00
02157             148.00    -5600.00
02158              -8.00    -5200.00
02159             -50.00    -5800.00
02160              -4.00    -5800.00
02161              70.00    -6000.00
02162              46.00    -6400.00
02163               6.00    -6400.00
02164              -4.00    -6600.00
02165             -36.00    -6600.00
02166              88.00    -7200.00
02167              70.00    -7200.00
02168             -74.00    -7200.00
02169              20.00    -7600.00
02170              54.00    -7400.00
02171              22.00    -7600.00
02172              12.00    -8000.00
02173               6.00    -8000.00
02174              40.00    -8200.00
02175              20.00    -8400.00
02176              14.00    -8400.00
02177               8.00    -8600.00
02178              14.00    -8800.00
02179              54.00    -8800.00
02180              22.00    -9000.00
02181              -4.00    -9200.00
02182              16.00    -9200.00
02183              22.00    -9200.00
02184              32.00    -9600.00
02185              32.00    -9600.00
02186              12.00    -9600.00
02187              12.00    -9800.00
02188              32.00    -9800.00
02189              24.00   -10000.00
02190               4.00   -10000.00
02191              28.00   -10200.00
02192              38.00   -10400.00
02193              20.00   -10200.00
02194              20.00   -10400.00
02195              20.00   -10600.00
02196              20.00   -10600.00
02197              28.00   -10600.00
02198              28.00   -10800.00
02199              20.00   -10800.00
02200              26.00   -11000.00
02201              24.00   -11000.00
02202              16.00   -11200.00
02203              20.00   -11200.00
02204              24.00   -11200.00
02205              24.00   -11400.00
02206              30.00   -11400.00
02207              30.00   -11400.00
02208              14.00   -11400.00
02209              22.00   -11400.00
02210              30.00   -11600.00
02211              22.00   -11600.00
02212              28.00   -11400.00
02213              30.00   -11600.00
02214              22.00   -11600.00
02215              20.00   -11600.00
02216              24.00   -11600.00
02217              24.00   -11800.00
02218              28.00   -11600.00
02219              30.00   -11600.00
02220              28.00   -11600.00
02221              22.00   -11600.00
02222              22.00   -11800.00
02223              24.00   -11800.00
02224              28.00   -11600.00
02225              30.00   -11800.00
02226              26.00   -11600.00
02227              24.00   -11800.00
02228              24.00   -11600.00
02229              22.00   -11600.00
02230              22.00   -11600.00
02231              30.00   -11600.00
02232              28.00   -11600.00
02233              22.00   -11600.00
02234              24.00   -11600.00
02235              22.00   -11600.00
02236              20.00   -11600.00
02237              22.00   -11400.00
02238              30.00   -11400.00
02239              28.00   -11600.00
02240              24.00   -11400.00
02241              20.00   -11200.00
02242              20.00   -11200.00
02243              22.00   -11200.00
02244              22.00   -11200.00
02245              22.00   -11200.00
02246              26.00   -11000.00
02247              22.00   -10800.00
02248              16.00   -10800.00
02249              18.00   -10800.00
02250              22.00   -10600.00
02251              20.00   -10400.00
02252              22.00   -10600.00
02253              20.00   -10400.00
02254              16.00   -10400.00
02255              14.00   -10400.00
02256              16.00   -10200.00
02257              16.00   -10000.00
02258              20.00   -10000.00
02259              20.00    -9800.00
02260              16.00    -9600.00
02261              14.00    -9600.00
02262              14.00    -9600.00
02263              14.00    -9200.00
02264              16.00    -9400.00
02265              16.00    -9200.00
02266              16.00    -9200.00
02267              14.00    -9000.00
02268              12.00    -8800.00
02269              12.00    -8600.00
02270              12.00    -8400.00
02271              16.00    -8400.00
02272              18.00    -8200.00
02273              12.00    -8000.00
02274              14.00    -8000.00
02275               8.00    -7800.00
02276               8.00    -7600.00
02277              12.00    -7600.00
02278              12.00    -7400.00
02279              14.00    -7200.00
02280              12.00    -7200.00
02281               8.00    -6800.00
02282               6.00    -6600.00
02283               8.00    -6600.00
02284               8.00    -6400.00
02285              12.00    -6200.00
02286              10.00    -6000.00
02287               8.00    -6000.00
02288               8.00    -5800.00
02289               4.00    -5600.00
02290               6.00    -5400.00
02291               8.00    -5200.00
02292               6.00    -5000.00
02293               6.00    -5000.00
02294               4.00    -4800.00
02295               4.00    -4600.00
02296               4.00    -4400.00
02297               4.00    -4200.00
02298               6.00    -4000.00
02299               4.00    -3800.00
02300               4.00    -3800.00
02301               2.00    -3400.00
02302               0.00    -3400.00
02303              -2.00    -3000.00
02304               0.00    -2800.00
02305               0.00    -2800.00
02306               4.00    -2400.00
02307               0.00    -2400.00
02308              -4.00    -2000.00
02309              -4.00    -2000.00
02310              -4.00    -1600.00
02311              -4.00    -1600.00
02312              -2.00    -1600.00
02313              -4.00    -1200.00
02314              -4.00    -1200.00
02315              -8.00     -800.00
02316              -8.00     -800.00
02317              -8.00     -400.00
02318              -4.00     -200.00
02319              -4.00     -200.00
02320              -4.00        0.00
02321               4.00      400.00
02322              22.00      400.00
02323               6.00      600.00
02324             -20.00      800.00
02325             -12.00     1000.00
02326               6.00     1200.00
02327               4.00     1400.00
02328              50.00     1400.00
02329             252.00     2000.00
02330             110.00     2200.00
02331            -248.00     2400.00
02332            -248.00     2400.00
02333              32.00     2400.00
02334              92.00     2800.00
02335             252.00     3000.00
02336              44.00     3000.00
02337            -248.00     3200.00
02338             252.00     3400.00
02339             252.00     3600.00
02340            -248.00     4000.00
02341               0.00     3600.00
02342             252.00     4000.00
02343            -248.00     4800.00
02344              78.00     4000.00
02345              96.00     4800.00
02346            -248.00     5200.00
02347             224.00     4600.00
02348             -12.00     5600.00
02349            -184.00     5400.00
02350             104.00     5200.00
02351             -32.00     6400.00
02352             -42.00     6000.00
02353              14.00     5600.00
02354              30.00     6800.00
02355             -96.00     6200.00
02356            -104.00     6800.00
02357             182.00     6800.00
02358            -106.00     6800.00
02359            -120.00     7000.00
02360             156.00     7200.00
02361            -132.00     7600.00
02362             -46.00     7200.00
02363              72.00     7800.00
02364             -76.00     8000.00
02365               4.00     7600.00
02366             -24.00     8400.00
02367             -52.00     8400.00
02368             -26.00     8400.00
02369              16.00     8600.00
02370             -10.00     8400.00
02371             -88.00     8800.00
02372              22.00     8800.00
02373             -34.00     8800.00
02374             -64.00     9200.00
02375              44.00     9200.00
02376             -58.00     9400.00
02377             -56.00     9200.00
02378              20.00     9600.00
02379             -36.00     9800.00
02380             -58.00     9600.00
02381             -16.00    10000.00
02382             -10.00    10000.00
02383             -44.00    10000.00
02384             -20.00    10200.00
02385             -24.00    10200.00
02386             -48.00    10400.00
02387              -8.00    10400.00
02388             -28.00    10600.00
02389             -52.00    10400.00
02390             -10.00    10600.00
02391             -26.00    10800.00
02392             -44.00    10800.00
02393             -20.00    10800.00
02394             -32.00    11000.00
02395             -48.00    11000.00
02396             -16.00    11000.00
02397             -14.00    11200.00
02398             -48.00    11200.00
02399             -32.00    11200.00
02400             -24.00    11200.00
02401             -42.00    11200.00
02402             -26.00    11400.00
02403             -20.00    11400.00
02404             -36.00    11600.00
02405             -32.00    11600.00
02406             -26.00    11600.00
02407             -36.00    11600.00
02408             -30.00    11600.00
02409             -24.00    11600.00
02410             -34.00    11600.00
02411             -28.00    11600.00
02412             -26.00    11600.00
02413             -40.00    11600.00
02414             -28.00    11600.00
02415             -22.00    11600.00
02416             -32.00    11600.00
02417             -28.00    11600.00
02418             -26.00    11600.00
02419             -36.00    11600.00
02420             -32.00    11600.00
02421             -24.00    11600.00
02422             -32.00    11600.00
02423             -28.00    11600.00
02424             -22.00    11600.00
02425             -28.00    11600.00
02426             -32.00    11400.00
02427             -28.00    11400.00
02428             -28.00    11600.00
02429             -26.00    11200.00
02430             -22.00    11200.00
02431             -28.00    11200.00
02432             -28.00    11000.00
02433             -26.00    11200.00
02434             -32.00    11000.00
02435             -26.00    11000.00
02436             -20.00    10800.00
02437             -26.00    10800.00
02438             -28.00    10800.00
02439             -26.00    10800.00
02440             -26.00    10600.00
02441             -28.00    10400.00
02442             -26.00    10400.00
02443             -24.00    10400.00
02444             -26.00    10200.00
02445             -26.00    10200.00
02446             -28.00    10000.00
02447             -30.00    10000.00
02448             -24.00     9800.00
02449             -24.00     9600.00
02450             -24.00     9600.00
02451             -24.00     9600.00
02452             -26.00     9400.00
02453             -26.00     9400.00
02454             -24.00     9200.00
02455             -24.00     9000.00
02456             -20.00     9000.00
02457             -20.00     8800.00
02458             -22.00     8800.00
02459             -26.00     8600.00
02460             -24.00     8400.00
02461             -20.00     8400.00
02462             -20.00     8400.00
02463             -20.00     8000.00
02464             -20.00     8000.00
02465             -20.00     7800.00
02466             -24.00     7600.00
02467             -20.00     7600.00
02468             -20.00     7400.00
02469             -18.00     7000.00
02470             -18.00     7200.00
02471             -18.00     7000.00
02472             -16.00     6800.00
02473             -20.00     6800.00
02474             -18.00     6400.00
02475             -16.00     6200.00
02476             -12.00     6200.00
02477             -16.00     6000.00
02478             -14.00     5800.00
02479             -18.00     5600.00
02480             -16.00     5600.00
02481             -16.00     5400.00
02482             -10.00     5200.00
02483             -12.00     4800.00
02484             -10.00     4800.00
02485             -12.00     4600.00
02486             -10.00     4600.00
02487             -10.00     4400.00
02488             -10.00     4000.00
02489              -8.00     3800.00
02490              -8.00     3800.00
02491             -10.00     3600.00
02492              -8.00     3200.00
02493             -10.00     3200.00
02494              -8.00     3000.00
02495              -8.00     2800.00
02496              -4.00     2600.00
02497              -4.00     2400.00
02498              -8.00     2400.00
02499              -6.00     2000.00
02500              -4.00     2000.00
02501              -8.00     1600.00
02502              -4.00     1600.00
02503              -2.00     1200.00
02504              -4.00     1200.00
02505              -4.00      800.00
02506              -4.00      600.00
02507              -4.00      600.00
02508              -2.00      200.00
02509               0.00      200.00
02510               2.00     -200.00
02511               4.00     -200.00
02512               6.00     -400.00
02513              22.00     -600.00
02514              20.00     -800.00
02515              -8.00    -1000.00
02516              -6.00    -1200.00
02517              12.00    -1200.00
02518              16.00    -1400.00
02519              16.00    -1600.00
02520              96.00    -1800.00
02521             252.00    -2200.00
02522              44.00    -2600.00
02523            -248.00    -2600.00
02524            -248.00    -2800.00
02525             110.00    -3000.00
02526              28.00    -2800.00
02527             252.00    -2800.00
02528             252.00    -3800.00
02529            -248.00    -3200.00
02530             -36.00    -3600.00
02531             252.00    -4600.00
02532            -218.00    -3600.00
02533            -220.00    -4200.00
02534             252.00    -5000.00
02535             -28.00    -4000.00
02536               4.00    -5200.00
02537              34.00    -5200.00
02538            -126.00    -4600.00
02539              88.00    -5600.00
02540             106.00    -5600.00
02541             -44.00    -5400.00
02542             -42.00    -6000.00
02543              22.00    -6000.00
02544              80.00    -6200.00
02545              20.00    -6400.00
02546               8.00    -6600.00
02547             -26.00    -6600.00
02548             -10.00    -6800.00
02549             120.00    -7200.00
02550               6.00    -7000.00
02551             -66.00    -7200.00
02552              50.00    -7600.00
02553              40.00    -7400.00
02554              18.00    -7600.00
02555               6.00    -8000.00
02556              20.00    -7800.00
02557              38.00    -8200.00
02558              16.00    -8400.00
02559              14.00    -8400.00
02560               4.00    -8600.00
02561              32.00    -8800.00
02562              54.00    -8800.00
02563               6.00    -8800.00
02564               4.00    -9200.00
02565              20.00    -9200.00
02566              28.00    -9200.00
02567              38.00    -9400.00
02568              24.00    -9600.00
02569               8.00    -9600.00
02570              24.00    -9800.00
02571              36.00   -10000.00
02572              14.00   -10000.00
02573              12.00   -10000.00
02574              36.00   -10200.00
02575              30.00   -10400.00
02576              16.00   -10400.00
02577              22.00   -10400.00
02578              20.00   -10600.00
02579              22.00   -10600.00
02580              30.00   -10600.00
02581              24.00   -10800.00
02582              22.00   -10800.00
02583              28.00   -10800.00
02584              24.00   -11000.00
02585              16.00   -11200.00
02586              24.00   -11200.00
02587              26.00   -11200.00
02588              28.00   -11400.00
02589              32.00   -11400.00
02590              22.00   -11400.00
02591              14.00   -11600.00
02592              24.00   -11400.00
02593              28.00   -11600.00
02594              22.00   -11600.00
02595              28.00   -11600.00
02596              28.00   -11600.00
02597              20.00   -11600.00
02598              22.00   -11600.00
02599              24.00   -11800.00
02600              24.00   -11600.00
02601              30.00   -11600.00
02602              30.00   -11800.00
02603              24.00   -11600.00
02604              22.00   -11800.00
02605              22.00   -11800.00
02606              22.00   -11600.00
02607              28.00   -11600.00
02608              30.00   -11600.00
02609              22.00   -11800.00
02610              24.00   -11600.00
02611              22.00   -11600.00
02612              20.00   -11800.00
02613              28.00   -11600.00
02614              28.00   -11600.00
02615              26.00   -11600.00
02616              24.00   -11600.00
02617              22.00   -11400.00
02618              22.00   -11600.00
02619              22.00   -11600.00
02620              24.00   -11600.00
02621              24.00   -11400.00
02622              24.00   -11400.00
02623              22.00   -11400.00
02624              20.00   -11200.00
02625              20.00   -11200.00
02626              22.00   -11200.00
02627              22.00   -11000.00
02628              24.00   -11000.00
02629              24.00   -10800.00
02630              20.00   -10600.00
02631              18.00   -10800.00
02632              20.00   -10800.00
02633              22.00   -10600.00
02634              22.00   -10400.00
02635              22.00   -10400.00
02636              20.00   -10400.00
02637              16.00   -10400.00
02638              16.00   -10200.00
02639              14.00   -10200.00
02640              20.00   -10000.00
02641              20.00    -9800.00
02642              20.00    -9800.00
02643              16.00    -9600.00
02644              14.00    -9600.00
02645              14.00    -9600.00
02646              16.00    -9200.00
02647              16.00    -9200.00
02648              16.00    -9200.00
02649              14.00    -9000.00
02650              12.00    -9000.00
02651              12.00    -8800.00
02652              12.00    -8400.00
02653              12.00    -8400.00
02654              14.00    -8200.00
02655              12.00    -8000.00
02656              12.00    -8000.00
02657              12.00    -8000.00
02658               8.00    -7800.00
02659               8.00    -7600.00
02660               8.00    -7400.00
02661              12.00    -7400.00
02662              12.00    -7200.00
02663              12.00    -7000.00
02664               6.00    -6800.00
02665               6.00    -6800.00
02666               6.00    -6600.00
02667               8.00    -6400.00
02668              10.00    -6000.00
02669               6.00    -6000.00
02670               6.00    -5800.00
02671               6.00    -5600.00
02672               4.00    -5400.00
02673               4.00    -5200.00
02674               6.00    -5200.00
02675               6.00    -5000.00
02676               6.00    -4800.00
02677               4.00    -4800.00
02678               4.00    -4600.00
02679               0.00    -4400.00
02680               4.00    -4200.00
02681               6.00    -4000.00
02682               4.00    -3800.00
02683               2.00    -3600.00
02684              -2.00    -3400.00
02685              -2.00    -3200.00
02686               0.00    -3200.00
02687               2.00    -2800.00
02688               4.00    -2600.00
02689               0.00    -2600.00
02690              -2.00    -2400.00
02691              -4.00    -2000.00
02692              -4.00    -2000.00
02693              -4.00    -1600.00
02694              -2.00    -1600.00
02695              -2.00    -1200.00
02696              -4.00    -1200.00
02697              -4.00    -1000.00
02698              -8.00     -800.00
02699              -8.00     -600.00
02700              -4.00     -400.00
02701              -4.00     -200.00
02702              -4.00        0.00
02703              -4.00        0.00
02704              12.00      400.00
02705              16.00      400.00
02706              -4.00      800.00
02707             -22.00     1000.00
02708              -4.00     1000.00
02709               8.00     1200.00
02710               4.00     1400.00
02711             110.00     1600.00
02712             252.00     2000.00
02713             -82.00     2200.00
02714            -248.00     2400.00
02715            -202.00     2400.00
02716              52.00     2400.00
02717             220.00     2800.00
02718             252.00     3000.00
02719            -248.00     2800.00
02720            -248.00     3400.00
02721             252.00     3200.00
02722             214.00     3800.00
02723            -248.00     4000.00
02724             252.00     3600.00
02725             172.00     4600.00
02726            -248.00     4400.00
02727             244.00     4200.00
02728            -128.00     5200.00
02729            -128.00     4800.00
02730             252.00     4800.00
02731            -174.00     5800.00
02732             -68.00     5200.00
02733              92.00     5600.00
02734             -72.00     6200.00
02735              -6.00     5600.00
02736              20.00     6200.00
02737              14.00     6400.00
02738            -154.00     6000.00
02739              12.00     7000.00
02740             150.00     6800.00
02741            -208.00     7000.00
02742              20.00     7400.00
02743              94.00     7200.00
02744            -176.00     7600.00
02745              48.00     7400.00
02746              14.00     8000.00
02747             -68.00     7800.00
02748              20.00     7800.00
02749             -50.00     8400.00
02750             -44.00     8000.00
02751             -16.00     8400.00
02752              28.00     8800.00
02753             -50.00     8400.00
02754             -58.00     8800.00
02755              32.00     8800.00
02756             -74.00     9000.00
02757             -20.00     9200.00
02758              30.00     9200.00
02759             -84.00     9400.00
02760             -18.00     9400.00
02761              14.00     9800.00
02762             -52.00     9600.00
02763             -42.00     9800.00
02764              -4.00    10200.00
02765             -20.00     9800.00
02766             -44.00    10000.00
02767             -10.00    10200.00
02768             -38.00    10200.00
02769             -36.00    10400.00
02770              -2.00    10400.00
02771             -42.00    10800.00
02772             -42.00    10600.00
02773              -4.00    10800.00
02774             -36.00    10800.00
02775             -36.00    10800.00
02776             -16.00    11000.00
02777             -40.00    11000.00
02778             -42.00    11000.00
02779              -4.00    11200.00
02780             -26.00    11000.00
02781             -48.00    11200.00
02782             -24.00    11400.00
02783             -30.00    11200.00
02784             -40.00    11400.00
02785             -20.00    11200.00
02786             -28.00    11400.00
02787             -40.00    11600.00
02788             -26.00    11600.00
02789             -30.00    11400.00
02790             -38.00    11600.00
02791             -26.00    11600.00
02792             -28.00    11600.00
02793             -32.00    11600.00
02794             -24.00    11600.00
02795             -28.00    11800.00
02796             -40.00    11600.00
02797             -26.00    11600.00
02798             -26.00    11600.00
02799             -34.00    11600.00
02800             -28.00    11800.00
02801             -32.00    11600.00
02802             -42.00    11600.00
02803             -26.00    11600.00
02804             -12.00    11600.00
02805             -26.00    11600.00
02806             -26.00    11600.00
02807             -32.00    11600.00
02808             -40.00    11400.00
02809             -30.00    11400.00
02810             -24.00    11200.00
02811             -26.00    11200.00
02812             -24.00    11200.00
02813             -28.00    11200.00
02814             -32.00    11200.00
02815             -28.00    11200.00
02816             -26.00    11000.00
02817             -28.00    11000.00
02818             -26.00    11000.00
02819             -26.00    10800.00
02820             -28.00    10800.00
02821             -26.00    10800.00
02822             -26.00    10600.00
02823             -28.00    10800.00
02824             -28.00    10400.00
02825             -22.00    10400.00
02826             -26.00    10400.00
02827             -24.00    10200.00
02828             -26.00    10200.00
02829             -28.00    10000.00
02830             -28.00    10000.00
02831             -24.00    10000.00
02832             -20.00     9600.00
02833             -24.00     9600.00
02834             -26.00     9400.00
02835             -26.00     9400.00
02836             -26.00     9400.00
02837             -20.00     9200.00
02838             -24.00     9200.00
02839             -20.00     8800.00
02840             -18.00     8800.00
02841             -24.00     8600.00
02842             -26.00     8600.00
02843             -22.00     8600.00
02844             -24.00     8400.00
02845             -22.00     8000.00
02846             -18.00     8000.00
02847             -24.00     8000.00
02848             -24.00     7800.00
02849             -20.00     7600.00
02850             -20.00     7600.00
02851             -20.00     7400.00
02852             -18.00     7200.00
02853             -18.00     7000.00
02854             -16.00     6800.00
02855             -18.00     6800.00
02856             -20.00     6400.00
02857             -20.00     6400.00
02858             -16.00     6200.00
02859             -14.00     6000.00
02860             -16.00     5800.00
02861             -12.00     5800.00
02862             -16.00     5600.00
02863             -16.00     5400.00
02864             -12.00     5200.00
02865             -12.00     5200.00
02866             -12.00     4800.00
02867             -12.00     4800.00
02868             -10.00     4600.00
02869             -12.00     4400.00
02870             -10.00     4200.00
02871             -10.00     4000.00
02872              -8.00     3800.00
02873              -6.00     3600.00
02874             -10.00     3600.00
02875             -10.00     3200.00
02876              -8.00     3200.00
02877              -8.00     3000.00
02878              -8.00     2800.00
02879              -4.00     2600.00
02880              -4.00     2400.00
02881              -6.00     2200.00
02882              -6.00     2000.00
02883              -4.00     1800.00
02884              -4.00     1600.00
02885              -2.00     1400.00
02886               0.00     1200.00
02887              -2.00     1000.00
02888              -4.00     1000.00
02889              -4.00      600.00
02890              -2.00      600.00
02891              -2.00      200.00
02892               4.00        0.00
02893               4.00     -200.00
02894               4.00     -400.00
02895              14.00     -400.00
02896              28.00     -600.00
02897               6.00     -800.00
02898             -10.00    -1000.00
02899              -2.00    -1200.00
02900              16.00    -1200.00
02901              16.00    -1600.00
02902              28.00    -1600.00
02903             158.00    -1800.00
02904             252.00    -2400.00
02905            -130.00    -2800.00
02906            -248.00    -2800.00
02907            -106.00    -2800.00
02908             118.00    -3000.00
02909              36.00    -2800.00
02910             252.00    -3200.00
02911              -4.00    -3800.00
02912            -248.00    -3200.00
02913             252.00    -4000.00
02914             252.00    -4200.00
02915            -248.00    -3600.00
02916              14.00    -4800.00
02917             218.00    -4400.00
02918             -94.00    -4200.00
02919              70.00    -5400.00
02920             -48.00    -4800.00
02921             -76.00    -5000.00
02922             142.00    -5800.00
02923              44.00    -5400.00
02924             -56.00    -5600.00
02925             -26.00    -6000.00
02926              52.00    -6000.00
02927              68.00    -6400.00
02928               6.00    -6400.00
02929               4.00    -6600.00
02930             -42.00    -6800.00
02931              40.00    -6800.00
02932             110.00    -7200.00
02933             -52.00    -6800.00
02934             -24.00    -7400.00
02935              62.00    -7600.00
02936              28.00    -7400.00
02937              18.00    -8000.00
02938               6.00    -8000.00
02939              28.00    -8000.00
02940              32.00    -8200.00
02941              12.00    -8200.00
02942              14.00    -8400.00
02943               6.00    -8800.00
02944              46.00    -8800.00
02945              40.00    -9000.00
02946              -2.00    -9000.00
02947              12.00    -9200.00
02948              22.00    -9200.00
02949              32.00    -9600.00
02950              36.00    -9600.00
02951              18.00    -9600.00
02952              12.00   -10000.00
02953              30.00    -9800.00
02954              30.00   -10000.00
02955              12.00   -10000.00
02956              20.00   -10200.00
02957              38.00   -10200.00
02958              28.00   -10400.00
02959              20.00   -10400.00
02960              24.00   -10600.00
02961              20.00   -10600.00
02962              26.00   -10600.00
02963              30.00   -10800.00
02964              22.00   -10800.00
02965              24.00   -10800.00
02966              28.00   -11200.00
02967              20.00   -11000.00
02968              20.00   -11200.00
02969              24.00   -11200.00
02970              22.00   -11200.00
02971              30.00   -11200.00
02972              30.00   -11400.00
02973              16.00   -11400.00
02974              14.00   -11400.00
02975              28.00   -11600.00
02976              24.00   -11600.00
02977              22.00   -11600.00
02978              32.00   -11600.00
02979              22.00   -11800.00
02980              16.00   -11600.00
02981              22.00   -11800.00
02982              22.00   -11600.00
02983              24.00   -11600.00
02984              30.00   -11800.00
02985              26.00   -11800.00
02986              20.00   -12000.00
02987              22.00   -11800.00
02988              22.00   -11600.00
02989              24.00   -11800.00
02990              28.00   -11800.00
02991              28.00   -11600.00
02992              22.00   -11600.00
02993              24.00   -11800.00
02994              22.00   -11600.00
02995              20.00   -11600.00
02996              24.00   -11600.00
02997              28.00   -11600.00
02998              24.00   -11600.00
02999              24.00   -11600.00
03000              22.00   -11600.00
03001              20.00   -11600.00
03002              22.00   -11400.00
03003              28.00   -11400.00
03004              26.00   -11400.00
03005              24.00   -11400.00
03006              20.00   -11400.00
03007              16.00   -11200.00
03008              20.00   -11200.00
03009              24.00   -11000.00
03010              24.00   -11000.00
03011              28.00   -10800.00
03012              20.00   -10800.00
03013              14.00   -10600.00
03014              16.00   -10800.00
03015              24.00   -10800.00
03016              22.00   -10600.00
03017              22.00   -10600.00
03018              20.00   -10400.00
03019              18.00   -10400.00
03020              14.00   -10000.00
03021              16.00   -10000.00
03022              20.00   -10000.00
03023              22.00   -10000.00
03024              18.00    -9800.00
03025              16.00    -9600.00
03026              16.00    -9600.00
03027              14.00    -9600.00
03028              12.00    -9400.00
03029              14.00    -9400.00
03030              20.00    -9200.00
03031              16.00    -9200.00
03032              14.00    -9000.00
03033              12.00    -8800.00
03034              12.00    -8800.00
03035              12.00    -8400.00
03036              14.00    -8400.00
03037              14.00    -8200.00
03038              14.00    -8000.00
03039              12.00    -8000.00
03040               8.00    -7800.00
03041               8.00    -7600.00
03042              12.00    -7600.00
03043              12.00    -7400.00
03044              12.00    -7400.00
03045              12.00    -7200.00
03046               8.00    -6800.00
03047               6.00    -6800.00
03048               6.00    -6600.00
03049               6.00    -6400.00
03050               8.00    -6400.00
03051              12.00    -6200.00
03052               6.00    -6000.00
03053               4.00    -5800.00
03054               6.00    -5600.00
03055               4.00    -5400.00
03056               4.00    -5200.00
03057               4.00    -5000.00
03058               8.00    -4800.00
03059               4.00    -4800.00
03060               0.00    -4800.00
03061              -2.00    -4400.00
03062               0.00    -4200.00
03063               4.00    -4000.00
03064               4.00    -4000.00
03065               4.00    -3600.00
03066               0.00    -3600.00
03067              -2.00    -3400.00
03068              -2.00    -3200.00
03069               0.00    -3000.00
03070               0.00    -2800.00
03071               0.00    -2600.00
03072               0.00    -2400.00
03073              -4.00    -2200.00
03074              -4.00    -2000.00
03075              -4.00    -1800.00
03076              -4.00    -1600.00
03077              -4.00    -1400.00
03078              -2.00    -1200.00
03079              -4.00    -1000.00
03080              -4.00    -1000.00
03081              -6.00     -800.00
03082              -6.00     -600.00
03083              -4.00     -400.00
03084              -2.00     -200.00
03085              -2.00        0.00
03086              -2.00      200.00
03087              18.00      400.00
03088              16.00      400.00
03089             -12.00      800.00
03090             -18.00     1000.00
03091               4.00     1200.00
03092               6.00     1200.00
03093              22.00     1400.00
03094             194.00     1600.00
03095             236.00     2200.00
03096            -248.00     2200.00
03097            -248.00     2400.00
03098             -50.00     2400.00
03099              54.00     2400.00
03100             252.00     2800.00
03101             252.00     3000.00
03102            -248.00     3000.00
03103            -148.00     3400.00
03104             252.00     3400.00
03105            -248.00     4000.00
03106            -248.00     3800.00
03107             252.00     3800.00
03108            -186.00     4600.00
03109            -160.00     4000.00
03110             240.00     4400.00
03111            -248.00     5400.00
03112              78.00     4600.00
03113             150.00     5200.00
03114            -234.00     5800.00
03115              48.00     5000.00
03116              30.00     6000.00
03117             -72.00     6000.00
03118              12.00     5600.00
03119              24.00     6400.00
03120             -34.00     6200.00
03121            -160.00     6400.00
03122             126.00     7000.00
03123              30.00     6800.00
03124            -208.00     7200.00
03125             128.00     7000.00
03126             -28.00     7400.00
03127            -132.00     7600.00
03128              88.00     7600.00
03129             -48.00     8200.00
03130             -32.00     7800.00
03131               4.00     8000.00
03132             -58.00     8400.00
03133             -34.00     8000.00
03134               0.00     8600.00
03135              16.00     8400.00
03136             -84.00     8400.00
03137             -16.00     9000.00
03138              10.00     9000.00
03139             -88.00     9200.00
03140              26.00     9200.00
03141             -12.00     9400.00
03142             -82.00     9400.00
03143              14.00     9400.00
03144             -10.00     9800.00
03145             -60.00     9600.00
03146             -28.00     9800.00
03147              -4.00    10200.00
03148             -36.00    10000.00
03149             -30.00    10200.00
03150             -12.00    10200.00
03151             -46.00    10400.00
03152             -20.00    10400.00
03153             -10.00    10800.00
03154             -56.00    10400.00
03155             -20.00    10400.00
03156             -12.00    10800.00
03157             -44.00    10800.00
03158             -26.00    10800.00
03159             -20.00    11000.00
03160             -50.00    11000.00
03161             -26.00    11000.00
03162              -8.00    11200.00
03163             -40.00    11200.00
03164             -40.00    11200.00
03165             -20.00    11200.00
03166             -40.00    11200.00
03167             -36.00    11400.00
03168             -20.00    11400.00
03169             -36.00    11600.00
03170             -36.00    11600.00
03171             -24.00    11600.00
03172             -38.00    11600.00
03173             -36.00    11600.00
03174             -24.00    11600.00
03175             -32.00    11600.00
03176             -34.00    11600.00
03177             -24.00    11800.00
03178             -40.00    11600.00
03179             -40.00    11600.00
03180             -24.00    11600.00
03181             -32.00    11600.00
03182             -34.00    11600.00
03183             -24.00    11600.00
03184             -34.00    11600.00
03185             -36.00    11600.00
03186             -26.00    11600.00
03187             -28.00    11600.00
03188             -32.00    11600.00
03189             -24.00    11600.00
03190             -28.00    11600.00
03191             -34.00    11400.00
03192             -32.00    11400.00
03193             -32.00    11200.00
03194             -32.00    11200.00
03195             -24.00    11200.00
03196             -26.00    11200.00
03197             -34.00    11200.00
03198             -26.00    11000.00
03199             -28.00    11200.00
03200             -30.00    11000.00
03201             -22.00    11000.00
03202             -26.00    11000.00
03203             -28.00    10800.00
03204             -26.00    10800.00
03205             -26.00    10600.00
03206             -28.00    10400.00
03207             -26.00    10400.00
03208             -24.00    10200.00
03209             -24.00    10400.00
03210             -24.00    10200.00
03211             -26.00    10000.00
03212             -28.00    10000.00
03213             -28.00    10000.00
03214             -22.00     9800.00
03215             -24.00     9600.00
03216             -20.00     9600.00
03217             -24.00     9600.00
03218             -28.00     9400.00
03219             -20.00     9400.00
03220             -24.00     9200.00
03221             -24.00     9200.00
03222             -20.00     8800.00
03223             -24.00     8800.00
03224             -26.00     8600.00
03225             -26.00     8400.00
03226             -24.00     8400.00
03227             -24.00     8400.00
03228             -18.00     8200.00
03229             -20.00     8000.00
03230             -24.00     7800.00
03231             -20.00     7600.00
03232             -20.00     7600.00
03233             -20.00     7600.00
03234             -20.00     7200.00
03235             -20.00     7000.00
03236             -18.00     6800.00
03237             -16.00     6800.00
03238             -20.00     6800.00
03239             -20.00     6400.00
03240             -20.00     6400.00
03241             -16.00     6200.00
03242             -16.00     6000.00
03243             -18.00     5800.00
03244             -18.00     5600.00
03245             -16.00     5400.00
03246             -18.00     5200.00
03247             -12.00     5200.00
03248             -12.00     5000.00
03249             -12.00     4800.00
03250             -12.00     4600.00
03251             -12.00     4600.00
03252             -16.00     4200.00
03253             -12.00     4000.00
03254              -8.00     3800.00
03255              -8.00     3600.00
03256              -8.00     3600.00
03257             -12.00     3200.00
03258             -10.00     3200.00
03259             -10.00     3000.00
03260              -8.00     3000.00
03261              -8.00     2800.00
03262              -4.00     2400.00
03263              -4.00     2400.00
03264              -4.00     2200.00
03265              -4.00     2000.00
03266              -4.00     1600.00
03267              -4.00     1600.00
03268              -2.00     1200.00
03269              -2.00     1200.00
03270              -2.00     1000.00
03271              -4.00      800.00
03272              -4.00      400.00
03273               0.00      400.00
03274              -2.00      200.00
03275               6.00        0.00
03276               4.00     -200.00
03277               4.00     -400.00
03278              22.00     -400.00
03279              28.00     -800.00
03280               0.00     -800.00
03281             -10.00    -1000.00
03282               8.00    -1200.00
03283              20.00    -1200.00
03284              16.00    -1600.00
03285              60.00    -1600.00
03286             228.00    -2000.00
03287             174.00    -2400.00
03288            -248.00    -2800.00
03289            -248.00    -2800.00
03290              36.00    -2800.00
03291              70.00    -2800.00
03292             130.00    -2800.00
03293             252.00    -3600.00
03294            -248.00    -3600.00
03295            -248.00    -3200.00
03296             252.00    -4400.00
03297              86.00    -4000.00
03298            -248.00    -3800.00
03299             192.00    -5000.00
03300              94.00    -4200.00
03301             -68.00    -4800.00
03302              80.00    -5400.00
03303            -114.00    -4600.00
03304              10.00    -5400.00
03305             142.00    -5800.00
03306             -12.00    -5200.00
03307             -50.00    -6000.00
03308              -4.00    -6000.00
03309              72.00    -6200.00
03310              38.00    -6400.00
03311               4.00    -6600.00
03312             -10.00    -6600.00
03313             -38.00    -6800.00
03314              92.00    -7200.00
03315              68.00    -7200.00
03316             -74.00    -7000.00
03317              20.00    -7600.00
03318              54.00    -7400.00
03319              20.00    -7600.00
03320              12.00    -8000.00
03321               8.00    -7800.00
03322              38.00    -8200.00
03323              20.00    -8400.00
03324              12.00    -8400.00
03325               8.00    -8600.00
03326              16.00    -8600.00
03327              56.00    -9000.00
03328              22.00    -8800.00
03329              -2.00    -9200.00
03330              20.00    -9400.00
03331              24.00    -9400.00
03332              36.00    -9600.00
03333              30.00    -9600.00
03334              14.00    -9600.00
03335              18.00    -9800.00
03336              36.00   -10000.00
03337              24.00   -10000.00
03338               8.00   -10200.00
03339              30.00   -10200.00
03340              38.00   -10400.00
03341              20.00   -10400.00
03342              22.00   -10600.00
03343              22.00   -10400.00
03344              20.00   -10600.00
03345              28.00   -10800.00
03346              30.00   -10800.00
03347              22.00   -10800.00
03348              28.00   -10800.00
03349              28.00   -10800.00
03350              18.00   -11200.00
03351              24.00   -11200.00
03352              26.00   -11200.00
03353              24.00   -11200.00
03354              30.00   -11400.00
03355              28.00   -11400.00
03356              14.00   -11400.00
03357              20.00   -11400.00
03358              28.00   -11600.00
03359              24.00   -11400.00
03360              24.00   -11600.00
03361              32.00   -11600.00
03362              20.00   -11600.00
03363              20.00   -11600.00
03364              24.00   -11800.00
03365              22.00   -11800.00
03366              28.00   -11600.00
03367              28.00   -11800.00
03368              24.00   -11600.00
03369              20.00   -11800.00
03370              20.00   -11800.00
03371              22.00   -11800.00
03372              24.00   -11800.00
03373              28.00   -11800.00
03374              24.00   -11600.00
03375              22.00   -11800.00
03376              22.00   -11800.00
03377              20.00   -11600.00
03378              22.00   -11800.00
03379              28.00   -11600.00
03380              28.00   -11600.00
03381              22.00   -11600.00
03382              22.00   -11600.00
03383              22.00   -11600.00
03384              20.00   -11600.00
03385              22.00   -11400.00
03386              24.00   -11400.00
03387              22.00   -11400.00
03388              24.00   -11200.00
03389              20.00   -11400.00
03390              20.00   -11400.00
03391              20.00   -11200.00
03392              22.00   -11200.00
03393              22.00   -11000.00
03394              24.00   -10800.00
03395              22.00   -10800.00
03396              16.00   -10800.00
03397              20.00   -10600.00
03398              22.00   -10600.00
03399              20.00   -10600.00
03400              22.00   -10600.00
03401              22.00   -10400.00
03402              16.00   -10400.00
03403              20.00   -10400.00
03404              16.00   -10200.00
03405              16.00   -10000.00
03406              20.00    -9800.00
03407              22.00    -9800.00
03408              16.00    -9800.00
03409              14.00    -9600.00
03410              14.00    -9600.00
03411              14.00    -9600.00
03412              14.00    -9200.00
03413              20.00    -9200.00
03414              20.00    -9000.00
03415              14.00    -8800.00
03416              12.00    -8800.00
03417              12.00    -8800.00
03418              14.00    -8600.00
03419              14.00    -8400.00
03420              14.00    -8200.00
03421              14.00    -8000.00
03422              12.00    -8000.00
03423               8.00    -7800.00
03424               8.00    -7600.00
03425              12.00    -7600.00
03426              12.00    -7400.00
03427              12.00    -7400.00
03428              12.00    -7000.00
03429               6.00    -6800.00
03430               6.00    -6800.00
03431               6.00    -6600.00
03432               8.00    -6400.00
03433               8.00    -6400.00
03434               6.00    -6200.00
03435               6.00    -6000.00
03436               6.00    -5800.00
03437               4.00    -5600.00
03438               0.00    -5400.00
03439               8.00    -5400.00
03440               6.00    -5000.00
03441               6.00    -5000.00
03442               4.00    -4800.00
03443               0.00    -4600.00
03444               0.00    -4400.00
03445               4.00    -4200.00
03446               4.00    -4000.00
03447               4.00    -3800.00
03448               4.00    -3600.00
03449               0.00    -3600.00
03450              -2.00    -3400.00
03451              -2.00    -3200.00
03452              -2.00    -2800.00
03453               0.00    -2600.00
03454              -2.00    -2600.00
03455              -2.00    -2400.00
03456              -4.00    -2200.00
03457              -4.00    -2000.00
03458              -4.00    -1600.00
03459              -2.00    -1600.00
03460              -2.00    -1200.00
03461              -2.00    -1200.00
03462              -4.00    -1000.00
03463              -8.00     -800.00
03464              -8.00     -800.00
03465              -4.00     -400.00
03466              -4.00     -200.00
03467              -2.00        0.00
03468              -2.00        0.00
03469               4.00      400.00
03470              22.00      400.00
03471               4.00      600.00
03472             -20.00      800.00
03473             -12.00     1200.00
03474               8.00     1200.00
03475               6.00     1400.00
03476              56.00     1400.00
03477             252.00     1800.00
03478             102.00     2000.00
03479            -248.00     2400.00
03480            -248.00     2400.00
03481              38.00     2400.00
03482              98.00     2800.00
03483             252.00     3000.00
03484               6.00     3000.00
03485            -248.00     3200.00
03486             252.00     3600.00
03487             252.00     3600.00
03488            -248.00     4000.00
03489              36.00     3600.00
03490             252.00     4000.00
03491            -248.00     4600.00
03492              96.00     4000.00
03493              80.00     4800.00
03494            -248.00     5200.00
03495             228.00     4600.00
03496             -28.00     5600.00
03497            -178.00     5200.00
03498             102.00     5200.00
03499             -40.00     6200.00
03500             -40.00     6000.00
03501              16.00     5800.00
03502              28.00     6800.00
03503            -100.00     6000.00
03504             -98.00     6400.00
03505             180.00     7000.00
03506            -116.00     6800.00
03507            -112.00     7200.00
03508             156.00     7200.00
03509            -138.00     7600.00
03510             -40.00     7400.00
03511              66.00     7600.00
03512             -82.00     8000.00
03513               6.00     7600.00
03514             -26.00     8200.00
03515             -52.00     8200.00
03516             -26.00     8000.00
03517              16.00     8600.00
03518             -14.00     8400.00
03519             -88.00     8800.00
03520              22.00     8800.00
03521             -36.00     9000.00
03522             -62.00     9200.00
03523              44.00     9200.00
03524             -58.00     9600.00
03525             -52.00     9400.00
03526              22.00     9600.00
03527             -36.00     9800.00
03528             -56.00     9600.00
03529             -12.00    10000.00
03530             -10.00    10000.00
03531             -44.00    10000.00
03532             -20.00    10400.00
03533             -22.00    10200.00
03534             -48.00    10400.00
03535              -6.00    10400.00
03536             -26.00    10400.00
03537             -52.00    10600.00
03538              -8.00    10600.00
03539             -26.00    10800.00
03540             -44.00    10800.00
03541             -20.00    11000.00
03542             -32.00    11000.00
03543             -46.00    11000.00
03544             -12.00    11200.00
03545             -16.00    11200.00
03546             -44.00    11200.00
03547             -28.00    11200.00
03548             -26.00    11200.00
03549             -42.00    11200.00
03550             -26.00    11400.00
03551             -20.00    11600.00
03552             -40.00    11400.00
03553             -30.00    11600.00
03554             -26.00    11600.00
03555             -40.00    11600.00
03556             -28.00    11600.00
03557             -24.00    11600.00
03558             -36.00    11600.00
03559             -26.00    11600.00
03560             -28.00    11600.00
03561             -42.00    11600.00
03562             -28.00    11600.00
03563             -24.00    11600.00
03564             -36.00    11400.00
03565             -28.00    11600.00
03566             -26.00    11600.00
03567             -36.00    11600.00
03568             -32.00    11600.00
03569             -28.00    11600.00
03570             -34.00    11600.00
03571             -30.00    11400.00
03572             -26.00    11400.00
03573             -32.00    11600.00
03574             -32.00    11400.00
03575             -32.00    11400.00
03576             -32.00    11400.00
03577             -28.00    11200.00
03578             -26.00    11200.00
03579             -28.00    11200.00
03580             -32.00    11200.00
03581             -30.00    11200.00
03582             -34.00    11200.00
03583             -26.00    11000.00
03584             -28.00    11000.00
03585             -26.00    10800.00
03586             -32.00    10800.00
03587             -28.00    10800.00
03588             -24.00    10400.00
03589             -32.00    10600.00
03590             -26.00    10400.00
03591             -16.00    10400.00
03592             -32.00    10200.00
03593             -28.00    10000.00
03594             -24.00    10200.00
03595             -34.00    10000.00
03596             -26.00    10000.00
03597             -18.00     9800.00
03598             -20.00     9600.00
03599             -24.00     9600.00
03600              -8.00     9400.00
03601             -24.00     9200.00
03602             -32.00     9200.00
03603             -16.00     9200.00
03604             -20.00     8800.00
03605             -34.00     8800.00
03606             -32.00     8800.00
03607             -26.00     8600.00
03608             -26.00     8600.00
03609             -16.00     8400.00
03610             -10.00     8200.00
03611             -10.00     8000.00
03612             -16.00     8000.00
03613             -28.00     8000.00
03614             -28.00     7600.00
03615             -20.00     7600.00
03616             -24.00     7200.00
03617             -24.00     7000.00
03618             -12.00     7000.00
03619             -12.00     7000.00
03620             -18.00     6800.00
03621             -18.00     6600.00
03622             -16.00     6400.00
03623             -20.00     6200.00
03624             -18.00     6000.00
03625             -18.00     6000.00
03626             -18.00     5800.00
03627             -14.00     5600.00
03628             -16.00     5400.00
03629             -16.00     5400.00
03630             -10.00     5200.00
03631             -10.00     5000.00
03632             -16.00     4800.00
03633             -10.00     4800.00
03634             -10.00     4400.00
03635             -18.00     4400.00
03636             -12.00     4000.00
03637             -10.00     3800.00
03638             -10.00     3600.00
03639             -10.00     3600.00
03640             -10.00     3400.00
03641             -10.00     3200.00
03642              -8.00     3000.00
03643              -4.00     2800.00
03644              -4.00     2400.00
03645              -4.00     2400.00
03646              -6.00     2200.00
03647              -8.00     2000.00
03648              -4.00     1800.00
03649              -4.00     1600.00
03650              -4.00     1400.00
03651              -4.00     1400.00
03652              -2.00     1200.00
03653              -4.00      800.00
03654              -4.00      800.00
03655              -4.00      600.00
03656              -2.00      400.00
03657               2.00        0.00
03658               6.00        0.00
03659               4.00     -200.00
03660               8.00     -400.00
03661              26.00     -600.00
03662              20.00     -800.00
03663              -8.00    -1000.00
03664              -8.00    -1200.00
03665              18.00    -1200.00
03666              18.00    -1200.00
03667              20.00    -1600.00
03668             108.00    -1600.00
03669             252.00    -2000.00
03670              32.00    -2600.00
03671            -248.00    -2600.00
03672            -248.00    -2800.00
03673             110.00    -3000.00
03674              24.00    -2800.00
03675             252.00    -3000.00
03676             244.00    -4000.00
03677            -248.00    -3200.00
03678              -2.00    -3600.00
03679             252.00    -4400.00
03680            -242.00    -3600.00
03681            -200.00    -4400.00
03682             252.00    -4800.00
03683             -40.00    -4200.00
03684               6.00    -5200.00
03685              28.00    -5200.00
03686            -124.00    -4800.00
03687              92.00    -5800.00
03688             102.00    -5600.00
03689             -44.00    -5400.00
03690             -36.00    -6000.00
03691              22.00    -6000.00
03692              78.00    -6000.00
03693              16.00    -6400.00
03694               6.00    -6600.00
03695             -32.00    -6800.00
03696              -8.00    -6800.00
03697             120.00    -7200.00
03698              -2.00    -7200.00
03699             -64.00    -7400.00
03700              54.00    -7400.00
03701              36.00    -7600.00
03702              14.00    -8000.00
03703               6.00    -8000.00
03704              16.00    -8200.00
03705              36.00    -8400.00
03706              12.00    -8200.00
03707              14.00    -8400.00
03708               6.00    -8400.00
03709              32.00    -8800.00
03710              52.00    -9000.00
03711               6.00    -8800.00
03712               4.00    -9200.00
03713              20.00    -9200.00
03714              24.00    -9400.00
03715              38.00    -9600.00
03716              22.00    -9600.00
03717              12.00    -9800.00
03718              24.00    -9800.00
03719              36.00   -10000.00
03720              14.00   -10000.00
03721              12.00   -10000.00
03722              38.00   -10200.00
03723              28.00   -10400.00
03724              16.00   -10400.00
03725              22.00   -10400.00
03726              20.00   -10600.00
03727              22.00   -10600.00
03728              32.00   -10600.00
03729              28.00   -10800.00
03730              20.00   -10800.00
03731              32.00   -10800.00
03732              24.00   -11000.00
03733              16.00   -11200.00
03734              24.00   -11200.00
03735              26.00   -11200.00
03736              28.00   -11200.00
03737              32.00   -11400.00
03738              22.00   -11400.00
03739              16.00   -11400.00
03740              22.00   -11600.00
03741              28.00   -11400.00
03742              22.00   -11600.00
03743              28.00   -11600.00
03744              28.00   -11600.00
03745              16.00   -11600.00
03746              20.00   -11600.00
03747              24.00   -11800.00
03748              22.00   -11600.00
03749              28.00   -11600.00
03750              28.00   -11600.00
03751              22.00   -11800.00
03752              22.00   -11600.00
03753              22.00   -11800.00
03754              20.00   -11800.00
03755              28.00   -11800.00
03756              28.00   -11600.00
03757              22.00   -11600.00
03758              24.00   -11600.00
03759              22.00   -11600.00
03760              20.00   -11600.00
03761              24.00   -11600.00
03762              28.00   -11600.00
03763              24.00   -11800.00
03764              22.00   -11400.00
03765              22.00   -11600.00
03766              20.00   -11600.00
03767              20.00   -11400.00
03768              22.00   -11400.00
03769              24.00   -11400.00
03770              22.00   -11400.00
03771              24.00   -11400.00
03772              18.00   -11400.00
03773              20.00   -11200.00
03774              20.00   -11000.00
03775              22.00   -11000.00
03776              26.00   -10800.00
03777              22.00   -10800.00
03778              20.00   -10800.00
03779              16.00   -10800.00
03780              20.00   -10600.00
03781              20.00   -10600.00
03782              20.00   -10600.00
03783              22.00   -10400.00
03784              20.00   -10400.00
03785              16.00   -10200.00
03786              16.00   -10400.00
03787              16.00   -10000.00
03788              16.00   -10000.00
03789              20.00    -9800.00
03790              20.00    -9800.00
03791              16.00    -9800.00
03792              16.00    -9600.00
03793              16.00    -9400.00
03794              14.00    -9400.00
03795              20.00    -9200.00
03796              20.00    -9200.00
03797              20.00    -9000.00
03798              14.00    -8800.00
03799              14.00    -8800.00
03800              12.00    -8600.00
03801              16.00    -8400.00
03802              16.00    -8200.00
03803              14.00    -8200.00
03804              14.00    -8000.00
03805              12.00    -8000.00
03806              10.00    -7600.00
03807              10.00    -7600.00
03808              14.00    -7400.00
03809              14.00    -7200.00
03810              10.00    -7200.00
03811               8.00    -7000.00
03812               8.00    -6800.00
03813               6.00    -6600.00
03814               6.00    -6400.00
03815               8.00    -6400.00
03816              10.00    -6200.00
03817               8.00    -6000.00
03818               6.00    -5800.00
03819               4.00    -5600.00
03820               4.00    -5400.00
03821               6.00    -5200.00
03822               6.00    -5200.00
03823               6.00    -5000.00
03824               6.00    -4800.00
03825               0.00    -4600.00
03826               0.00    -4400.00
03827               2.00    -4400.00
03828               4.00    -4200.00
03829               4.00    -4000.00
03830               4.00    -3600.00
03831               0.00    -3600.00
03832              -2.00    -3400.00
03833              -2.00    -3200.00
03834               0.00    -3200.00
03835              -2.00    -2800.00
03836               4.00    -2600.00
03837              -2.00    -2600.00
03838              -2.00    -2400.00
03839              -4.00    -2000.00
03840              -4.00    -2000.00
03841              -4.00    -1600.00
03842              -2.00    -1600.00
03843              -2.00    -1200.00
03844              -4.00    -1200.00
03845              -8.00    -1000.00
03846              -8.00    -1000.00
03847              -8.00     -600.00
03848              -6.00     -400.00
03849              -4.00     -200.00
03850              -2.00        0.00
03851              -2.00      200.00
03852              12.00      400.00
03853              22.00      600.00
03854              -4.00      800.00
03855             -20.00     1000.00
03856              -4.00     1200.00
03857               8.00     1200.00
03858               8.00     1600.00
03859             118.00     1600.00
03860             252.00     2000.00
03861             -98.00     2200.00
03862            -248.00     2400.00
03863            -186.00     2600.00
03864              56.00     2400.00
03865             228.00     3000.00
03866             252.00     3000.00
03867            -248.00     3000.00
03868            -248.00     3600.00
03869             252.00     3200.00
03870             172.00     3800.00
03871            -248.00     4000.00
03872             252.00     3800.00
03873             150.00     4600.00
03874            -248.00     4400.00
03875             252.00     4400.00
03876            -138.00     5400.00
03877            -114.00     4800.00
03878             248.00     4800.00
03879            -186.00     5600.00
03880             -58.00     5200.00
03881              90.00     5600.00
03882             -76.00     6400.00
03883              -4.00     5600.00
03884              18.00     6200.00
03885              12.00     6400.00
03886            -154.00     6000.00
03887              20.00     6800.00
03888             140.00     6800.00
03889            -212.00     7000.00
03890              28.00     7200.00
03891              84.00     7200.00
03892            -176.00     7600.00
03893              52.00     7400.00
03894               6.00     8000.00
03895             -66.00     7800.00
03896              16.00     7800.00
03897             -50.00     8600.00
03898             -44.00     8000.00
03899             -18.00     8400.00
03900              24.00     8600.00
03901             -58.00     8600.00
03902             -60.00     8800.00
03903              34.00     9000.00
03904             -80.00     9000.00
03905             -18.00     9200.00
03906              26.00     9200.00
03907             -84.00     9400.00
03908             -18.00     9400.00
03909              10.00     9800.00
03910             -56.00     9600.00
03911             -42.00    10000.00
03912              -4.00    10000.00
03913             -24.00    10000.00
03914             -42.00    10000.00
03915             -12.00    10200.00
03916             -36.00    10400.00
03917             -36.00    10400.00
03918              -2.00    10400.00
03919             -44.00    10400.00
03920             -40.00    10800.00
03921              -4.00    10800.00
03922             -36.00    10800.00
03923             -34.00    11000.00
03924             -16.00    11000.00
03925             -42.00    11000.00
03926             -36.00    11000.00
03927              -8.00    11200.00
03928             -28.00    11200.00
03929             -44.00    11200.00
03930             -24.00    11200.00
03931             -32.00    11400.00
03932             -40.00    11400.00
03933             -18.00    11400.00
03934             -26.00    11600.00
03935             -36.00    11600.00
03936             -26.00    11600.00
03937             -32.00    11600.00
03938             -36.00    11600.00
03939             -26.00    11600.00
03940             -28.00    11600.00
03941             -34.00    11600.00
03942             -26.00    11800.00
03943             -34.00    11600.00
03944             -42.00    11800.00
03945             -26.00    11600.00
03946             -24.00    11600.00
03947             -34.00    11600.00
03948             -26.00    11600.00
03949             -28.00    11600.00
03950             -36.00    11600.00
03951             -28.00    11600.00
03952             -28.00    11400.00
03953             -34.00    11600.00
03954             -28.00    11600.00
03955             -26.00    11400.00
03956             -34.00    11400.00
03957             -32.00    11400.00
03958             -32.00    11400.00
03959             -28.00    11200.00
03960             -26.00    11200.00
03961             -26.00    11200.00
03962             -34.00    11200.00
03963             -30.00    11000.00
03964             -28.00    11000.00
03965             -32.00    11000.00
03966             -26.00    10800.00
03967             -26.00    10800.00
03968             -30.00    10800.00
03969             -26.00    10800.00
03970             -26.00    10800.00
03971             -28.00    10400.00
03972             -28.00    10400.00
03973             -20.00    10200.00
03974             -26.00    10200.00
03975             -28.00    10200.00
03976             -26.00    10000.00
03977             -26.00    10200.00
03978             -26.00    10000.00
03979             -26.00     9800.00
03980             -20.00     9800.00
03981             -20.00     9600.00
03982             -24.00     9400.00
03983             -26.00     9600.00
03984             -20.00     9200.00
03985             -20.00     9200.00
03986             -24.00     9200.00
03987             -20.00     8800.00
03988             -20.00     8800.00
03989             -20.00     8600.00
03990             -24.00     8600.00
03991             -22.00     8400.00
03992             -22.00     8400.00
03993             -20.00     8200.00
03994             -16.00     8000.00
03995             -20.00     8000.00
03996             -20.00     7800.00
03997             -20.00     7600.00
03998             -20.00     7600.00
03999             -18.00     7200.00
04000             -16.00     7000.00
04001             -18.00     7000.00
04002             -16.00     7000.00
04003             -18.00     6800.00
04004             -18.00     6400.00
04005             -18.00     6400.00
04006             -16.00     6400.00
04007             -18.00     6000.00
04008             -14.00     6000.00
04009             -16.00     5600.00
04010             -18.00     5600.00
04011             -16.00     5400.00
04012             -12.00     5200.00
04013             -12.00     5200.00
04014             -12.00     4800.00
04015             -12.00     4600.00
04016             -10.00     4600.00
04017             -16.00     4400.00
04018             -10.00     4200.00
04019             -10.00     4000.00
04020             -10.00     3800.00
04021              -8.00     3600.00
04022             -10.00     3600.00
04023             -10.00     3200.00
04024             -10.00     3000.00
04025             -10.00     3000.00
04026              -8.00     2800.00
04027              -4.00     2400.00
04028              -4.00     2400.00
04029              -6.00     2200.00
04030              -8.00     2000.00
04031              -4.00     1800.00
04032              -8.00     1600.00
04033              -4.00     1400.00
04034              -2.00     1200.00
04035              -2.00     1000.00
04036              -2.00      800.00
04037              -4.00      600.00
04038              -2.00      400.00
04039               2.00      400.00
04040              -2.00        0.00
04041               4.00     -200.00
04042               4.00     -400.00
04043              12.00     -400.00
04044              28.00     -600.00
04045              12.00     -800.00
04046             -12.00    -1200.00
04047               0.00    -1000.00
04048              18.00    -1200.00
04049              14.00    -1600.00
04050              30.00    -1600.00
04051             166.00    -1800.00
04052             252.00    -2400.00
04053            -146.00    -2800.00
04054            -248.00    -2800.00
04055             -92.00    -3200.00
04056             118.00    -3000.00
04057              44.00    -2800.00
04058             252.00    -3200.00
04059             -26.00    -3800.00
04060            -248.00    -3000.00
04061             252.00    -4000.00
04062             252.00    -4200.00
04063            -248.00    -3600.00
04064              28.00    -4800.00
04065             214.00    -4400.00
04066             -96.00    -4200.00
04067              72.00    -5200.00
04068             -52.00    -5000.00
04069             -74.00    -5200.00
04070             140.00    -5600.00
04071              40.00    -5200.00
04072             -56.00    -5800.00
04073             -24.00    -5800.00
04074              54.00    -6000.00
04075              68.00    -6400.00
04076               0.00    -6400.00
04077               6.00    -6600.00
04078             -42.00    -6600.00
04079              44.00    -7000.00
04080             108.00    -7200.00
04081             -56.00    -7200.00
04082             -24.00    -7600.00
04083              60.00    -7600.00
04084              24.00    -7400.00
04085              14.00    -8000.00
04086               4.00    -8000.00
04087              28.00    -8200.00
04088              28.00    -8400.00
04089              12.00    -8400.00
04090              12.00    -8600.00
04091               4.00    -8600.00
04092              46.00    -9000.00
04093              38.00    -8800.00
04094              -4.00    -9200.00
04095              12.00    -9200.00
04096              22.00    -9200.00
04097              30.00    -9400.00
04098              34.00    -9600.00
04099              16.00    -9600.00
04100              12.00    -9800.00
04101              32.00    -9800.00
04102              28.00   -10000.00
04103               8.00   -10000.00
04104              20.00   -10000.00
04105              38.00   -10200.00
04106              22.00   -10400.00
04107              20.00   -10600.00
04108              24.00   -10400.00
04109              20.00   -10800.00
04110              24.00   -10600.00
04111              32.00   -10800.00
04112              22.00   -10800.00
04113              24.00   -10800.00
04114              30.00   -10800.00
04115              20.00   -11200.00
04116              20.00   -11200.00
04117              24.00   -11200.00
04118              24.00   -11200.00
04119              30.00   -11400.00
04120              32.00   -11400.00
04121              20.00   -11400.00
04122              16.00   -11600.00
04123              28.00   -11400.00
04124              24.00   -11600.00
04125              24.00   -11600.00
04126              30.00   -11600.00
04127              24.00   -11600.00
04128              16.00   -11600.00
04129              24.00   -11600.00
04130              28.00   -11600.00
04131              28.00   -11600.00
04132              32.00   -11600.00
04133              28.00   -11600.00
04134              22.00   -11600.00
04135              22.00   -11600.00
04136              26.00   -11800.00
04137              24.00   -11800.00
04138              28.00   -12000.00
04139              28.00   -11600.00
04140              22.00   -11800.00
04141              24.00   -11600.00
04142              20.00   -11800.00
04143              20.00   -11600.00
04144              28.00   -11800.00
04145              28.00   -11600.00
04146              24.00   -11600.00
04147              24.00   -11600.00
04148              22.00   -11600.00
04149              20.00   -11600.00
04150              22.00   -11400.00
04151              28.00   -11600.00
04152              24.00   -11400.00
04153              22.00   -11400.00
04154              20.00   -11200.00
04155              20.00   -11200.00
04156              20.00   -11200.00
04157              22.00   -11200.00
04158              24.00   -11200.00
04159              28.00   -11000.00
04160              22.00   -11000.00
04161              16.00   -10800.00
04162              18.00   -10800.00
04163              20.00   -10800.00
04164              20.00   -10600.00
04165              24.00   -10600.00
04166              22.00   -10400.00
04167              20.00   -10400.00
04168              16.00   -10400.00
04169              18.00   -10200.00
04170              16.00   -10000.00
04171              20.00   -10000.00
04172              22.00   -10000.00
04173              16.00    -9800.00
04174              16.00    -9600.00
04175              16.00    -9600.00
04176              14.00    -9600.00
04177              16.00    -9200.00
04178              20.00    -9200.00
04179              20.00    -9000.00
04180              16.00    -9000.00
04181              14.00    -8800.00
04182              12.00    -8800.00
04183              14.00    -8600.00
04184              14.00    -8400.00
04185              16.00    -8200.00
04186              20.00    -8000.00
04187              14.00    -8000.00
04188              12.00    -8000.00
04189              12.00    -7600.00
04190              12.00    -7600.00
04191              14.00    -7200.00
04192              14.00    -7200.00
04193              10.00    -7000.00
04194              12.00    -6800.00
04195              10.00    -6800.00
04196               8.00    -6800.00
04197               8.00    -6600.00
04198              12.00    -6400.00
04199              10.00    -6000.00
04200               8.00    -6000.00
04201               6.00    -5800.00
04202               4.00    -5600.00
04203               4.00    -5400.00
04204               6.00    -5400.00
04205               6.00    -5200.00
04206               6.00    -5000.00
04207               4.00    -4800.00
04208               2.00    -4600.00
04209               2.00    -4400.00
04210               4.00    -4400.00
04211               4.00    -4200.00
04212               4.00    -4000.00
04213               4.00    -3800.00
04214               0.00    -3600.00
04215              -2.00    -3600.00
04216              -2.00    -3200.00
04217               0.00    -3200.00
04218              -2.00    -2800.00
04219               0.00    -2600.00
04220              -2.00    -2400.00
04221              -2.00    -2400.00
04222              -4.00    -2000.00
04223              -6.00    -1800.00
04224              -4.00    -1600.00
04225              -2.00    -1600.00
04226              -4.00    -1200.00
04227              -4.00    -1000.00
04228              -6.00    -1000.00
04229              -8.00     -800.00
04230              -6.00     -600.00
04231              -6.00     -400.00
04232              -2.00     -200.00
04233              -2.00      200.00
04234              -4.00      200.00
04235              18.00      600.00
04236              14.00      400.00
04237             -16.00     1000.00
04238             -18.00      800.00
04239               4.00     1200.00
04240               6.00     1400.00
04241              24.00     1400.00
04242             198.00     2000.00
04243             232.00     2000.00
04244            -248.00     2200.00
04245            -248.00     2400.00
04246             -42.00     2400.00
04247              56.00     2400.00
04248             252.00     3000.00
04249             252.00     3000.00
04250            -248.00     3200.00
04251            -108.00     3600.00
04252             252.00     3400.00
04253            -248.00     4000.00
04254            -248.00     3800.00
04255             252.00     3800.00
04256            -210.00     4800.00
04257            -140.00     4200.00
04258             236.00     4600.00
04259            -248.00     5400.00
04260              92.00     4600.00
04261             140.00     5400.00
04262            -232.00     5600.00
04263              54.00     5200.00
04264              24.00     6000.00
04265             -68.00     6200.00
04266              14.00     5600.00
04267              28.00     6400.00
04268             -40.00     6400.00
04269            -158.00     6400.00
04270             128.00     7000.00
04271              20.00     6800.00
04272            -202.00     7200.00
04273             132.00     7200.00
04274             -36.00     7600.00
04275            -128.00     7400.00
04276              88.00     7200.00
04277             -56.00     8200.00
04278             -26.00     7600.00
04279              -2.00     8000.00
04280             -58.00     8400.00
04281             -34.00     8000.00
04282               2.00     8600.00
04283              14.00     8600.00
04284             -88.00     8600.00
04285             -12.00     8800.00
04286               6.00     8800.00
04287             -90.00     9200.00
04288              26.00     9200.00
04289             -18.00     9400.00
04290             -84.00     9200.00
04291              12.00     9600.00
04292             -12.00     9600.00
04293             -62.00     9600.00
04294             -28.00    10000.00
04295              -4.00    10000.00
04296             -40.00    10000.00
04297             -32.00    10200.00
04298             -12.00    10200.00
04299             -48.00    10200.00
04300             -20.00    10400.00
04301             -10.00    10400.00
04302             -56.00    10600.00
04303             -20.00    10400.00
04304             -10.00    10800.00
04305             -44.00    10800.00
04306             -26.00    10800.00
04307             -18.00    11000.00
04308             -48.00    11000.00
04309             -26.00    11000.00
04310              -4.00    11200.00
04311             -42.00    11200.00
04312             -38.00    11200.00
04313             -20.00    11200.00
04314             -36.00    11200.00
04315             -32.00    11200.00
04316             -16.00    11400.00
04317             -34.00    11400.00
04318             -32.00    11600.00
04319             -24.00    11600.00
04320             -34.00    11600.00
04321             -34.00    11600.00
04322             -20.00    11400.00
04323             -28.00    11600.00
04324             -28.00    11600.00
04325             -22.00    11800.00
04326             -36.00    11600.00
04327             -36.00    11600.00
04328             -20.00    11600.00
04329             -32.00    11600.00
04330             -32.00    11600.00
04331             -24.00    11600.00
04332             -34.00    11600.00
04333             -34.00    11600.00
04334             -26.00    11600.00
04335             -30.00    11600.00
04336             -32.00    11600.00
04337             -26.00    11400.00
04338             -28.00    11600.00
04339             -34.00    11400.00
04340             -32.00    11200.00
04341             -32.00    11400.00
04342             -28.00    11200.00
04343             -22.00    11200.00
04344             -28.00    11200.00
04345             -32.00    11200.00
04346             -28.00    11200.00
04347             -30.00    11000.00
04348             -28.00    10800.00
04349             -24.00    10800.00
04350             -24.00    10800.00
04351             -32.00    10800.00
04352             -26.00    10600.00
04353             -28.00    10600.00
04354             -30.00    10400.00
04355             -26.00    10400.00
04356             -24.00    10400.00
04357             -26.00    10200.00
04358             -26.00    10200.00
04359             -26.00    10200.00
04360             -28.00    10000.00
04361             -26.00    10000.00
04362             -22.00     9800.00
04363             -24.00     9600.00
04364             -22.00     9600.00
04365             -26.00     9600.00
04366             -26.00     9400.00
04367             -24.00     9200.00
04368             -24.00     9200.00
04369             -20.00     9000.00
04370             -20.00     8800.00
04371             -20.00     8800.00
04372             -20.00     8800.00
04373             -26.00     8400.00
04374             -20.00     8400.00
04375             -20.00     8200.00
04376             -20.00     8200.00
04377             -18.00     8000.00
04378             -18.00     7800.00
04379             -20.00     7800.00
04380             -20.00     7600.00
04381             -18.00     7400.00
04382             -18.00     7200.00
04383             -16.00     7200.00
04384             -18.00     7000.00
04385             -16.00     7000.00
04386             -18.00     6400.00
04387             -18.00     6600.00
04388             -18.00     6200.00
04389             -14.00     6000.00
04390             -12.00     6000.00
04391             -16.00     6000.00
04392             -16.00     5600.00
04393             -12.00     5600.00
04394             -14.00     5200.00
04395             -12.00     5200.00
04396             -12.00     5000.00
04397             -12.00     4800.00
04398             -12.00     4600.00
04399             -16.00     4400.00
04400             -12.00     4200.00
04401             -12.00     4000.00
04402             -10.00     3800.00
04403             -10.00     3600.00
04404             -10.00     3600.00
04405             -10.00     3600.00
04406             -10.00     3200.00
04407             -10.00     3000.00
04408              -8.00     2800.00
04409              -8.00     2800.00
04410              -4.00     2400.00
04411              -4.00     2400.00
04412              -8.00     2000.00
04413             -10.00     2000.00
04414              -4.00     1800.00
04415              -6.00     1400.00
04416              -4.00     1400.00
04417              -2.00     1200.00
04418              -4.00     1000.00
04419              -4.00      800.00
04420              -4.00      600.00
04421              -4.00      400.00
04422              -2.00        0.00
04423               0.00        0.00
04424               4.00     -200.00
04425               4.00     -200.00
04426              18.00     -600.00
04427              26.00     -600.00
04428               0.00     -800.00
04429             -10.00    -1200.00
04430               8.00    -1200.00
04431              16.00    -1200.00
04432              14.00    -1600.00
04433              60.00    -1600.00
04434             230.00    -2000.00
04435             168.00    -2400.00
04436            -248.00    -2600.00
04437            -248.00    -2800.00
04438              44.00    -3000.00
04439              66.00    -2800.00
04440             134.00    -2800.00
04441             252.00    -3600.00
04442            -248.00    -3600.00
04443            -248.00    -3200.00
04444             252.00    -4600.00
04445              60.00    -4000.00
04446            -248.00    -4000.00
04447             208.00    -5000.00
04448              84.00    -4200.00
04449             -66.00    -4800.00
04450              80.00    -5400.00
04451            -112.00    -4800.00
04452              20.00    -5200.00
04453             136.00    -5600.00
04454             -16.00    -5400.00
04455             -44.00    -5800.00
04456               0.00    -6000.00
04457              72.00    -6000.00
04458              38.00    -6400.00
04459               6.00    -6400.00
04460              -4.00    -6600.00
04461             -36.00    -6600.00
04462              92.00    -7200.00
04463              60.00    -7200.00
04464             -76.00    -7200.00
04465              22.00    -7600.00
04466              52.00    -7600.00
04467              20.00    -7600.00
04468              12.00    -8000.00
04469               8.00    -7800.00
04470              38.00    -8200.00
04471              16.00    -8400.00
04472              14.00    -8400.00
04473               6.00    -8800.00
04474              16.00    -8600.00
04475              54.00    -8800.00
04476              20.00    -9000.00
04477              -4.00    -9200.00
04478              16.00    -9200.00
04479              20.00    -9200.00
04480              34.00    -9600.00
04481              30.00    -9600.00
04482              12.00    -9800.00
04483              16.00    -9800.00
04484              32.00   -10000.00
04485              22.00   -10000.00
04486               6.00   -10000.00
04487              28.00   -10200.00
04488              36.00   -10000.00
04489              20.00   -10400.00
04490              24.00   -10400.00
04491              20.00   -10600.00
04492              18.00   -10600.00
04493              30.00   -10600.00
04494              28.00   -10800.00
04495              22.00   -10800.00
04496              28.00   -10800.00
04497              22.00   -11200.00
04498              14.00   -11200.00
04499              24.00   -11200.00
04500              28.00   -11200.00
04501              26.00   -11400.00
04502              32.00   -11400.00
04503              24.00   -11400.00
04504              16.00   -11600.00
04505              28.00   -11400.00
04506              30.00   -11400.00
04507              22.00   -11600.00
04508              28.00   -11600.00
04509              30.00   -11600.00
04510              22.00   -11600.00
04511              22.00   -11600.00
04512              28.00   -11600.00
04513              24.00   -11600.00
04514              28.00   -11800.00
04515              32.00   -11600.00
04516              26.00   -11800.00
04517              24.00   -11600.00
04518              22.00   -11800.00
04519              22.00   -11600.00
04520              28.00   -11600.00
04521              30.00   -12000.00
04522              28.00   -11600.00
04523              24.00   -11600.00
04524              24.00   -11600.00
04525              22.00   -11600.00
04526              24.00   -11800.00
04527              28.00   -11600.00
04528              28.00   -11600.00
04529              24.00   -11800.00
04530              24.00   -11600.00
04531              20.00   -11600.00
04532              20.00   -11600.00
04533              24.00   -11400.00
04534              24.00   -11400.00
04535              24.00   -11400.00
04536              24.00   -11400.00
04537              16.00   -11200.00
04538              20.00   -11200.00
04539              22.00   -11200.00
04540              22.00   -11000.00
04541              22.00   -11000.00
04542              24.00   -10800.00
04543              20.00   -10800.00
04544              18.00   -10800.00
04545              16.00   -10800.00
04546              20.00   -10600.00
04547              20.00   -10600.00
04548              22.00   -10600.00
04549              22.00   -10400.00
04550              16.00   -10400.00
04551              18.00   -10200.00
04552              18.00   -10000.00
04553              16.00   -10000.00
04554              20.00   -10000.00
04555              22.00    -9800.00
04556              16.00    -9800.00
04557              16.00    -9600.00
04558              14.00    -9600.00
04559              16.00    -9400.00
04560              20.00    -9200.00
04561              20.00    -9200.00
04562              16.00    -9000.00
04563              14.00    -9000.00
04564              14.00    -8800.00
04565              12.00    -8800.00
04566              14.00    -8400.00
04567              16.00    -8400.00
04568              14.00    -8200.00
04569              14.00    -8000.00
04570              14.00    -8000.00
04571              12.00    -7800.00
04572              12.00    -7600.00
04573              12.00    -7600.00
04574              12.00    -7200.00
04575              14.00    -7200.00
04576              12.00    -7200.00
04577              12.00    -6800.00
04578               6.00    -6800.00
04579               6.00    -6600.00
04580              10.00    -6400.00
04581              12.00    -6400.00
04582              12.00    -6200.00
04583               6.00    -6000.00
04584               6.00    -5800.00
04585               6.00    -5400.00
04586               6.00    -5400.00
04587               6.00    -5200.00
04588               8.00    -5200.00
04589               6.00    -5000.00
04590               6.00    -4600.00
04591               4.00    -4600.00
04592               0.00    -4200.00
04593               4.00    -4200.00
04594               4.00    -4000.00
04595               4.00    -3800.00
04596               0.00    -3600.00
04597              -2.00    -3400.00
04598               0.00    -3200.00
04599              -2.00    -3200.00
04600               0.00    -2800.00
04601               0.00    -2600.00
04602               0.00    -2600.00
04603               0.00    -2400.00
04604              -4.00    -2200.00
04605              -4.00    -2000.00
04606              -4.00    -1800.00
04607              -2.00    -1600.00
04608              -2.00    -1400.00
04609              -2.00    -1200.00
04610              -4.00    -1000.00
04611              -8.00    -1000.00
04612              -8.00     -800.00
04613              -4.00     -400.00
04614              -6.00     -200.00
04615              -4.00        0.00
04616              -4.00        0.00
04617               2.00      400.00
04618              22.00      400.00
04619               4.00      600.00
04620             -20.00     1000.00
04621             -10.00     1000.00
04622               8.00     1200.00
04623               4.00     1400.00
04624              60.00     1600.00
04625             252.00     2000.00
04626              86.00     2200.00
04627            -248.00     2200.00
04628            -248.00     2400.00
04629              38.00     2400.00
04630             100.00     2800.00
04631             252.00     3000.00
04632             -20.00     3000.00
04633            -248.00     3200.00
04634             252.00     3400.00
04635             252.00     3600.00
04636            -248.00     4200.00
04637              68.00     3600.00
04638             252.00     4000.00
04639            -248.00     4800.00
04640             112.00     4000.00
04641              76.00     5200.00
04642            -248.00     5200.00
04643             230.00     4600.00
04644             -36.00     5600.00
04645            -166.00     5400.00
04646             108.00     5200.00
04647             -42.00     6400.00
04648             -36.00     5800.00
04649              18.00     5800.00
04650              28.00     6800.00
04651            -102.00     6200.00
04652             -90.00     6600.00
04653             180.00     6800.00
04654            -122.00     6800.00
04655            -100.00     7200.00
04656             152.00     7400.00
04657            -140.00     7600.00
04658             -32.00     7200.00
04659              62.00     7600.00
04660             -80.00     8000.00
04661               6.00     7600.00
04662             -28.00     8400.00
04663             -50.00     8200.00
04664             -26.00     8000.00
04665              14.00     8800.00
04666             -18.00     8400.00
04667             -84.00     8800.00
04668              24.00     8800.00
04669             -40.00     9000.00
04670             -60.00     9000.00
04671              42.00     9400.00
04672             -60.00     9400.00
04673             -52.00     9400.00
04674              22.00     9600.00
04675             -40.00     9600.00
04676             -52.00     9600.00
04677             -12.00    10000.00
04678             -12.00    10000.00
04679             -44.00    10000.00
04680             -20.00    10200.00
04681             -26.00    10200.00
04682             -44.00    10400.00
04683              -4.00    10400.00
04684             -32.00    10400.00
04685             -50.00    10400.00
04686             -10.00    10800.00
04687             -28.00    10800.00
04688             -40.00    10800.00
04689             -18.00    11000.00
04690             -34.00    11000.00
04691             -48.00    11000.00
04692             -12.00    11200.00
04693             -16.00    11200.00
04694             -44.00    11200.00
04695             -30.00    11200.00
04696             -24.00    11200.00
04697             -42.00    11200.00
04698             -24.00    11400.00
04699             -20.00    11600.00
04700             -34.00    11600.00
04701             -28.00    11600.00
04702             -26.00    11600.00
04703             -38.00    11600.00
04704             -28.00    11600.00
04705             -24.00    11600.00
04706             -32.00    11600.00
04707             -26.00    11600.00
04708             -26.00    11600.00
04709             -40.00    11600.00
04710             -28.00    11600.00
04711             -20.00    11800.00
04712             -34.00    11600.00
04713             -28.00    11600.00
04714             -24.00    11800.00
04715             -34.00    11600.00
04716             -32.00    11600.00
04717             -24.00    11600.00
04718             -32.00    11400.00
04719             -30.00    11600.00
04720             -26.00    11600.00
04721             -28.00    11400.00
04722             -32.00    11400.00
04723             -28.00    11200.00
04724             -32.00    11200.00
04725             -26.00    11200.00
04726             -26.00    11200.00
04727             -28.00    11200.00
04728             -32.00    11200.00
04729             -26.00    11000.00
04730             -30.00    11000.00
04731             -28.00    11000.00
04732             -24.00    10800.00
04733             -28.00    10800.00
04734             -32.00    10800.00
04735             -26.00    10800.00
04736             -28.00    10600.00
04737             -34.00    10400.00
04738             -26.00    10400.00
04739             -24.00    10200.00
04740             -28.00    10200.00
04741             -26.00    10200.00
04742             -26.00    10000.00
04743             -28.00    10000.00
04744             -26.00     9800.00
04745             -24.00     9800.00
04746             -26.00     9600.00
04747             -24.00     9400.00
04748             -26.00     9400.00
04749             -26.00     9200.00
04750             -24.00     9200.00
04751             -24.00     9200.00
04752             -24.00     9000.00
04753             -20.00     8800.00
04754             -24.00     8600.00
04755             -24.00     8600.00
04756             -22.00     8400.00
04757             -24.00     8400.00
04758             -20.00     8200.00
04759             -18.00     8000.00
04760             -20.00     8000.00
04761             -20.00     7600.00
04762             -20.00     7600.00
04763             -20.00     7600.00
04764             -18.00     7400.00
04765             -16.00     7000.00
04766             -18.00     7200.00
04767             -16.00     6800.00
04768             -16.00     6800.00
04769             -18.00     6600.00
04770             -20.00     6400.00
04771             -16.00     6200.00
04772             -12.00     6200.00
04773             -12.00     6000.00
04774             -16.00     5800.00
04775             -16.00     5600.00
04776             -16.00     5400.00
04777             -10.00     5200.00
04778             -12.00     5000.00
04779             -10.00     5000.00
04780             -10.00     4800.00
04781             -12.00     4600.00
04782             -12.00     4400.00
04783             -10.00     4400.00
04784             -10.00     4000.00
04785              -8.00     3800.00
04786              -4.00     3600.00
04787              -8.00     3600.00
04788             -10.00     3200.00
04789             -10.00     3200.00
04790             -10.00     3000.00
04791             -10.00     2800.00
04792              -4.00     2400.00
04793              -8.00     2400.00
04794              -8.00     2200.00
04795              -8.00     2000.00
04796              -4.00     1800.00
04797              -6.00     1600.00
04798              -4.00     1400.00
04799              -4.00     1200.00
04800              -2.00     1200.00
04801              -4.00      800.00
04802              -4.00      800.00
04803              -4.00      600.00
04804              -4.00      200.00
04805              -2.00        0.00
04806               2.00     -200.00
04807               4.00     -400.00
04808               6.00     -400.00
04809              22.00     -600.00
04810              20.00     -800.00
04811              -8.00    -1000.00
04812              -8.00    -1200.00
04813              14.00    -1200.00
04814              14.00    -1600.00
04815              20.00    -1600.00
04816             106.00    -1800.00
04817             252.00    -2400.00
04818              22.00    -2600.00
04819            -248.00    -2600.00
04820            -234.00    -2800.00
04821             112.00    -3000.00
04822              16.00    -2800.00
04823             252.00    -3000.00
04824             236.00    -3800.00
04825            -248.00    -3200.00
04826              20.00    -3600.00
04827             252.00    -4400.00
04828            -248.00    -3400.00
04829            -178.00    -4400.00
04830             252.00    -5000.00
04831             -50.00    -4000.00
04832               6.00    -5000.00
04833              30.00    -5200.00
04834            -114.00    -4800.00
04835              96.00    -5600.00
04836              92.00    -5400.00
04837             -44.00    -5400.00
04838             -32.00    -6000.00
04839              28.00    -6000.00
04840              76.00    -6200.00
04841              16.00    -6400.00
04842              10.00    -6600.00
04843             -26.00    -6600.00
04844              -4.00    -6800.00
04845             118.00    -7200.00
04846              -4.00    -7200.00
04847             -58.00    -7400.00
04848              56.00    -7600.00
04849              36.00    -7600.00
04850              16.00    -8000.00
04851               8.00    -8000.00
04852              24.00    -7800.00
04853              36.00    -8400.00
04854              12.00    -8400.00
04855              16.00    -8600.00
04856               4.00    -8600.00
04857              32.00    -8800.00
04858              48.00    -8800.00
04859               4.00    -9000.00
04860               6.00    -9200.00
04861              20.00    -9200.00
04862              24.00    -9200.00
04863              38.00    -9600.00
04864              22.00    -9600.00
04865              12.00    -9800.00
04866              24.00    -9800.00
04867              36.00    -9800.00
04868              14.00   -10000.00
04869              12.00   -10000.00
04870              36.00   -10200.00
04871              28.00   -10400.00
04872              18.00   -10400.00
04873              20.00   -10600.00
04874              20.00   -10600.00
04875              22.00   -10800.00
04876              28.00   -10800.00
04877              24.00   -10800.00
04878              22.00   -10800.00
04879              28.00   -11200.00
04880              22.00   -11200.00
04881              18.00   -11200.00
04882              28.00   -11200.00
04883              24.00   -11200.00
04884              28.00   -11400.00
04885              34.00   -11400.00
04886              24.00   -11400.00
04887              16.00   -11600.00
04888              24.00   -11600.00
04889              28.00   -11600.00
04890              22.00   -11600.00
04891              34.00   -11600.00
04892              28.00   -11600.00
04893              18.00   -11600.00
04894              24.00   -11600.00
04895              24.00   -11600.00
04896              24.00   -11600.00
04897              30.00   -11600.00
04898              30.00   -11600.00
04899              22.00   -11800.00
04900              22.00   -11600.00
04901              24.00   -12000.00
04902              24.00   -11800.00
04903              30.00   -11800.00
04904              30.00   -11600.00
04905              24.00   -11800.00
04906              22.00   -11800.00
04907              24.00   -11800.00
04908              20.00   -11800.00
04909              24.00   -11600.00
04910              28.00   -11600.00
04911              26.00   -11600.00
04912              24.00   -11600.00
04913              22.00   -11600.00
04914              20.00   -11600.00
04915              22.00   -11600.00
04916              28.00   -11400.00
04917              26.00   -11400.00
04918              28.00   -11200.00
04919              22.00   -11200.00
04920              20.00   -11400.00
04921              20.00   -11200.00
04922              20.00   -11200.00
04923              22.00   -11000.00
04924              24.00   -11000.00
04925              24.00   -10800.00
04926              16.00   -10800.00
04927              14.00   -10800.00
04928              20.00   -10600.00
04929              20.00   -10600.00
04930              22.00   -10600.00
04931              22.00   -10600.00
04932              18.00   -10400.00
04933              16.00   -10400.00
04934              14.00   -10200.00
04935              14.00   -10000.00
04936              20.00   -10000.00
04937              20.00   -10000.00
04938              20.00    -9800.00
04939              16.00    -9800.00
04940              16.00    -9600.00
04941              12.00    -9600.00
04942              14.00    -9200.00
04943              18.00    -9200.00
04944              18.00    -9200.00
04945              14.00    -9000.00
04946              14.00    -9000.00
04947              12.00    -8800.00
04948              12.00    -8800.00
04949              12.00    -8400.00
04950              16.00    -8200.00
04951              16.00    -8200.00
04952              12.00    -8000.00
04953              10.00    -8000.00
04954              12.00    -7600.00
04955              12.00    -7600.00
04956              12.00    -7400.00
04957              14.00    -7200.00
04958              14.00    -7200.00
04959              10.00    -7200.00
04960               8.00    -6800.00
04961               6.00    -6800.00
04962               8.00    -6600.00
04963              12.00    -6400.00
04964               6.00    -6200.00
04965               8.00    -6000.00
04966               8.00    -5800.00
04967               4.00    -5600.00
04968               4.00    -5400.00
04969               8.00    -5200.00
04970               6.00    -5200.00
04971               8.00    -5000.00
04972               6.00    -4800.00
04973               4.00    -4600.00
04974               0.00    -4600.00
04975               0.00    -4400.00
04976               4.00    -4200.00
04977               6.00    -4000.00
04978               4.00    -3800.00
04979               4.00    -3600.00
04980              -2.00    -3400.00
04981              -2.00    -3200.00
04982               0.00    -3200.00
04983               0.00    -2800.00
04984               0.00    -2800.00
04985               0.00    -2600.00
04986              -4.00    -2400.00
04987              -4.00    -2000.00
04988              -4.00    -1800.00
04989              -4.00    -1800.00
04990              -2.00    -1600.00
04991              -2.00    -1200.00
04992              -4.00    -1200.00
04993              -8.00    -1000.00
04994              -4.00     -800.00
04995             -10.00     -800.00
04996              -4.00     -400.00
04997              -4.00     -400.00
04998              -4.00        0.00
04999              -4.00        0.00
05000               8.00      200.00
