Unit:(mV)
                     CH1         CH2
Frequency              ? 261.278 kHz
00001              26.00    -6000.00
00002              24.00    -6000.00
00003              22.00    -5800.00
00004              22.00    -5800.00
00005              22.00    -5400.00
00006              22.00    -5400.00
00007              18.00    -5200.00
00008              18.00    -5000.00
00009              18.00    -4600.00
00010              18.00    -4400.00
00011              16.00    -4400.00
00012              14.00    -4200.00
00013              14.00    -4000.00
00014              14.00    -3800.00
00015              14.00    -3600.00
00016              10.00    -3600.00
00017              10.00    -3400.00
00018               8.00    -3200.00
00019               8.00    -3000.00
00020               8.00    -2600.00
00021              10.00    -2800.00
00022               8.00    -2400.00
00023               8.00    -2200.00
00024               6.00    -2000.00
00025               2.00    -1800.00
00026               6.00    -1600.00
00027               2.00    -1400.00
00028               6.00    -1200.00
00029               2.00    -1200.00
00030               2.00    -1000.00
00031               0.00     -600.00
00032               0.00     -400.00
00033               0.00     -200.00
00034               0.00        0.00
00035               0.00     -200.00
00036               2.00      400.00
00037               2.00      400.00
00038              22.00      600.00
00039              18.00      800.00
00040              -6.00     1000.00
00041             -10.00     1200.00
00042               6.00     1400.00
00043               8.00     1400.00
00044              22.00     1800.00
00045             160.00     2000.00
00046             210.00     2400.00
00047            -228.00     2400.00
00048            -254.00     2600.00
00049             -40.00     2800.00
00050              32.00     2800.00
00051              94.00     3000.00
00052             246.00     3400.00
00053            -254.00     3000.00
00054             -40.00     3800.00
00055             246.00     3800.00
00056            -212.00     3400.00
00057               6.00     4600.00
00058             -42.00     4200.00
00059             -34.00     4200.00
00060             214.00     5200.00
00061            -254.00     4400.00
00062             -10.00     5000.00
00063             102.00     5600.00
00064            -128.00     5000.00
00065              50.00     5800.00
00066             -62.00     5800.00
00067              -2.00     5800.00
00068               6.00     6200.00
00069             -46.00     6200.00
00070             -38.00     6200.00
00071             -40.00     6800.00
00072               6.00     6800.00
00073             -48.00     7000.00
00074              22.00     7400.00
00075             -82.00     7400.00
00076             -40.00     7400.00
00077              22.00     7800.00
00078             -70.00     7600.00
00079              -6.00     7800.00
00080             -48.00     8200.00
00081             -40.00     8200.00
00082             -16.00     8200.00
00083             -46.00     8600.00
00084             -58.00     8600.00
00085             -14.00     9000.00
00086             -46.00     9000.00
00087             -48.00     9000.00
00088             -22.00     9200.00
00089             -62.00     9400.00
00090             -42.00     9200.00
00091             -42.00     9400.00
00092             -54.00     9600.00
00093             -48.00     9800.00
00094             -38.00     9800.00
00095             -62.00     9800.00
00096             -48.00    10200.00
00097             -62.00    10200.00
00098             -62.00    10200.00
00099             -38.00    10400.00
00100             -64.00    10400.00
00101             -68.00    10600.00
00102             -58.00    10600.00
00103             -70.00    10800.00
00104             -70.00    10800.00
00105             -64.00    10800.00
00106             -72.00    11000.00
00107             -64.00    11000.00
00108             -70.00    11000.00
00109             -78.00    11200.00
00110             -74.00    11200.00
00111             -82.00    11400.00
00112             -84.00    11400.00
00113             -78.00    11600.00
00114             -86.00    11400.00
00115             -90.00    11600.00
00116             -90.00    11600.00
00117             -96.00    11600.00
00118             -96.00    11600.00
00119             -94.00    11800.00
00120             -98.00    11600.00
00121             -98.00    11800.00
00122            -106.00    11800.00
00123            -112.00    12000.00
00124            -106.00    11800.00
00125            -108.00    11800.00
00126            -114.00    11800.00
00127            -116.00    11800.00
00128            -120.00    11800.00
00129            -126.00    11800.00
00130            -122.00    11800.00
00131            -126.00    12000.00
00132            -128.00    11800.00
00133            -134.00    11800.00
00134            -136.00    11800.00
00135            -138.00    11800.00
00136            -144.00    12000.00
00137            -144.00    11800.00
00138            -142.00    11800.00
00139            -142.00    11800.00
00140            -144.00    11800.00
00141            -144.00    11800.00
00142            -146.00    11800.00
00143            -148.00    11600.00
00144            -144.00    11600.00
00145            -144.00    11600.00
00146            -142.00    11600.00
00147            -138.00    11600.00
00148            -138.00    11400.00
00149            -136.00    11400.00
00150            -134.00    11400.00
00151            -128.00    11400.00
00152            -122.00    11200.00
00153            -120.00    11200.00
00154            -118.00    11000.00
00155            -116.00    11200.00
00156            -114.00    11000.00
00157            -112.00    10800.00
00158            -106.00    10800.00
00159            -100.00    10800.00
00160             -98.00    10600.00
00161             -94.00    10400.00
00162             -96.00    10600.00
00163             -92.00    10200.00
00164             -90.00    10200.00
00165             -86.00    10200.00
00166             -80.00    10000.00
00167             -74.00    10000.00
00168             -76.00     9800.00
00169             -74.00     9600.00
00170             -72.00     9800.00
00171             -70.00     9400.00
00172             -64.00     9400.00
00173             -64.00     9200.00
00174             -62.00     9200.00
00175             -62.00     9000.00
00176             -60.00     9000.00
00177             -58.00     8600.00
00178             -54.00     8600.00
00179             -54.00     8400.00
00180             -50.00     8400.00
00181             -50.00     8000.00
00182             -50.00     8000.00
00183             -48.00     7800.00
00184             -46.00     7600.00
00185             -44.00     7400.00
00186             -40.00     7400.00
00187             -40.00     7200.00
00188             -38.00     7000.00
00189             -38.00     7000.00
00190             -40.00     6800.00
00191             -38.00     6600.00
00192             -38.00     6600.00
00193             -32.00     6200.00
00194             -32.00     6200.00
00195             -32.00     6000.00
00196             -32.00     5800.00
00197             -30.00     5600.00
00198             -26.00     5400.00
00199             -26.00     5400.00
00200             -26.00     5200.00
00201             -24.00     5000.00
00202             -24.00     4800.00
00203             -26.00     4600.00
00204             -22.00     4200.00
00205             -20.00     4200.00
00206             -16.00     4000.00
00207             -16.00     3800.00
00208             -18.00     3800.00
00209             -22.00     3600.00
00210             -18.00     3400.00
00211             -16.00     3200.00
00212             -14.00     2800.00
00213             -14.00     2600.00
00214             -14.00     2600.00
00215             -14.00     2400.00
00216             -14.00     2200.00
00217             -10.00     2000.00
00218             -10.00     1800.00
00219              -8.00     1400.00
00220              -8.00     1400.00
00221              -8.00     1200.00
00222              -8.00     1000.00
00223             -10.00     1000.00
00224              -8.00      600.00
00225              -4.00      400.00
00226              -2.00      200.00
00227              -2.00      200.00
00228               0.00     -200.00
00229              14.00     -200.00
00230              22.00     -400.00
00231               0.00     -600.00
00232              -8.00    -1000.00
00233               6.00    -1000.00
00234              14.00    -1200.00
00235               6.00    -1400.00
00236              30.00    -1400.00
00237             150.00    -1800.00
00238             184.00    -2200.00
00239            -184.00    -2200.00
00240            -254.00    -2600.00
00241               0.00    -2600.00
00242             102.00    -2800.00
00243            -106.00    -2800.00
00244             146.00    -3000.00
00245             112.00    -3400.00
00246            -194.00    -3200.00
00247             154.00    -3600.00
00248              38.00    -4000.00
00249             -50.00    -3800.00
00250              40.00    -4200.00
00251             -48.00    -4400.00
00252             128.00    -4400.00
00253             -26.00    -4600.00
00254             -62.00    -5200.00
00255              54.00    -4800.00
00256             -14.00    -5400.00
00257              58.00    -5400.00
00258              -8.00    -5400.00
00259               6.00    -6000.00
00260              50.00    -5800.00
00261               6.00    -6000.00
00262              22.00    -6400.00
00263               8.00    -6400.00
00264              38.00    -6600.00
00265              10.00    -7000.00
00266              38.00    -6800.00
00267              22.00    -7200.00
00268             -10.00    -7400.00
00269              56.00    -7400.00
00270              18.00    -7600.00
00271              32.00    -7800.00
00272              38.00    -7800.00
00273              14.00    -8000.00
00274              46.00    -8200.00
00275              30.00    -8200.00
00276              16.00    -8400.00
00277              40.00    -8400.00
00278              50.00    -8600.00
00279              28.00    -8800.00
00280              42.00    -9000.00
00281              40.00    -9000.00
00282              32.00    -9200.00
00283              50.00    -9200.00
00284              42.00    -9400.00
00285              46.00    -9400.00
00286              48.00    -9400.00
00287              42.00    -9800.00
00288              50.00    -9800.00
00289              54.00    -9800.00
00290              48.00   -10000.00
00291              64.00   -10000.00
00292              64.00   -10200.00
00293              50.00   -10400.00
00294              58.00   -10200.00
00295              58.00   -10400.00
00296              62.00   -10600.00
00297              70.00   -10400.00
00298              70.00   -10800.00
00299              70.00   -10800.00
00300              72.00   -10800.00
00301              68.00   -11000.00
00302              70.00   -11000.00
00303              76.00   -11000.00
00304              78.00   -11000.00
00305              82.00   -11200.00
00306              86.00   -11400.00
00307              80.00   -11400.00
00308              82.00   -11400.00
00309              86.00   -11400.00
00310              90.00   -11600.00
00311              94.00   -11400.00
00312              96.00   -11600.00
00313              96.00   -11600.00
00314              98.00   -11600.00
00315             100.00   -11600.00
00316             104.00   -11800.00
00317             108.00   -11800.00
00318             110.00   -11600.00
00319             112.00   -11600.00
00320             118.00   -11600.00
00321             114.00   -11800.00
00322             118.00   -11800.00
00323             120.00   -11600.00
00324             126.00   -11600.00
00325             130.00   -11600.00
00326             128.00   -11600.00
00327             130.00   -11800.00
00328             134.00   -11600.00
00329             134.00   -11600.00
00330             138.00   -11600.00
00331             140.00   -11600.00
00332             142.00   -11600.00
00333             138.00   -11600.00
00334             142.00   -11400.00
00335             136.00   -11400.00
00336             136.00   -11400.00
00337             134.00   -11400.00
00338             136.00   -11400.00
00339             134.00   -11200.00
00340             128.00   -11000.00
00341             122.00   -11000.00
00342             126.00   -11000.00
00343             118.00   -11000.00
00344             120.00   -10800.00
00345             114.00   -10800.00
00346             114.00   -10800.00
00347             106.00   -10800.00
00348             104.00   -10400.00
00349              98.00   -10600.00
00350              98.00   -10400.00
00351              96.00   -10200.00
00352              94.00   -10200.00
00353              90.00   -10200.00
00354              86.00   -10200.00
00355              80.00   -10000.00
00356              80.00    -9800.00
00357              78.00    -9800.00
00358              74.00    -9800.00
00359              72.00    -9400.00
00360              66.00    -9400.00
00361              64.00    -9400.00
00362              62.00    -9200.00
00363              62.00    -9000.00
00364              58.00    -9000.00
00365              58.00    -8800.00
00366              54.00    -8800.00
00367              54.00    -8600.00
00368              48.00    -8600.00
00369              48.00    -8200.00
00370              46.00    -8200.00
00371              46.00    -8200.00
00372              40.00    -7800.00
00373              40.00    -7800.00
00374              38.00    -7600.00
00375              36.00    -7600.00
00376              34.00    -7400.00
00377              34.00    -7200.00
00378              32.00    -7200.00
00379              32.00    -6800.00
00380              30.00    -6800.00
00381              30.00    -6600.00
00382              26.00    -6400.00
00383              24.00    -6200.00
00384              24.00    -6000.00
00385              24.00    -6000.00
00386              24.00    -5800.00
00387              22.00    -5800.00
00388              18.00    -5400.00
00389              18.00    -5200.00
00390              18.00    -5200.00
00391              18.00    -5000.00
00392              18.00    -4600.00
00393              16.00    -4600.00
00394              16.00    -4400.00
00395              12.00    -4400.00
00396              12.00    -4000.00
00397              14.00    -3800.00
00398              10.00    -3600.00
00399              14.00    -3400.00
00400               8.00    -3200.00
00401               8.00    -3000.00
00402               8.00    -3000.00
00403               6.00    -2800.00
00404               8.00    -2600.00
00405               6.00    -2400.00
00406               6.00    -2200.00
00407               4.00    -2000.00
00408               2.00    -1800.00
00409               0.00    -1600.00
00410               6.00    -1400.00
00411               6.00    -1200.00
00412               2.00    -1000.00
00413               0.00    -1000.00
00414               0.00     -600.00
00415               0.00     -400.00
00416              -2.00     -200.00
00417               0.00     -200.00
00418               0.00      200.00
00419               0.00      200.00
00420               6.00      600.00
00421              22.00      600.00
00422              10.00      800.00
00423              -8.00     1000.00
00424              -8.00     1200.00
00425               6.00     1200.00
00426               6.00     1400.00
00427              38.00     1800.00
00428             212.00     2000.00
00429             132.00     2400.00
00430            -254.00     2600.00
00431            -254.00     2600.00
00432              34.00     2800.00
00433             -10.00     2600.00
00434             204.00     3400.00
00435             150.00     3400.00
00436            -254.00     3000.00
00437             168.00     4000.00
00438             194.00     3800.00
00439            -238.00     3800.00
00440              70.00     4600.00
00441            -120.00     4000.00
00442              88.00     4600.00
00443             118.00     5000.00
00444            -254.00     4400.00
00445             108.00     5400.00
00446              10.00     5200.00
00447             -94.00     5000.00
00448              48.00     6000.00
00449             -80.00     5800.00
00450              26.00     5800.00
00451             -22.00     6600.00
00452             -32.00     6200.00
00453             -48.00     6600.00
00454             -18.00     6800.00
00455             -16.00     6800.00
00456             -34.00     7000.00
00457              14.00     7400.00
00458            -106.00     7200.00
00459               2.00     7400.00
00460             -10.00     7800.00
00461             -58.00     7600.00
00462              -2.00     7800.00
00463             -60.00     8200.00
00464             -28.00     8200.00
00465             -26.00     8600.00
00466             -56.00     8600.00
00467             -48.00     8600.00
00468             -10.00     9000.00
00469             -58.00     9000.00
00470             -32.00     9000.00
00471             -34.00     9400.00
00472             -64.00     9200.00
00473             -36.00     9400.00
00474             -48.00     9400.00
00475             -50.00     9800.00
00476             -42.00     9800.00
00477             -46.00    10000.00
00478             -64.00     9800.00
00479             -48.00    10200.00
00480             -66.00    10200.00
00481             -54.00    10200.00
00482             -42.00    10400.00
00483             -66.00    10400.00
00484             -62.00    10600.00
00485             -62.00    10600.00
00486             -74.00    10600.00
00487             -66.00    10800.00
00488             -62.00    10800.00
00489             -72.00    11000.00
00490             -66.00    11000.00
00491             -74.00    11000.00
00492             -80.00    11200.00
00493             -78.00    11400.00
00494             -86.00    11400.00
00495             -78.00    11400.00
00496             -78.00    11600.00
00497             -88.00    11600.00
00498             -94.00    11600.00
00499             -90.00    11600.00
00500             -96.00    11600.00
00501             -94.00    11800.00
00502             -94.00    11800.00
00503             -98.00    11800.00
00504            -102.00    11800.00
00505            -106.00    11800.00
00506            -110.00    11800.00
00507            -112.00    11800.00
00508            -112.00    11800.00
00509            -110.00    11800.00
00510            -112.00    11800.00
00511            -120.00    12000.00
00512            -128.00    12000.00
00513            -128.00    11800.00
00514            -126.00    12000.00
00515            -128.00    11800.00
00516            -132.00    11800.00
00517            -138.00    12000.00
00518            -140.00    11800.00
00519            -144.00    11800.00
00520            -144.00    11800.00
00521            -142.00    11800.00
00522            -138.00    11800.00
00523            -142.00    11800.00
00524            -146.00    11800.00
00525            -152.00    11600.00
00526            -154.00    11800.00
00527            -146.00    11600.00
00528            -142.00    11600.00
00529            -138.00    11600.00
00530            -136.00    11600.00
00531            -138.00    11600.00
00532            -134.00    11400.00
00533            -130.00    11400.00
00534            -130.00    11400.00
00535            -128.00    11200.00
00536            -120.00    11200.00
00537            -120.00    11000.00
00538            -114.00    11000.00
00539            -114.00    11000.00
00540            -110.00    10800.00
00541            -104.00    10800.00
00542            -100.00    10600.00
00543             -98.00    10800.00
00544             -96.00    10600.00
00545             -94.00    10400.00
00546             -90.00    10600.00
00547             -88.00    10200.00
00548             -86.00    10000.00
00549             -80.00    10000.00
00550             -82.00     9800.00
00551             -74.00     9800.00
00552             -72.00     9800.00
00553             -68.00     9400.00
00554             -72.00     9400.00
00555             -66.00     9400.00
00556             -62.00     9200.00
00557             -58.00     9000.00
00558             -58.00     9000.00
00559             -56.00     8800.00
00560             -56.00     8800.00
00561             -54.00     8600.00
00562             -54.00     8400.00
00563             -50.00     8200.00
00564             -50.00     8000.00
00565             -46.00     8200.00
00566             -46.00     7800.00
00567             -42.00     7800.00
00568             -42.00     7600.00
00569             -40.00     7400.00
00570             -42.00     7400.00
00571             -38.00     7000.00
00572             -40.00     6800.00
00573             -38.00     6600.00
00574             -38.00     6600.00
00575             -30.00     6600.00
00576             -32.00     6200.00
00577             -30.00     6200.00
00578             -32.00     6000.00
00579             -30.00     5600.00
00580             -30.00     5400.00
00581             -26.00     5400.00
00582             -24.00     5200.00
00583             -24.00     5200.00
00584             -26.00     5000.00
00585             -26.00     4600.00
00586             -26.00     4600.00
00587             -22.00     4400.00
00588             -18.00     4200.00
00589             -18.00     4000.00
00590             -18.00     3800.00
00591             -16.00     3600.00
00592             -22.00     3600.00
00593             -22.00     3200.00
00594             -18.00     3000.00
00595             -16.00     2800.00
00596             -14.00     2800.00
00597             -10.00     2600.00
00598             -12.00     2200.00
00599             -10.00     2000.00
00600             -10.00     1800.00
00601             -10.00     1800.00
00602             -10.00     1400.00
00603              -8.00     1400.00
00604             -10.00     1200.00
00605             -10.00     1000.00
00606              -8.00      600.00
00607              -8.00      600.00
00608              -6.00      400.00
00609              -2.00      200.00
00610               0.00        0.00
00611               6.00     -200.00
00612              22.00     -200.00
00613              16.00     -400.00
00614              -6.00     -800.00
00615             -10.00     -800.00
00616               8.00    -1000.00
00617              14.00    -1200.00
00618               6.00    -1400.00
00619              54.00    -1400.00
00620             194.00    -1800.00
00621             112.00    -2200.00
00622            -254.00    -2400.00
00623            -240.00    -2600.00
00624              80.00    -2800.00
00625              40.00    -3000.00
00626             -86.00    -2600.00
00627             224.00    -3000.00
00628             -18.00    -3400.00
00629            -128.00    -3200.00
00630             188.00    -3800.00
00631             -32.00    -3800.00
00632              -4.00    -3800.00
00633               6.00    -4200.00
00634              -8.00    -4400.00
00635             126.00    -4400.00
00636             -78.00    -4800.00
00637             -14.00    -5200.00
00638              40.00    -5000.00
00639              -2.00    -5400.00
00640              62.00    -5400.00
00641             -30.00    -5400.00
00642              32.00    -6000.00
00643              38.00    -5800.00
00644               8.00    -6200.00
00645              18.00    -6600.00
00646              16.00    -6400.00
00647              32.00    -6600.00
00648               6.00    -6800.00
00649              48.00    -6800.00
00650               0.00    -7200.00
00651              14.00    -7400.00
00652              50.00    -7400.00
00653              14.00    -7600.00
00654              40.00    -7800.00
00655              26.00    -7800.00
00656              22.00    -8200.00
00657              48.00    -8200.00
00658              24.00    -8200.00
00659              18.00    -8400.00
00660              48.00    -8400.00
00661              38.00    -8600.00
00662              30.00    -8600.00
00663              44.00    -9000.00
00664              34.00    -9000.00
00665              38.00    -9000.00
00666              48.00    -9200.00
00667              40.00    -9400.00
00668              48.00    -9400.00
00669              50.00    -9600.00
00670              42.00    -9800.00
00671              50.00   -10000.00
00672              50.00   -10000.00
00673              50.00   -10000.00
00674              64.00   -10200.00
00675              56.00   -10200.00
00676              50.00   -10200.00
00677              62.00   -10400.00
00678              58.00   -10600.00
00679              62.00   -10600.00
00680              68.00   -10400.00
00681              68.00   -10800.00
00682              70.00   -10600.00
00683              70.00   -10800.00
00684              70.00   -10800.00
00685              72.00   -11000.00
00686              78.00   -11200.00
00687              78.00   -11000.00
00688              86.00   -11200.00
00689              86.00   -11400.00
00690              80.00   -11400.00
00691              86.00   -11400.00
00692              88.00   -11400.00
00693              90.00   -11400.00
00694              96.00   -11600.00
00695              96.00   -11400.00
00696              98.00   -11600.00
00697             100.00   -11400.00
00698             100.00   -11600.00
00699             104.00   -11600.00
00700             110.00   -11600.00
00701             110.00   -11800.00
00702             114.00   -11600.00
00703             118.00   -11600.00
00704             116.00   -11800.00
00705             120.00   -11600.00
00706             120.00   -11800.00
00707             126.00   -11600.00
00708             128.00   -11600.00
00709             130.00   -11600.00
00710             134.00   -11600.00
00711             134.00   -11800.00
00712             134.00   -11600.00
00713             138.00   -11600.00
00714             142.00   -11600.00
00715             138.00   -11400.00
00716             138.00   -11400.00
00717             138.00   -11400.00
00718             138.00   -11400.00
00719             134.00   -11400.00
00720             134.00   -11400.00
00721             136.00   -11400.00
00722             130.00   -11200.00
00723             128.00   -11400.00
00724             122.00   -11200.00
00725             120.00   -11000.00
00726             118.00   -10800.00
00727             118.00   -11000.00
00728             114.00   -10800.00
00729             112.00   -10600.00
00730             106.00   -10600.00
00731             102.00   -10400.00
00732             100.00   -10400.00
00733              96.00   -10400.00
00734              94.00   -10400.00
00735              90.00   -10200.00
00736              88.00   -10200.00
00737              82.00   -10000.00
00738              80.00   -10000.00
00739              80.00    -9800.00
00740              78.00    -9800.00
00741              74.00    -9800.00
00742              72.00    -9400.00
00743              66.00    -9400.00
00744              64.00    -9200.00
00745              62.00    -9200.00
00746              58.00    -9000.00
00747              56.00    -9000.00
00748              58.00    -8600.00
00749              54.00    -8800.00
00750              52.00    -8600.00
00751              48.00    -8400.00
00752              48.00    -8200.00
00753              48.00    -8400.00
00754              46.00    -8000.00
00755              40.00    -8000.00
00756              40.00    -7800.00
00757              38.00    -7600.00
00758              38.00    -7600.00
00759              34.00    -7400.00
00760              34.00    -7000.00
00761              32.00    -6800.00
00762              28.00    -6800.00
00763              30.00    -6800.00
00764              30.00    -6600.00
00765              22.00    -6400.00
00766              24.00    -6400.00
00767              26.00    -6000.00
00768              30.00    -6000.00
00769              20.00    -5800.00
00770              16.00    -5600.00
00771              18.00    -5400.00
00772              20.00    -5200.00
00773              18.00    -5200.00
00774              16.00    -5000.00
00775              22.00    -4600.00
00776              18.00    -4400.00
00777              10.00    -4400.00
00778              10.00    -4000.00
00779              14.00    -4000.00
00780              16.00    -3800.00
00781              14.00    -3600.00
00782               8.00    -3400.00
00783               8.00    -3400.00
00784               8.00    -3000.00
00785               6.00    -2800.00
00786              10.00    -2800.00
00787               8.00    -2600.00
00788               6.00    -2200.00
00789               6.00    -2000.00
00790               6.00    -2000.00
00791               6.00    -1800.00
00792               6.00    -1600.00
00793               0.00    -1400.00
00794               0.00    -1200.00
00795               0.00    -1000.00
00796               2.00    -1000.00
00797               0.00     -400.00
00798               0.00     -400.00
00799               0.00     -200.00
00800               0.00      200.00
00801               0.00      200.00
00802               0.00      400.00
00803              12.00      600.00
00804              24.00      600.00
00805               6.00     1000.00
00806              -8.00     1200.00
00807               0.00     1200.00
00808               8.00     1200.00
00809               8.00     1800.00
00810              72.00     1800.00
00811             246.00     2400.00
00812               6.00     2400.00
00813            -254.00     2400.00
00814            -214.00     2800.00
00815              72.00     2800.00
00816             -18.00     3000.00
00817             246.00     3400.00
00818             -48.00     3400.00
00819            -254.00     3400.00
00820             246.00     4200.00
00821              22.00     3600.00
00822            -176.00     4200.00
00823              78.00     4600.00
00824            -146.00     4000.00
00825             194.00     4800.00
00826             -30.00     5000.00
00827            -232.00     4600.00
00828             166.00     5800.00
00829             -80.00     5200.00
00830             -30.00     5200.00
00831              14.00     6000.00
00832             -66.00     5400.00
00833              38.00     6000.00
00834             -42.00     6600.00
00835             -26.00     6200.00
00836             -54.00     6600.00
00837               2.00     6800.00
00838             -34.00     6600.00
00839              -8.00     7000.00
00840             -16.00     7200.00
00841            -104.00     7200.00
00842              24.00     7800.00
00843             -42.00     7600.00
00844             -28.00     7600.00
00845             -16.00     8200.00
00846             -66.00     8000.00
00847             -22.00     8200.00
00848             -30.00     8600.00
00849             -64.00     8200.00
00850             -34.00     8600.00
00851             -10.00     8800.00
00852             -58.00     9000.00
00853             -26.00     9200.00
00854             -56.00     9200.00
00855             -64.00     9400.00
00856             -32.00     9400.00
00857             -46.00     9400.00
00858             -42.00     9800.00
00859             -42.00     9800.00
00860             -66.00    10000.00
00861             -58.00    10000.00
00862             -42.00    10000.00
00863             -64.00    10000.00
00864             -52.00    10200.00
00865             -48.00    10600.00
00866             -62.00    10400.00
00867             -64.00    10600.00
00868             -74.00    10800.00
00869             -70.00    10600.00
00870             -54.00    10800.00
00871             -70.00    10800.00
00872             -74.00    11000.00
00873             -66.00    11000.00
00874             -74.00    11400.00
00875             -80.00    11200.00
00876             -82.00    11400.00
00877             -80.00    11400.00
00878             -74.00    11400.00
00879             -80.00    11400.00
00880             -88.00    11400.00
00881             -86.00    11600.00
00882             -94.00    11600.00
00883             -98.00    11600.00
00884             -94.00    11600.00
00885             -96.00    11800.00
00886             -98.00    11600.00
00887            -102.00    11800.00
00888            -106.00    11800.00
00889            -110.00    11800.00
00890            -106.00    11800.00
00891            -114.00    11800.00
00892            -118.00    11800.00
00893            -120.00    11800.00
00894            -122.00    11800.00
00895            -120.00    11800.00
00896            -128.00    12000.00
00897            -136.00    11800.00
00898            -130.00    11800.00
00899            -130.00    11800.00
00900            -136.00    11800.00
00901            -138.00    11800.00
00902            -144.00    11800.00
00903            -144.00    11800.00
00904            -144.00    11800.00
00905            -146.00    11800.00
00906            -144.00    11600.00
00907            -146.00    11600.00
00908            -150.00    11600.00
00909            -146.00    11800.00
00910            -146.00    11600.00
00911            -144.00    11600.00
00912            -138.00    11400.00
00913            -136.00    11600.00
00914            -136.00    11400.00
00915            -136.00    11400.00
00916            -138.00    11400.00
00917            -128.00    11400.00
00918            -122.00    11000.00
00919            -120.00    11200.00
00920            -118.00    11000.00
00921            -114.00    11000.00
00922            -110.00    11000.00
00923            -106.00    11000.00
00924            -104.00    10800.00
00925            -100.00    10600.00
00926             -98.00    10600.00
00927             -98.00    10600.00
00928             -96.00    10400.00
00929             -90.00    10200.00
00930             -86.00    10200.00
00931             -82.00    10200.00
00932             -80.00     9800.00
00933             -78.00     9800.00
00934             -74.00     9800.00
00935             -74.00     9600.00
00936             -70.00     9400.00
00937             -66.00     9400.00
00938             -64.00     9200.00
00939             -64.00     9200.00
00940             -62.00     9000.00
00941             -58.00     9000.00
00942             -56.00     8800.00
00943             -56.00     8800.00
00944             -54.00     8600.00
00945             -48.00     8400.00
00946             -48.00     8200.00
00947             -50.00     8000.00
00948             -48.00     8000.00
00949             -46.00     7800.00
00950             -46.00     7600.00
00951             -40.00     7600.00
00952             -36.00     7400.00
00953             -34.00     7200.00
00954             -34.00     7000.00
00955             -40.00     7000.00
00956             -38.00     6800.00
00957             -40.00     6600.00
00958             -34.00     6600.00
00959             -30.00     6200.00
00960             -24.00     6000.00
00961             -26.00     6000.00
00962             -30.00     5600.00
00963             -34.00     5400.00
00964             -26.00     5400.00
00965             -26.00     5000.00
00966             -22.00     5000.00
00967             -24.00     4800.00
00968             -24.00     4800.00
00969             -26.00     4600.00
00970             -22.00     4200.00
00971             -18.00     4200.00
00972             -18.00     3800.00
00973             -18.00     3800.00
00974             -18.00     3600.00
00975             -16.00     3400.00
00976             -16.00     3400.00
00977             -16.00     3000.00
00978             -16.00     2800.00
00979             -16.00     2600.00
00980             -16.00     2600.00
00981             -14.00     2400.00
00982              -8.00     2000.00
00983             -10.00     1800.00
00984             -14.00     1800.00
00985             -14.00     1400.00
00986             -10.00     1200.00
00987             -10.00     1200.00
00988              -6.00     1000.00
00989              -8.00      600.00
00990              -6.00      400.00
00991              -6.00      400.00
00992              -6.00      200.00
00993               0.00        0.00
00994               6.00     -200.00
00995              24.00     -400.00
00996              12.00     -600.00
00997              -6.00     -600.00
00998              -2.00    -1000.00
00999              10.00    -1200.00
01000               6.00    -1400.00
01001              10.00    -1400.00
01002              82.00    -1800.00
01003             220.00    -1800.00
01004              12.00    -2400.00
01005            -254.00    -2400.00
01006            -162.00    -2600.00
01007             122.00    -2800.00
01008             -28.00    -3000.00
01009             -22.00    -2600.00
01010             240.00    -3400.00
01011            -138.00    -3400.00
01012             -16.00    -3200.00
01013             166.00    -4200.00
01014             -72.00    -3600.00
01015              34.00    -3800.00
01016             -32.00    -4400.00
01017              52.00    -4400.00
01018              88.00    -4600.00
01019             -96.00    -5000.00
01020              30.00    -5000.00
01021              16.00    -5000.00
01022              22.00    -5600.00
01023              42.00    -5400.00
01024             -30.00    -5400.00
01025              52.00    -6200.00
01026              18.00    -5800.00
01027              16.00    -6200.00
01028              12.00    -6200.00
01029              22.00    -6400.00
01030              26.00    -6800.00
01031              18.00    -6800.00
01032              48.00    -7000.00
01033             -14.00    -7200.00
01034              32.00    -7400.00
01035              40.00    -7400.00
01036              16.00    -7600.00
01037              44.00    -7800.00
01038              16.00    -7800.00
01039              30.00    -8200.00
01040              42.00    -8200.00
01041              18.00    -8200.00
01042              24.00    -8400.00
01043              54.00    -8600.00
01044              32.00    -8600.00
01045              30.00    -8800.00
01046              42.00    -9000.00
01047              32.00    -9200.00
01048              42.00    -9200.00
01049              48.00    -9400.00
01050              42.00    -9400.00
01051              48.00    -9400.00
01052              48.00    -9400.00
01053              42.00    -9800.00
01054              54.00    -9800.00
01055              48.00   -10000.00
01056              50.00   -10200.00
01057              64.00   -10200.00
01058              54.00   -10200.00
01059              54.00   -10400.00
01060              58.00   -10200.00
01061              58.00   -10600.00
01062              64.00   -10600.00
01063              70.00   -10400.00
01064              70.00   -10800.00
01065              70.00   -10800.00
01066              70.00   -10800.00
01067              70.00   -11000.00
01068              74.00   -10800.00
01069              78.00   -11200.00
01070              78.00   -11200.00
01071              86.00   -11400.00
01072              82.00   -11200.00
01073              80.00   -11400.00
01074              88.00   -11600.00
01075              88.00   -11400.00
01076              90.00   -11400.00
01077              96.00   -11600.00
01078              98.00   -11400.00
01079              98.00   -11600.00
01080              98.00   -11600.00
01081             102.00   -11800.00
01082             110.00   -11600.00
01083             112.00   -11600.00
01084             110.00   -11800.00
01085             118.00   -11600.00
01086             118.00   -11600.00
01087             118.00   -11600.00
01088             120.00   -11800.00
01089             124.00   -11600.00
01090             128.00   -11600.00
01091             128.00   -11800.00
01092             128.00   -11600.00
01093             134.00   -11600.00
01094             134.00   -11600.00
01095             136.00   -11600.00
01096             138.00   -11600.00
01097             142.00   -11600.00
01098             140.00   -11600.00
01099             136.00   -11400.00
01100             136.00   -11600.00
01101             136.00   -11400.00
01102             134.00   -11400.00
01103             134.00   -11400.00
01104             134.00   -11400.00
01105             130.00   -11400.00
01106             126.00   -11000.00
01107             122.00   -11200.00
01108             122.00   -11000.00
01109             118.00   -11000.00
01110             116.00   -10800.00
01111             114.00   -10800.00
01112             106.00   -10800.00
01113             104.00   -10400.00
01114             102.00   -10600.00
01115              96.00   -10200.00
01116              96.00   -10400.00
01117              94.00   -10400.00
01118              88.00   -10200.00
01119              88.00   -10200.00
01120              82.00   -10000.00
01121              80.00   -10000.00
01122              78.00    -9800.00
01123              74.00    -9600.00
01124              72.00    -9600.00
01125              70.00    -9400.00
01126              64.00    -9200.00
01127              64.00    -9200.00
01128              62.00    -9200.00
01129              62.00    -9000.00
01130              58.00    -9000.00
01131              56.00    -8800.00
01132              54.00    -8600.00
01133              48.00    -8600.00
01134              48.00    -8400.00
01135              46.00    -8200.00
01136              46.00    -8000.00
01137              46.00    -8200.00
01138              42.00    -7800.00
01139              40.00    -7600.00
01140              38.00    -7400.00
01141              38.00    -7400.00
01142              34.00    -7400.00
01143              36.00    -7200.00
01144              34.00    -7000.00
01145              32.00    -6800.00
01146              32.00    -6600.00
01147              26.00    -6600.00
01148              30.00    -6400.00
01149              28.00    -6200.00
01150              26.00    -5800.00
01151              24.00    -5800.00
01152              24.00    -5800.00
01153              22.00    -5400.00
01154              18.00    -5400.00
01155              20.00    -5200.00
01156              18.00    -5000.00
01157              18.00    -5000.00
01158              16.00    -4600.00
01159              14.00    -4400.00
01160              16.00    -4200.00
01161              14.00    -4000.00
01162              14.00    -3800.00
01163              14.00    -3600.00
01164              10.00    -3600.00
01165               8.00    -3400.00
01166              10.00    -3000.00
01167               8.00    -3000.00
01168               8.00    -2600.00
01169               8.00    -2800.00
01170               6.00    -2600.00
01171               6.00    -2200.00
01172               2.00    -2200.00
01173               6.00    -1800.00
01174               2.00    -1600.00
01175               2.00    -1400.00
01176               2.00    -1200.00
01177               4.00    -1200.00
01178               0.00    -1000.00
01179              -2.00     -600.00
01180               0.00     -600.00
01181              -2.00     -400.00
01182              -2.00     -200.00
01183               0.00      200.00
01184               4.00      200.00
01185               2.00      400.00
01186              16.00      600.00
01187              20.00      800.00
01188              -2.00     1000.00
01189             -10.00     1200.00
01190               0.00     1200.00
01191               8.00     1400.00
01192              14.00     1400.00
01193             118.00     2000.00
01194             246.00     2400.00
01195            -130.00     2200.00
01196            -254.00     2400.00
01197            -112.00     2800.00
01198              58.00     2800.00
01199              30.00     2800.00
01200             246.00     3400.00
01201            -254.00     3200.00
01202            -192.00     3600.00
01203             246.00     4200.00
01204            -136.00     3600.00
01205             -74.00     4400.00
01206              20.00     4400.00
01207            -102.00     4200.00
01208             238.00     5000.00
01209            -182.00     4600.00
01210            -110.00     4800.00
01211             154.00     5800.00
01212            -128.00     5000.00
01213              30.00     5600.00
01214             -32.00     6000.00
01215             -32.00     5800.00
01216              26.00     6200.00
01217             -50.00     6200.00
01218             -28.00     6200.00
01219             -48.00     6800.00
01220               8.00     6800.00
01221             -50.00     6800.00
01222              16.00     7200.00
01223             -56.00     7400.00
01224             -72.00     7400.00
01225              32.00     7800.00
01226             -66.00     7600.00
01227             -14.00     7800.00
01228             -34.00     8200.00
01229             -50.00     8200.00
01230             -16.00     8400.00
01231             -42.00     8800.00
01232             -64.00     8600.00
01233             -22.00     8800.00
01234             -36.00     8800.00
01235             -56.00     9000.00
01236             -22.00     9200.00
01237             -62.00     9200.00
01238             -50.00     9400.00
01239             -40.00     9400.00
01240             -52.00     9600.00
01241             -50.00     9600.00
01242             -42.00     9800.00
01243             -62.00    10000.00
01244             -58.00    10000.00
01245             -58.00    10200.00
01246             -64.00    10200.00
01247             -42.00    10200.00
01248             -56.00    10600.00
01249             -70.00    10600.00
01250             -58.00    10600.00
01251             -70.00    10800.00
01252             -70.00    10800.00
01253             -62.00    11000.00
01254             -70.00    11000.00
01255             -70.00    11000.00
01256             -72.00    11200.00
01257             -82.00    11400.00
01258             -78.00    11400.00
01259             -82.00    11400.00
01260             -82.00    11400.00
01261             -74.00    11400.00
01262             -80.00    11600.00
01263             -92.00    11600.00
01264             -88.00    11600.00
01265             -90.00    11800.00
01266             -96.00    11800.00
01267             -96.00    11600.00
01268             -98.00    11600.00
01269             -96.00    11800.00
01270            -102.00    11800.00
01271            -112.00    11800.00
01272            -108.00    11800.00
01273            -110.00    11800.00
01274            -112.00    11800.00
01275            -112.00    12000.00
01276            -118.00    11800.00
01277            -122.00    11800.00
01278            -126.00    11800.00
01279            -128.00    11800.00
01280            -130.00    11800.00
01281            -128.00    11800.00
01282            -130.00    12000.00
01283            -138.00    11800.00
01284            -140.00    11800.00
01285            -146.00    11600.00
01286            -144.00    11800.00
01287            -144.00    11800.00
01288            -144.00    11800.00
01289            -146.00    11600.00
01290            -150.00    11800.00
01291            -148.00    11600.00
01292            -146.00    11600.00
01293            -142.00    11600.00
01294            -142.00    11600.00
01295            -138.00    11600.00
01296            -138.00    11400.00
01297            -138.00    11400.00
01298            -138.00    11400.00
01299            -130.00    11400.00
01300            -122.00    11400.00
01301            -120.00    11000.00
01302            -120.00    11000.00
01303            -118.00    11000.00
01304            -114.00    11000.00
01305            -112.00    10800.00
01306            -110.00    10800.00
01307            -104.00    10600.00
01308             -98.00    10600.00
01309             -96.00    10200.00
01310             -96.00    10600.00
01311             -94.00    10400.00
01312             -88.00    10200.00
01313             -84.00    10200.00
01314             -80.00    10000.00
01315             -78.00    10000.00
01316             -78.00     9800.00
01317             -80.00     9800.00
01318             -74.00     9600.00
01319             -70.00     9400.00
01320             -66.00     9200.00
01321             -64.00     9400.00
01322             -60.00     9200.00
01323             -62.00     9000.00
01324             -60.00     9000.00
01325             -58.00     8800.00
01326             -54.00     8600.00
01327             -50.00     8400.00
01328             -48.00     8400.00
01329             -48.00     8200.00
01330             -48.00     8200.00
01331             -46.00     7800.00
01332             -42.00     7800.00
01333             -46.00     7600.00
01334             -38.00     7400.00
01335             -38.00     7400.00
01336             -42.00     7200.00
01337             -38.00     7000.00
01338             -34.00     6800.00
01339             -32.00     6600.00
01340             -40.00     6600.00
01341             -26.00     6400.00
01342             -24.00     6200.00
01343             -30.00     6000.00
01344             -34.00     5800.00
01345             -30.00     5800.00
01346             -26.00     5600.00
01347             -26.00     5200.00
01348             -18.00     5200.00
01349             -18.00     5000.00
01350             -24.00     4800.00
01351             -34.00     4600.00
01352             -26.00     4400.00
01353             -18.00     4200.00
01354             -16.00     4000.00
01355             -18.00     3800.00
01356             -18.00     3800.00
01357             -16.00     3600.00
01358             -22.00     3400.00
01359             -22.00     3200.00
01360             -16.00     3000.00
01361              -8.00     2800.00
01362              -8.00     2600.00
01363             -18.00     2400.00
01364             -22.00     2200.00
01365             -14.00     2000.00
01366              -6.00     1800.00
01367             -10.00     1600.00
01368             -14.00     1400.00
01369             -14.00     1400.00
01370             -10.00     1200.00
01371              -8.00     1000.00
01372              -8.00      600.00
01373              -8.00      400.00
01374              -2.00      200.00
01375               0.00      200.00
01376              -2.00        0.00
01377              10.00     -400.00
01378              24.00     -400.00
01379               6.00     -600.00
01380             -10.00     -800.00
01381              -2.00    -1000.00
01382              14.00    -1000.00
01383               2.00    -1400.00
01384              18.00    -1400.00
01385             120.00    -1600.00
01386             216.00    -2000.00
01387            -104.00    -2400.00
01388            -254.00    -2600.00
01389             -66.00    -2600.00
01390             126.00    -2800.00
01391             -88.00    -2800.00
01392              76.00    -2800.00
01393             192.00    -3400.00
01394            -200.00    -3000.00
01395              98.00    -3400.00
01396              98.00    -4000.00
01397             -72.00    -3800.00
01398              54.00    -4000.00
01399             -50.00    -4400.00
01400             102.00    -4200.00
01401              20.00    -4600.00
01402             -82.00    -5000.00
01403              60.00    -4800.00
01404             -10.00    -5000.00
01405              46.00    -5600.00
01406              22.00    -5200.00
01407              -6.00    -5800.00
01408              54.00    -6000.00
01409               4.00    -5800.00
01410              22.00    -6400.00
01411              10.00    -6200.00
01412              32.00    -6600.00
01413              16.00    -6800.00
01414              32.00    -7000.00
01415              34.00    -7200.00
01416             -22.00    -7400.00
01417              48.00    -7400.00
01418              32.00    -7400.00
01419              24.00    -7600.00
01420              38.00    -7800.00
01421              10.00    -7800.00
01422              40.00    -8200.00
01423              30.00    -8400.00
01424              14.00    -8400.00
01425              38.00    -8400.00
01426              56.00    -8600.00
01427              24.00    -9000.00
01428              32.00    -8800.00
01429              40.00    -9000.00
01430              34.00    -9200.00
01431              48.00    -9200.00
01432              42.00    -9200.00
01433              42.00    -9400.00
01434              48.00    -9400.00
01435              42.00    -9600.00
01436              42.00    -9800.00
01437              52.00    -9800.00
01438              46.00   -10000.00
01439              58.00   -10000.00
01440              64.00   -10200.00
01441              50.00   -10200.00
01442              54.00   -10400.00
01443              58.00   -10400.00
01444              56.00   -10600.00
01445              66.00   -10600.00
01446              66.00   -10600.00
01447              66.00   -10800.00
01448              72.00   -10800.00
01449              70.00   -10800.00
01450              66.00   -11000.00
01451              74.00   -11000.00
01452              74.00   -11000.00
01453              80.00   -11200.00
01454              86.00   -11200.00
01455              80.00   -11400.00
01456              86.00   -11400.00
01457              90.00   -11400.00
01458              88.00   -11600.00
01459              94.00   -11400.00
01460              96.00   -11400.00
01461              96.00   -11400.00
01462              98.00   -11600.00
01463             102.00   -11600.00
01464             106.00   -11600.00
01465             110.00   -11600.00
01466             110.00   -11600.00
01467             112.00   -11800.00
01468             114.00   -11600.00
01469             118.00   -11800.00
01470             120.00   -11600.00
01471             126.00   -11600.00
01472             122.00   -11600.00
01473             128.00   -11800.00
01474             128.00   -11600.00
01475             132.00   -11800.00
01476             136.00   -11600.00
01477             136.00   -11600.00
01478             142.00   -11400.00
01479             142.00   -11600.00
01480             142.00   -11600.00
01481             142.00   -11400.00
01482             140.00   -11400.00
01483             138.00   -11400.00
01484             136.00   -11400.00
01485             136.00   -11400.00
01486             136.00   -11400.00
01487             134.00   -11200.00
01488             128.00   -11000.00
01489             126.00   -11400.00
01490             126.00   -11000.00
01491             120.00   -11000.00
01492             120.00   -11000.00
01493             112.00   -10800.00
01494             112.00   -10800.00
01495             106.00   -10800.00
01496             104.00   -10400.00
01497              98.00   -10400.00
01498              96.00   -10400.00
01499              94.00   -10400.00
01500              96.00   -10200.00
01501              86.00   -10200.00
01502              88.00   -10000.00
01503              80.00   -10000.00
01504              80.00    -9800.00
01505              72.00    -9800.00
01506              72.00    -9800.00
01507              72.00    -9400.00
01508              70.00    -9400.00
01509              62.00    -9400.00
01510              62.00    -9200.00
01511              64.00    -9000.00
01512              62.00    -9000.00
01513              56.00    -9000.00
01514              52.00    -8600.00
01515              54.00    -8600.00
01516              50.00    -8600.00
01517              48.00    -8400.00
01518              46.00    -8200.00
01519              48.00    -8200.00
01520              42.00    -8000.00
01521              38.00    -7800.00
01522              38.00    -7600.00
01523              38.00    -7600.00
01524              38.00    -7400.00
01525              38.00    -7200.00
01526              34.00    -7000.00
01527              32.00    -7000.00
01528              32.00    -6800.00
01529              30.00    -6600.00
01530              26.00    -6400.00
01531              26.00    -6200.00
01532              26.00    -6000.00
01533              26.00    -6000.00
01534              24.00    -5800.00
01535              22.00    -5800.00
01536              22.00    -5400.00
01537              22.00    -5400.00
01538              18.00    -5200.00
01539              16.00    -5000.00
01540              18.00    -4800.00
01541              22.00    -4600.00
01542              14.00    -4400.00
01543              16.00    -4200.00
01544              14.00    -4000.00
01545              12.00    -3800.00
01546              16.00    -3800.00
01547              12.00    -3400.00
01548               8.00    -3400.00
01549               8.00    -3000.00
01550               8.00    -3000.00
01551              10.00    -2800.00
01552               6.00    -2600.00
01553               8.00    -2600.00
01554               8.00    -2200.00
01555               6.00    -2000.00
01556               0.00    -1800.00
01557               0.00    -1800.00
01558               2.00    -1600.00
01559               6.00    -1200.00
01560               0.00    -1200.00
01561              -2.00    -1000.00
01562               0.00     -800.00
01563               0.00     -600.00
01564               0.00     -400.00
01565              -6.00     -200.00
01566              -2.00      200.00
01567               0.00      200.00
01568               2.00      400.00
01569              22.00      800.00
01570              14.00      600.00
01571              -8.00      800.00
01572             -10.00     1000.00
01573               4.00     1400.00
01574               6.00     1400.00
01575              26.00     1800.00
01576             176.00     2000.00
01577             196.00     2400.00
01578            -254.00     2400.00
01579            -254.00     2600.00
01580             -18.00     2800.00
01581              18.00     2800.00
01582             122.00     3200.00
01583             246.00     3400.00
01584            -254.00     3000.00
01585              22.00     4000.00
01586             246.00     3800.00
01587            -232.00     3600.00
01588              30.00     4600.00
01589             -62.00     4200.00
01590               2.00     4400.00
01591             192.00     5200.00
01592            -254.00     4600.00
01593              30.00     5000.00
01594              82.00     5600.00
01595            -126.00     5000.00
01596              52.00     6000.00
01597             -68.00     6000.00
01598               6.00     5800.00
01599               2.00     6600.00
01600             -38.00     6200.00
01601             -42.00     6400.00
01602             -42.00     6800.00
01603               2.00     6800.00
01604             -32.00     7000.00
01605              26.00     7400.00
01606             -98.00     7200.00
01607             -32.00     7400.00
01608              18.00     7800.00
01609             -70.00     7600.00
01610              -6.00     8000.00
01611             -44.00     8200.00
01612             -34.00     8200.00
01613             -26.00     8400.00
01614             -58.00     8600.00
01615             -56.00     8600.00
01616              -8.00     9000.00
01617             -48.00     9000.00
01618             -42.00     9000.00
01619             -26.00     9200.00
01620             -68.00     9200.00
01621             -42.00     9400.00
01622             -46.00     9400.00
01623             -42.00     9600.00
01624             -48.00     9800.00
01625             -46.00    10000.00
01626             -66.00    10000.00
01627             -48.00    10200.00
01628             -64.00    10000.00
01629             -64.00    10200.00
01630             -40.00    10400.00
01631             -64.00    10600.00
01632             -66.00    10600.00
01633             -62.00    10600.00
01634             -72.00    10600.00
01635             -72.00    10800.00
01636             -62.00    10800.00
01637             -70.00    11000.00
01638             -66.00    11000.00
01639             -78.00    11200.00
01640             -80.00    11000.00
01641             -74.00    11400.00
01642             -82.00    11400.00
01643             -88.00    11400.00
01644             -74.00    11400.00
01645             -78.00    11400.00
01646             -94.00    11600.00
01647             -96.00    11600.00
01648             -96.00    11800.00
01649             -94.00    11600.00
01650             -90.00    11800.00
01651             -98.00    11800.00
01652             -94.00    11800.00
01653            -104.00    11800.00
01654            -118.00    11800.00
01655            -112.00    11800.00
01656            -106.00    11800.00
01657            -110.00    11800.00
01658            -112.00    12000.00
01659            -120.00    12000.00
01660            -120.00    12000.00
01661            -124.00    12200.00
01662            -136.00    11800.00
01663            -128.00    11800.00
01664            -124.00    12000.00
01665            -128.00    11800.00
01666            -142.00    11800.00
01667            -144.00    12000.00
01668            -142.00    11800.00
01669            -142.00    11800.00
01670            -144.00    11800.00
01671            -144.00    11800.00
01672            -142.00    11800.00
01673            -146.00    11800.00
01674            -150.00    11800.00
01675            -144.00    11600.00
01676            -138.00    11600.00
01677            -142.00    11600.00
01678            -142.00    11400.00
01679            -138.00    11600.00
01680            -134.00    11400.00
01681            -130.00    11400.00
01682            -128.00    11400.00
01683            -128.00    11400.00
01684            -124.00    11000.00
01685            -122.00    11000.00
01686            -114.00    11000.00
01687            -112.00    11000.00
01688            -110.00    10800.00
01689            -106.00    10800.00
01690            -104.00    10600.00
01691            -102.00    10600.00
01692             -96.00    10400.00
01693             -92.00    10600.00
01694             -94.00    10200.00
01695             -88.00    10200.00
01696             -86.00    10000.00
01697             -80.00    10000.00
01698             -80.00     9800.00
01699             -78.00     9800.00
01700             -74.00     9800.00
01701             -72.00     9600.00
01702             -70.00     9400.00
01703             -66.00     9400.00
01704             -64.00     9200.00
01705             -62.00     9200.00
01706             -62.00     9000.00
01707             -58.00     9000.00
01708             -58.00     8600.00
01709             -54.00     8600.00
01710             -54.00     8400.00
01711             -50.00     8400.00
01712             -48.00     8200.00
01713             -48.00     8000.00
01714             -48.00     7800.00
01715             -46.00     7800.00
01716             -40.00     7400.00
01717             -38.00     7400.00
01718             -38.00     7400.00
01719             -38.00     7000.00
01720             -40.00     7000.00
01721             -40.00     6800.00
01722             -34.00     6600.00
01723             -32.00     6600.00
01724             -32.00     6200.00
01725             -32.00     6000.00
01726             -32.00     6200.00
01727             -30.00     6000.00
01728             -26.00     5600.00
01729             -26.00     5400.00
01730             -24.00     5400.00
01731             -24.00     5000.00
01732             -24.00     5000.00
01733             -24.00     5000.00
01734             -26.00     4600.00
01735             -24.00     4200.00
01736             -18.00     4200.00
01737             -18.00     4000.00
01738             -16.00     3800.00
01739             -20.00     3600.00
01740             -16.00     3600.00
01741             -16.00     3400.00
01742             -18.00     3000.00
01743             -16.00     2800.00
01744             -14.00     2800.00
01745             -14.00     2600.00
01746             -14.00     2400.00
01747             -16.00     2200.00
01748             -14.00     2000.00
01749             -10.00     1800.00
01750             -10.00     1600.00
01751             -10.00     1400.00
01752             -10.00     1200.00
01753             -10.00     1000.00
01754             -10.00      800.00
01755              -8.00      600.00
01756              -8.00      600.00
01757              -6.00      200.00
01758              -2.00      200.00
01759              -2.00        0.00
01760              16.00     -400.00
01761              20.00     -600.00
01762              -6.00     -600.00
01763             -10.00     -800.00
01764               6.00    -1000.00
01765              10.00    -1200.00
01766               2.00    -1400.00
01767              38.00    -1400.00
01768             162.00    -1800.00
01769             166.00    -2200.00
01770            -208.00    -2400.00
01771            -254.00    -2600.00
01772              26.00    -2800.00
01773              86.00    -2800.00
01774            -102.00    -2800.00
01775             174.00    -3000.00
01776              76.00    -3600.00
01777            -184.00    -3000.00
01778             170.00    -3600.00
01779              16.00    -3800.00
01780             -40.00    -3800.00
01781              32.00    -4200.00
01782             -40.00    -4400.00
01783             134.00    -4200.00
01784             -40.00    -4800.00
01785             -46.00    -5000.00
01786              54.00    -4800.00
01787             -10.00    -5400.00
01788              62.00    -5600.00
01789             -16.00    -5200.00
01790              16.00    -6000.00
01791              48.00    -6000.00
01792               6.00    -6000.00
01793              18.00    -6400.00
01794               8.00    -6200.00
01795              38.00    -6400.00
01796              10.00    -6800.00
01797              42.00    -6800.00
01798              16.00    -7200.00
01799              -4.00    -7400.00
01800              56.00    -7400.00
01801              16.00    -7400.00
01802              38.00    -7800.00
01803              32.00    -7800.00
01804              16.00    -8000.00
01805              46.00    -8200.00
01806              26.00    -8200.00
01807              16.00    -8400.00
01808              40.00    -8400.00
01809              46.00    -8600.00
01810              26.00    -9000.00
01811              40.00    -9000.00
01812              34.00    -9200.00
01813              32.00    -9200.00
01814              46.00    -9200.00
01815              40.00    -9400.00
01816              46.00    -9400.00
01817              48.00    -9400.00
01818              42.00    -9800.00
01819              48.00    -9800.00
01820              50.00   -10000.00
01821              46.00   -10000.00
01822              62.00   -10000.00
01823              60.00   -10200.00
01824              50.00   -10200.00
01825              56.00   -10400.00
01826              56.00   -10400.00
01827              62.00   -10600.00
01828              64.00   -10600.00
01829              66.00   -10600.00
01830              68.00   -10800.00
01831              70.00   -11000.00
01832              66.00   -11000.00
01833              70.00   -11000.00
01834              76.00   -11000.00
01835              78.00   -11000.00
01836              84.00   -11000.00
01837              86.00   -11200.00
01838              80.00   -11400.00
01839              82.00   -11400.00
01840              88.00   -11400.00
01841              88.00   -11400.00
01842              94.00   -11400.00
01843              96.00   -11600.00
01844              98.00   -11600.00
01845              98.00   -11600.00
01846              98.00   -11600.00
01847             104.00   -11600.00
01848             106.00   -11600.00
01849             112.00   -11800.00
01850             112.00   -11800.00
01851             118.00   -11800.00
01852             114.00   -11800.00
01853             118.00   -11800.00
01854             122.00   -11600.00
01855             128.00   -11600.00
01856             130.00   -11800.00
01857             130.00   -11800.00
01858             134.00   -11800.00
01859             134.00   -11600.00
01860             136.00   -11600.00
01861             138.00   -11600.00
01862             144.00   -11600.00
01863             142.00   -11400.00
01864             140.00   -11400.00
01865             140.00   -11400.00
01866             136.00   -11400.00
01867             138.00   -11400.00
01868             136.00   -11400.00
01869             136.00   -11000.00
01870             134.00   -11200.00
01871             128.00   -11000.00
01872             126.00   -11000.00
01873             122.00   -11000.00
01874             118.00   -11000.00
01875             118.00   -10800.00
01876             116.00   -10800.00
01877             112.00   -10800.00
01878             106.00   -10800.00
01879             102.00   -10400.00
01880              96.00   -10400.00
01881              98.00   -10400.00
01882              94.00   -10400.00
01883              94.00   -10400.00
01884              86.00   -10200.00
01885              82.00   -10000.00
01886              80.00   -10000.00
01887              80.00    -9800.00
01888              74.00    -9800.00
01889              74.00    -9600.00
01890              70.00    -9400.00
01891              66.00    -9400.00
01892              64.00    -9200.00
01893              60.00    -9200.00
01894              60.00    -9000.00
01895              56.00    -9000.00
01896              56.00    -9000.00
01897              54.00    -8600.00
01898              50.00    -8600.00
01899              48.00    -8400.00
01900              48.00    -8200.00
01901              46.00    -8200.00
01902              46.00    -8000.00
01903              42.00    -8000.00
01904              42.00    -7800.00
01905              38.00    -7600.00
01906              38.00    -7400.00
01907              36.00    -7400.00
01908              34.00    -7000.00
01909              32.00    -7000.00
01910              32.00    -7000.00
01911              30.00    -6800.00
01912              30.00    -6600.00
01913              26.00    -6600.00
01914              30.00    -6200.00
01915              26.00    -6200.00
01916              24.00    -5800.00
01917              24.00    -5800.00
01918              22.00    -5400.00
01919              18.00    -5400.00
01920              20.00    -5200.00
01921              20.00    -5000.00
01922              16.00    -4600.00
01923              18.00    -4800.00
01924              18.00    -4400.00
01925              16.00    -4400.00
01926              14.00    -4000.00
01927              14.00    -4000.00
01928              14.00    -3800.00
01929              14.00    -3600.00
01930              14.00    -3400.00
01931              10.00    -3400.00
01932               8.00    -3200.00
01933               8.00    -2800.00
01934               8.00    -2600.00
01935               8.00    -2600.00
01936               6.00    -2400.00
01937               2.00    -2200.00
01938               2.00    -2000.00
01939               2.00    -1800.00
01940               2.00    -1600.00
01941               6.00    -1400.00
01942               2.00    -1200.00
01943               0.00    -1000.00
01944              -2.00    -1000.00
01945              -2.00     -600.00
01946               0.00     -400.00
01947               0.00     -200.00
01948               0.00     -200.00
01949              -2.00      200.00
01950               0.00      200.00
01951               6.00      400.00
01952              22.00      600.00
01953               2.00      800.00
01954             -10.00     1000.00
01955              -6.00     1200.00
01956               8.00     1400.00
01957               6.00     1400.00
01958              46.00     1800.00
01959             222.00     2200.00
01960              96.00     2400.00
01961            -254.00     2400.00
01962            -254.00     2800.00
01963              48.00     2600.00
01964             -16.00     2800.00
01965             234.00     3400.00
01966              96.00     3400.00
01967            -254.00     3000.00
01968             216.00     4000.00
01969             150.00     3800.00
01970            -230.00     3800.00
01971              78.00     4600.00
01972            -134.00     3800.00
01973             122.00     4400.00
01974              80.00     5000.00
01975            -254.00     4400.00
01976             130.00     5400.00
01977             -18.00     5400.00
01978             -72.00     5200.00
01979              42.00     6000.00
01980             -78.00     5600.00
01981              32.00     6000.00
01982             -32.00     6600.00
01983             -32.00     6200.00
01984             -52.00     6400.00
01985              -8.00     6800.00
01986             -18.00     6600.00
01987             -24.00     7000.00
01988               6.00     7200.00
01989            -110.00     7000.00
01990              14.00     7600.00
01991             -18.00     7600.00
01992             -50.00     7600.00
01993              -2.00     8200.00
01994             -58.00     8000.00
01995             -26.00     8200.00
01996             -24.00     8800.00
01997             -58.00     8600.00
01998             -44.00     8600.00
01999             -14.00     9000.00
02000             -58.00     8800.00
02001             -30.00     9200.00
02002             -38.00     9200.00
02003             -64.00     9200.00
02004             -34.00     9400.00
02005             -48.00     9400.00
02006             -52.00     9400.00
02007             -46.00     9800.00
02008             -48.00     9800.00
02009             -62.00    10000.00
02010             -46.00    10000.00
02011             -72.00    10000.00
02012             -54.00    10200.00
02013             -46.00    10200.00
02014             -68.00    10600.00
02015             -56.00    10600.00
02016             -62.00    10800.00
02017             -78.00    10600.00
02018             -66.00    10800.00
02019             -66.00    11000.00
02020             -74.00    11000.00
02021             -64.00    11000.00
02022             -76.00    11000.00
02023             -80.00    11200.00
02024             -78.00    11400.00
02025             -86.00    11400.00
02026             -80.00    11400.00
02027             -78.00    11400.00
02028             -90.00    11400.00
02029             -90.00    11600.00
02030             -90.00    11600.00
02031             -98.00    11800.00
02032             -94.00    11600.00
02033             -94.00    11800.00
02034             -96.00    11800.00
02035            -102.00    11800.00
02036            -110.00    11800.00
02037            -112.00    12000.00
02038            -106.00    11800.00
02039            -112.00    11800.00
02040            -112.00    11800.00
02041            -114.00    11800.00
02042            -122.00    11800.00
02043            -126.00    12000.00
02044            -126.00    12000.00
02045            -126.00    11800.00
02046            -128.00    11800.00
02047            -130.00    12000.00
02048            -136.00    11800.00
02049            -138.00    11800.00
02050            -142.00    11800.00
02051            -142.00    11800.00
02052            -140.00    11800.00
02053            -144.00    11800.00
02054            -144.00    11800.00
02055            -142.00    11800.00
02056            -146.00    11600.00
02057            -146.00    11600.00
02058            -144.00    11600.00
02059            -142.00    11600.00
02060            -138.00    11600.00
02061            -138.00    11600.00
02062            -136.00    11400.00
02063            -134.00    11400.00
02064            -130.00    11400.00
02065            -128.00    11200.00
02066            -122.00    11200.00
02067            -120.00    11200.00
02068            -120.00    11000.00
02069            -118.00    11000.00
02070            -114.00    10800.00
02071            -110.00    10800.00
02072            -106.00    10600.00
02073            -102.00    10600.00
02074             -96.00    10600.00
02075             -98.00    10400.00
02076             -96.00    10200.00
02077             -90.00    10200.00
02078             -86.00    10200.00
02079             -82.00    10200.00
02080             -78.00     9800.00
02081             -80.00    10000.00
02082             -78.00     9800.00
02083             -74.00     9600.00
02084             -74.00     9400.00
02085             -70.00     9400.00
02086             -64.00     9400.00
02087             -62.00     9200.00
02088             -62.00     9200.00
02089             -64.00     9000.00
02090             -62.00     8800.00
02091             -58.00     8600.00
02092             -52.00     8600.00
02093             -50.00     8400.00
02094             -48.00     8400.00
02095             -48.00     8200.00
02096             -48.00     8000.00
02097             -46.00     8000.00
02098             -46.00     7600.00
02099             -42.00     7400.00
02100             -40.00     7400.00
02101             -42.00     7200.00
02102             -38.00     7000.00
02103             -40.00     7000.00
02104             -40.00     6800.00
02105             -38.00     6600.00
02106             -30.00     6600.00
02107             -32.00     6400.00
02108             -30.00     6200.00
02109             -32.00     6000.00
02110             -26.00     5800.00
02111             -30.00     5600.00
02112             -26.00     5400.00
02113             -26.00     5200.00
02114             -24.00     5000.00
02115             -24.00     5000.00
02116             -24.00     4600.00
02117             -24.00     4600.00
02118             -20.00     4400.00
02119             -20.00     4200.00
02120             -16.00     4000.00
02121             -18.00     3800.00
02122             -16.00     3600.00
02123             -18.00     3400.00
02124             -18.00     3200.00
02125             -16.00     3000.00
02126             -14.00     3000.00
02127             -10.00     2600.00
02128             -12.00     2400.00
02129             -14.00     2400.00
02130             -14.00     2000.00
02131             -10.00     1800.00
02132             -10.00     1600.00
02133             -10.00     1400.00
02134              -8.00     1200.00
02135              -8.00     1200.00
02136             -10.00     1000.00
02137             -10.00      800.00
02138              -8.00      600.00
02139              -8.00      200.00
02140               0.00      200.00
02141              -2.00     -200.00
02142               0.00     -200.00
02143              22.00     -200.00
02144              14.00     -600.00
02145              -8.00     -800.00
02146              -8.00    -1000.00
02147               8.00    -1200.00
02148               8.00    -1200.00
02149               6.00    -1400.00
02150              58.00    -1600.00
02151             202.00    -2000.00
02152              80.00    -2200.00
02153            -254.00    -2400.00
02154            -222.00    -2600.00
02155              94.00    -2600.00
02156              18.00    -3000.00
02157             -72.00    -2800.00
02158             232.00    -3000.00
02159             -58.00    -3600.00
02160             -96.00    -3200.00
02161             186.00    -3800.00
02162             -50.00    -3800.00
02163               6.00    -3800.00
02164              -6.00    -4200.00
02165               8.00    -4400.00
02166             118.00    -4400.00
02167             -86.00    -5000.00
02168               0.00    -5200.00
02169              34.00    -4800.00
02170               2.00    -5400.00
02171              56.00    -5400.00
02172             -30.00    -5400.00
02173              40.00    -6000.00
02174              32.00    -5800.00
02175              10.00    -6200.00
02176              14.00    -6400.00
02177              16.00    -6200.00
02178              32.00    -6800.00
02179              12.00    -6800.00
02180              56.00    -6800.00
02181              -2.00    -7200.00
02182              18.00    -7400.00
02183              48.00    -7400.00
02184              14.00    -7600.00
02185              40.00    -7800.00
02186              22.00    -7800.00
02187              24.00    -8200.00
02188              50.00    -8200.00
02189              22.00    -8200.00
02190              22.00    -8400.00
02191              50.00    -8600.00
02192              38.00    -8600.00
02193              30.00    -8600.00
02194              42.00    -9000.00
02195              36.00    -9200.00
02196              42.00    -9000.00
02197              48.00    -9200.00
02198              38.00    -9400.00
02199              46.00    -9600.00
02200              48.00    -9600.00
02201              38.00    -9800.00
02202              48.00    -9800.00
02203              48.00   -10000.00
02204              48.00   -10000.00
02205              64.00   -10000.00
02206              56.00   -10200.00
02207              50.00   -10400.00
02208              56.00   -10200.00
02209              58.00   -10600.00
02210              64.00   -10600.00
02211              70.00   -10600.00
02212              66.00   -10800.00
02213              64.00   -11000.00
02214              68.00   -11000.00
02215              70.00   -11000.00
02216              78.00   -11000.00
02217              76.00   -11000.00
02218              74.00   -11000.00
02219              84.00   -11200.00
02220              82.00   -11400.00
02221              80.00   -11400.00
02222              86.00   -11400.00
02223              86.00   -11400.00
02224              92.00   -11400.00
02225              96.00   -11600.00
02226              98.00   -11600.00
02227              98.00   -11600.00
02228              98.00   -11600.00
02229             102.00   -11800.00
02230             104.00   -11600.00
02231             110.00   -11600.00
02232             112.00   -11600.00
02233             114.00   -11600.00
02234             114.00   -11600.00
02235             118.00   -11800.00
02236             120.00   -11600.00
02237             124.00   -11800.00
02238             128.00   -11600.00
02239             128.00   -11600.00
02240             134.00   -11600.00
02241             136.00   -11600.00
02242             134.00   -11600.00
02243             134.00   -11600.00
02244             142.00   -11600.00
02245             142.00   -11400.00
02246             142.00   -11600.00
02247             142.00   -11600.00
02248             138.00   -11400.00
02249             138.00   -11400.00
02250             136.00   -11200.00
02251             134.00   -11400.00
02252             136.00   -11200.00
02253             134.00   -11200.00
02254             128.00   -11200.00
02255             126.00   -11000.00
02256             126.00   -11000.00
02257             120.00   -11000.00
02258             118.00   -10800.00
02259             114.00   -10800.00
02260             108.00   -10800.00
02261             104.00   -10600.00
02262             102.00   -10600.00
02263             102.00   -10400.00
02264              96.00   -10200.00
02265              94.00   -10200.00
02266              90.00   -10200.00
02267              86.00   -10200.00
02268              80.00   -10200.00
02269              80.00    -9800.00
02270              78.00    -9800.00
02271              78.00    -9800.00
02272              72.00    -9600.00
02273              70.00    -9400.00
02274              64.00    -9400.00
02275              64.00    -9400.00
02276              62.00    -9200.00
02277              58.00    -9000.00
02278              58.00    -9000.00
02279              56.00    -8800.00
02280              50.00    -8800.00
02281              48.00    -8600.00
02282              46.00    -8400.00
02283              46.00    -8200.00
02284              46.00    -8200.00
02285              44.00    -8000.00
02286              40.00    -7800.00
02287              38.00    -7800.00
02288              38.00    -7600.00
02289              34.00    -7400.00
02290              34.00    -7400.00
02291              34.00    -7000.00
02292              32.00    -7000.00
02293              30.00    -6800.00
02294              28.00    -6600.00
02295              30.00    -6600.00
02296              26.00    -6200.00
02297              24.00    -6200.00
02298              28.00    -6000.00
02299              24.00    -5800.00
02300              20.00    -5800.00
02301              22.00    -5400.00
02302              16.00    -5400.00
02303              22.00    -5200.00
02304              18.00    -5000.00
02305              18.00    -4800.00
02306              18.00    -4800.00
02307              16.00    -4400.00
02308              14.00    -4400.00
02309              14.00    -4200.00
02310              14.00    -3800.00
02311              14.00    -3800.00
02312              10.00    -3600.00
02313              10.00    -3600.00
02314              10.00    -3200.00
02315               8.00    -3000.00
02316              10.00    -3000.00
02317               8.00    -2600.00
02318               8.00    -2600.00
02319               6.00    -2600.00
02320               6.00    -2200.00
02321               0.00    -1800.00
02322               2.00    -1800.00
02323               2.00    -1400.00
02324               2.00    -1400.00
02325               4.00    -1200.00
02326               2.00    -1200.00
02327               0.00     -600.00
02328               0.00     -600.00
02329              -2.00     -400.00
02330              -2.00     -200.00
02331               0.00        0.00
02332              -2.00      200.00
02333               2.00      400.00
02334              10.00      400.00
02335              22.00      800.00
02336               0.00      800.00
02337             -10.00     1000.00
02338               0.00     1200.00
02339               6.00     1400.00
02340               2.00     1400.00
02341              82.00     1800.00
02342             246.00     2200.00
02343             -32.00     2400.00
02344            -254.00     2600.00
02345            -186.00     2600.00
02346              68.00     2800.00
02347             -10.00     2800.00
02348             246.00     3400.00
02349            -120.00     3200.00
02350            -254.00     3400.00
02351             246.00     4000.00
02352             -32.00     3600.00
02353            -152.00     4200.00
02354              64.00     4600.00
02355            -138.00     3800.00
02356             214.00     4800.00
02357             -80.00     4800.00
02358            -204.00     4600.00
02359             168.00     5800.00
02360             -98.00     5000.00
02361             -10.00     5200.00
02362               2.00     6000.00
02363             -58.00     5600.00
02364              38.00     6000.00
02365             -48.00     6200.00
02366             -24.00     6200.00
02367             -56.00     6600.00
02368               6.00     7000.00
02369             -40.00     6800.00
02370               0.00     7200.00
02371             -28.00     7400.00
02372             -94.00     7400.00
02373              38.00     7800.00
02374             -50.00     7600.00
02375             -30.00     7600.00
02376             -22.00     8200.00
02377             -56.00     8000.00
02378             -16.00     8200.00
02379             -36.00     8600.00
02380             -62.00     8400.00
02381             -30.00     9000.00
02382             -24.00     9000.00
02383             -58.00     9000.00
02384             -18.00     9200.00
02385             -54.00     9200.00
02386             -54.00     9200.00
02387             -34.00     9400.00
02388             -50.00     9600.00
02389             -48.00     9600.00
02390             -38.00     9800.00
02391             -54.00     9800.00
02392             -58.00    10000.00
02393             -50.00    10200.00
02394             -66.00    10000.00
02395             -42.00    10200.00
02396             -52.00    10200.00
02397             -72.00    10600.00
02398             -58.00    10600.00
02399             -66.00    10600.00
02400             -74.00    10800.00
02401             -62.00    10800.00
02402             -66.00    11000.00
02403             -70.00    11000.00
02404             -70.00    11000.00
02405             -80.00    11200.00
02406             -80.00    11200.00
02407             -80.00    11400.00
02408             -82.00    11400.00
02409             -80.00    11400.00
02410             -80.00    11400.00
02411             -92.00    11600.00
02412             -92.00    11400.00
02413             -94.00    11600.00
02414             -98.00    11800.00
02415             -94.00    11800.00
02416             -96.00    11800.00
02417            -100.00    11800.00
02418            -104.00    11800.00
02419            -110.00    11800.00
02420            -110.00    11800.00
02421            -106.00    11800.00
02422            -112.00    11800.00
02423            -112.00    11800.00
02424            -114.00    11800.00
02425            -122.00    11800.00
02426            -124.00    12000.00
02427            -126.00    12000.00
02428            -128.00    12000.00
02429            -128.00    11800.00
02430            -132.00    11800.00
02431            -138.00    11800.00
02432            -142.00    11800.00
02433            -144.00    11800.00
02434            -144.00    11800.00
02435            -142.00    11800.00
02436            -142.00    11800.00
02437            -144.00    11800.00
02438            -144.00    11800.00
02439            -150.00    11600.00
02440            -146.00    11600.00
02441            -142.00    11600.00
02442            -138.00    11600.00
02443            -136.00    11400.00
02444            -136.00    11600.00
02445            -138.00    11400.00
02446            -136.00    11400.00
02447            -132.00    11400.00
02448            -126.00    11400.00
02449            -120.00    11000.00
02450            -120.00    11000.00
02451            -118.00    11000.00
02452            -116.00    11000.00
02453            -112.00    11000.00
02454            -110.00    10800.00
02455            -104.00    10800.00
02456             -98.00    10600.00
02457             -96.00    10600.00
02458             -98.00    10400.00
02459             -96.00    10200.00
02460             -90.00    10200.00
02461             -86.00    10000.00
02462             -82.00    10000.00
02463             -80.00    10000.00
02464             -78.00     9800.00
02465             -78.00     9600.00
02466             -74.00     9600.00
02467             -74.00     9400.00
02468             -66.00     9400.00
02469             -64.00     9200.00
02470             -64.00     9200.00
02471             -64.00     9000.00
02472             -64.00     9000.00
02473             -62.00     8600.00
02474             -56.00     8600.00
02475             -50.00     8600.00
02476             -54.00     8400.00
02477             -50.00     8200.00
02478             -50.00     8000.00
02479             -48.00     7800.00
02480             -48.00     7800.00
02481             -48.00     7600.00
02482             -40.00     7400.00
02483             -38.00     7400.00
02484             -42.00     7000.00
02485             -38.00     7000.00
02486             -40.00     6800.00
02487             -34.00     6600.00
02488             -34.00     6600.00
02489             -30.00     6400.00
02490             -30.00     6200.00
02491             -30.00     6200.00
02492             -38.00     6000.00
02493             -30.00     5600.00
02494             -30.00     5600.00
02495             -24.00     5400.00
02496             -26.00     5200.00
02497             -26.00     5000.00
02498             -26.00     4800.00
02499             -24.00     4600.00
02500             -24.00     4600.00
02501             -18.00     4200.00
02502             -18.00     4200.00
02503             -18.00     3800.00
02504             -18.00     3800.00
02505             -18.00     3600.00
02506             -18.00     3400.00
02507             -16.00     3200.00
02508             -14.00     3000.00
02509             -16.00     2800.00
02510             -14.00     2600.00
02511             -16.00     2400.00
02512             -10.00     2200.00
02513             -14.00     2000.00
02514             -10.00     1800.00
02515              -8.00     1600.00
02516              -6.00     1400.00
02517              -6.00     1200.00
02518              -8.00     1000.00
02519              -8.00      800.00
02520              -8.00      600.00
02521              -8.00      400.00
02522              -2.00      400.00
02523               0.00      200.00
02524               0.00        0.00
02525               8.00     -200.00
02526              24.00     -200.00
02527               8.00     -600.00
02528              -8.00    -1000.00
02529              -2.00    -1000.00
02530              10.00    -1200.00
02531               6.00    -1400.00
02532              14.00    -1400.00
02533              90.00    -1600.00
02534             220.00    -2000.00
02535             -26.00    -2400.00
02536            -254.00    -2600.00
02537            -134.00    -2600.00
02538             126.00    -2800.00
02539             -48.00    -2800.00
02540              10.00    -2800.00
02541             232.00    -3400.00
02542            -166.00    -3400.00
02543              22.00    -3400.00
02544             148.00    -4200.00
02545             -80.00    -3800.00
02546              40.00    -4000.00
02547             -42.00    -4400.00
02548              70.00    -4400.00
02549              70.00    -4600.00
02550             -98.00    -5000.00
02551              40.00    -5000.00
02552               8.00    -5200.00
02553              30.00    -5600.00
02554              34.00    -5200.00
02555             -26.00    -5600.00
02556              54.00    -6000.00
02557              16.00    -5800.00
02558              16.00    -6200.00
02559              14.00    -6400.00
02560              26.00    -6200.00
02561              24.00    -6800.00
02562              18.00    -7000.00
02563              46.00    -6800.00
02564             -14.00    -7400.00
02565              40.00    -7400.00
02566              36.00    -7400.00
02567              20.00    -7800.00
02568              44.00    -7800.00
02569              16.00    -8000.00
02570              32.00    -8200.00
02571              40.00    -8000.00
02572              18.00    -8400.00
02573              30.00    -8600.00
02574              54.00    -8400.00
02575              32.00    -8800.00
02576              34.00    -9000.00
02577              44.00    -9000.00
02578              30.00    -9200.00
02579              44.00    -9200.00
02580              48.00    -9200.00
02581              44.00    -9400.00
02582              50.00    -9400.00
02583              46.00    -9600.00
02584              42.00    -9800.00
02585              54.00    -9800.00
02586              46.00   -10000.00
02587              54.00   -10000.00
02588              64.00   -10200.00
02589              52.00   -10200.00
02590              54.00   -10200.00
02591              58.00   -10600.00
02592              56.00   -10600.00
02593              62.00   -10600.00
02594              64.00   -10600.00
02595              66.00   -10800.00
02596              70.00   -10800.00
02597              66.00   -11000.00
02598              70.00   -11000.00
02599              74.00   -11000.00
02600              74.00   -11000.00
02601              78.00   -11400.00
02602              84.00   -11000.00
02603              80.00   -11400.00
02604              80.00   -11400.00
02605              86.00   -11400.00
02606              88.00   -11400.00
02607              92.00   -11400.00
02608              94.00   -11800.00
02609              96.00   -11600.00
02610              98.00   -11600.00
02611              96.00   -11600.00
02612              98.00   -11600.00
02613             104.00   -11800.00
02614             106.00   -11600.00
02615             110.00   -11600.00
02616             116.00   -11600.00
02617             120.00   -11600.00
02618             122.00   -11800.00
02619             126.00   -11600.00
02620             126.00   -11800.00
02621             128.00   -11600.00
02622             120.00   -11600.00
02623             122.00   -11600.00
02624             126.00   -11600.00
02625             126.00   -11400.00
02626             134.00   -11600.00
02627             150.00   -11400.00
02628             154.00   -11600.00
02629             156.00   -11600.00
02630             146.00   -11400.00
02631             136.00   -11400.00
02632             128.00   -11400.00
02633             120.00   -11400.00
02634             126.00   -11400.00
02635             128.00   -11000.00
02636             134.00   -11200.00
02637             134.00   -11000.00
02638             134.00   -11000.00
02639             126.00   -11000.00
02640             126.00   -10800.00
02641             114.00   -10800.00
02642             106.00   -10800.00
02643             106.00   -10800.00
02644             102.00   -10400.00
02645             102.00   -10600.00
02646              98.00   -10400.00
02647              94.00   -10400.00
02648              98.00   -10200.00
02649              96.00   -10200.00
02650              86.00   -10000.00
02651              86.00   -10000.00
02652              80.00    -9800.00
02653              78.00    -9800.00
02654              78.00    -9800.00
02655              70.00    -9400.00
02656              68.00    -9400.00
02657              64.00    -9400.00
02658              58.00    -9400.00
02659              62.00    -9000.00
02660              64.00    -9000.00
02661              60.00    -9000.00
02662              58.00    -8800.00
02663              50.00    -8600.00
02664              46.00    -8600.00
02665              48.00    -8400.00
02666              42.00    -8200.00
02667              42.00    -8200.00
02668              46.00    -8000.00
02669              44.00    -7800.00
02670              42.00    -7800.00
02671              38.00    -7600.00
02672              34.00    -7400.00
02673              30.00    -7400.00
02674              30.00    -7000.00
02675              32.00    -7200.00
02676              32.00    -6800.00
02677              28.00    -6800.00
02678              26.00    -6600.00
02679              32.00    -6200.00
02680              30.00    -6200.00
02681              18.00    -6000.00
02682              18.00    -5800.00
02683              22.00    -5800.00
02684              22.00    -5600.00
02685              22.00    -5200.00
02686              20.00    -5200.00
02687              26.00    -5000.00
02688              18.00    -4800.00
02689              12.00    -4600.00
02690              10.00    -4400.00
02691              14.00    -4400.00
02692              14.00    -4200.00
02693              14.00    -3800.00
02694              14.00    -3600.00
02695              16.00    -3600.00
02696              12.00    -3400.00
02697               6.00    -3200.00
02698               8.00    -3000.00
02699               6.00    -3000.00
02700               8.00    -2600.00
02701              10.00    -2400.00
02702               8.00    -2200.00
02703               8.00    -2000.00
02704               6.00    -2000.00
02705               2.00    -1600.00
02706               0.00    -1400.00
02707               2.00    -1400.00
02708               6.00    -1200.00
02709               6.00    -1000.00
02710               0.00     -800.00
02711               0.00     -600.00
02712              -2.00     -400.00
02713              -2.00     -200.00
02714               0.00        0.00
02715               0.00      200.00
02716               2.00      400.00
02717              20.00      400.00
02718              22.00      800.00
02719              -2.00      800.00
02720             -10.00     1000.00
02721               0.00     1200.00
02722               6.00     1400.00
02723              14.00     1600.00
02724             132.00     2000.00
02725             238.00     2400.00
02726            -170.00     2200.00
02727            -254.00     2600.00
02728             -88.00     2600.00
02729              48.00     2800.00
02730              54.00     3000.00
02731             246.00     3600.00
02732            -254.00     3000.00
02733            -130.00     3600.00
02734             246.00     4000.00
02735            -174.00     3400.00
02736             -42.00     4600.00
02737              -6.00     4400.00
02738             -80.00     4200.00
02739             232.00     5200.00
02740            -218.00     4600.00
02741             -70.00     5000.00
02742             136.00     5600.00
02743            -134.00     5000.00
02744              40.00     5800.00
02745             -46.00     6000.00
02746             -22.00     5800.00
02747              22.00     6200.00
02748             -46.00     6400.00
02749             -32.00     6400.00
02750             -42.00     6800.00
02751               4.00     6800.00
02752             -50.00     6800.00
02753              18.00     7400.00
02754             -68.00     7000.00
02755             -58.00     7400.00
02756              30.00     7800.00
02757             -66.00     7600.00
02758             -10.00     7800.00
02759             -40.00     8200.00
02760             -42.00     7800.00
02761             -16.00     8400.00
02762             -42.00     8600.00
02763             -58.00     8400.00
02764             -16.00     8800.00
02765             -40.00     9000.00
02766             -52.00     9000.00
02767             -20.00     9200.00
02768             -62.00     9400.00
02769             -42.00     9400.00
02770             -40.00     9400.00
02771             -50.00     9400.00
02772             -46.00     9800.00
02773             -40.00     9800.00
02774             -62.00     9800.00
02775             -54.00    10000.00
02776             -56.00    10000.00
02777             -62.00    10000.00
02778             -40.00    10400.00
02779             -58.00    10600.00
02780             -70.00    10600.00
02781             -58.00    10600.00
02782             -66.00    10800.00
02783             -72.00    10600.00
02784             -62.00    11000.00
02785             -70.00    11000.00
02786             -64.00    11000.00
02787             -74.00    11000.00
02788             -88.00    11200.00
02789             -74.00    11000.00
02790             -78.00    11400.00
02791             -90.00    11200.00
02792             -78.00    11600.00
02793             -74.00    11400.00
02794             -96.00    11400.00
02795             -94.00    11600.00
02796            -102.00    11600.00
02797             -98.00    11800.00
02798             -90.00    11800.00
02799             -94.00    11600.00
02800             -92.00    11800.00
02801            -114.00    11800.00
02802            -122.00    11800.00
02803            -104.00    11800.00
02804             -98.00    11800.00
02805            -116.00    11800.00
02806            -122.00    11800.00
02807            -114.00    11800.00
02808            -120.00    12000.00
02809            -134.00    11800.00
02810            -136.00    11800.00
02811            -122.00    11800.00
02812            -122.00    11800.00
02813            -138.00    11800.00
02814            -144.00    11800.00
02815            -136.00    11800.00
02816            -142.00    12000.00
02817            -152.00    11800.00
02818            -144.00    11800.00
02819            -140.00    11800.00
02820            -144.00    11800.00
02821            -146.00    11800.00
02822            -150.00    11600.00
02823            -146.00    11600.00
02824            -142.00    11600.00
02825            -142.00    11600.00
02826            -134.00    11600.00
02827            -138.00    11600.00
02828            -142.00    11400.00
02829            -134.00    11400.00
02830            -130.00    11200.00
02831            -126.00    11400.00
02832            -118.00    11400.00
02833            -120.00    11000.00
02834            -114.00    11000.00
02835            -112.00    10800.00
02836            -112.00    11000.00
02837            -106.00    11000.00
02838            -104.00    10600.00
02839            -104.00    10600.00
02840             -94.00    10600.00
02841             -94.00    10400.00
02842             -90.00    10400.00
02843             -88.00    10200.00
02844             -86.00    10200.00
02845             -82.00    10000.00
02846             -80.00     9800.00
02847             -78.00     9800.00
02848             -74.00     9800.00
02849             -74.00     9600.00
02850             -70.00     9400.00
02851             -64.00     9400.00
02852             -66.00     9200.00
02853             -68.00     9000.00
02854             -66.00     9000.00
02855             -58.00     8800.00
02856             -58.00     8600.00
02857             -54.00     8600.00
02858             -50.00     8400.00
02859             -50.00     8200.00
02860             -54.00     8200.00
02861             -54.00     8000.00
02862             -48.00     7800.00
02863             -46.00     7600.00
02864             -42.00     7600.00
02865             -40.00     7400.00
02866             -42.00     7400.00
02867             -42.00     7200.00
02868             -40.00     7000.00
02869             -36.00     6800.00
02870             -34.00     6600.00
02871             -34.00     6600.00
02872             -32.00     6200.00
02873             -32.00     6200.00
02874             -30.00     6000.00
02875             -26.00     5800.00
02876             -32.00     5600.00
02877             -32.00     5400.00
02878             -26.00     5400.00
02879             -18.00     5200.00
02880             -26.00     5000.00
02881             -26.00     4600.00
02882             -22.00     4600.00
02883             -18.00     4400.00
02884             -26.00     4200.00
02885             -24.00     3800.00
02886             -16.00     3800.00
02887             -16.00     3600.00
02888             -18.00     3600.00
02889             -14.00     3400.00
02890             -14.00     3000.00
02891             -18.00     2800.00
02892             -16.00     2800.00
02893             -14.00     2600.00
02894             -10.00     2400.00
02895             -10.00     2200.00
02896             -10.00     2000.00
02897             -10.00     1800.00
02898             -10.00     1600.00
02899             -16.00     1400.00
02900             -10.00     1200.00
02901              -2.00     1000.00
02902               0.00      600.00
02903              -2.00      800.00
02904             -14.00      400.00
02905             -10.00      400.00
02906               0.00      200.00
02907               6.00        0.00
02908              16.00     -400.00
02909              22.00     -400.00
02910              -2.00     -600.00
02911             -10.00     -800.00
02912               0.00    -1000.00
02913              14.00    -1200.00
02914               8.00    -1400.00
02915              26.00    -1600.00
02916             134.00    -1800.00
02917             206.00    -2000.00
02918            -136.00    -2600.00
02919            -254.00    -2600.00
02920             -42.00    -2800.00
02921             112.00    -2800.00
02922            -100.00    -2800.00
02923             106.00    -2800.00
02924             160.00    -3600.00
02925            -202.00    -3200.00
02926             126.00    -3600.00
02927              74.00    -4000.00
02928             -66.00    -3800.00
02929              48.00    -4200.00
02930             -54.00    -4400.00
02931             116.00    -4400.00
02932               2.00    -4600.00
02933             -76.00    -5200.00
02934              54.00    -5000.00
02935             -14.00    -5200.00
02936              56.00    -5600.00
02937               6.00    -5200.00
02938              -6.00    -5800.00
02939              54.00    -6000.00
02940               6.00    -6000.00
02941              22.00    -6400.00
02942               6.00    -6200.00
02943              32.00    -6400.00
02944              14.00    -6800.00
02945              34.00    -6800.00
02946              32.00    -7200.00
02947             -10.00    -7200.00
02948              54.00    -7400.00
02949              24.00    -7600.00
02950              26.00    -7800.00
02951              38.00    -7800.00
02952              14.00    -8200.00
02953              42.00    -8200.00
02954              34.00    -8200.00
02955              16.00    -8400.00
02956              34.00    -8600.00
02957              48.00    -8600.00
02958              28.00    -8600.00
02959              40.00    -9000.00
02960              40.00    -9000.00
02961              32.00    -9200.00
02962              48.00    -9200.00
02963              42.00    -9200.00
02964              44.00    -9400.00
02965              48.00    -9400.00
02966              46.00    -9800.00
02967              48.00    -9800.00
02968              54.00   -10000.00
02969              46.00    -9800.00
02970              56.00   -10000.00
02971              64.00   -10200.00
02972              52.00   -10200.00
02973              58.00   -10400.00
02974              58.00   -10600.00
02975              58.00   -10400.00
02976              64.00   -10600.00
02977              66.00   -10600.00
02978              70.00   -10800.00
02979              72.00   -10800.00
02980              66.00   -11000.00
02981              70.00   -11000.00
02982              74.00   -11000.00
02983              78.00   -11200.00
02984              80.00   -11200.00
02985              86.00   -11400.00
02986              78.00   -11400.00
02987              80.00   -11400.00
02988              86.00   -11400.00
02989              90.00   -11400.00
02990              94.00   -11400.00
02991              96.00   -11400.00
02992              98.00   -11600.00
02993              98.00   -11600.00
02994              96.00   -11600.00
02995             102.00   -11600.00
02996             108.00   -11800.00
02997             108.00   -11600.00
02998             112.00   -11600.00
02999             118.00   -11800.00
03000             114.00   -11800.00
03001             114.00   -11800.00
03002             122.00   -11600.00
03003             126.00   -11600.00
03004             128.00   -11600.00
03005             132.00   -11600.00
03006             130.00   -11800.00
03007             134.00   -11600.00
03008             134.00   -11600.00
03009             138.00   -11600.00
03010             142.00   -11600.00
03011             142.00   -11400.00
03012             142.00   -11600.00
03013             140.00   -11600.00
03014             136.00   -11400.00
03015             134.00   -11400.00
03016             132.00   -11400.00
03017             136.00   -11400.00
03018             134.00   -11400.00
03019             128.00   -11200.00
03020             126.00   -11000.00
03021             126.00   -11000.00
03022             120.00   -11000.00
03023             118.00   -11000.00
03024             114.00   -10800.00
03025             114.00   -10600.00
03026             106.00   -10400.00
03027             104.00   -10600.00
03028              98.00   -10600.00
03029             100.00   -10400.00
03030              96.00   -10400.00
03031              94.00   -10200.00
03032              88.00   -10200.00
03033              86.00   -10000.00
03034              80.00   -10000.00
03035              78.00   -10000.00
03036              78.00    -9800.00
03037              76.00    -9600.00
03038              74.00    -9600.00
03039              70.00    -9400.00
03040              64.00    -9200.00
03041              62.00    -9200.00
03042              62.00    -9200.00
03043              58.00    -8800.00
03044              58.00    -8800.00
03045              54.00    -8600.00
03046              54.00    -8600.00
03047              48.00    -8600.00
03048              46.00    -8400.00
03049              46.00    -8200.00
03050              44.00    -8000.00
03051              42.00    -8200.00
03052              40.00    -7800.00
03053              38.00    -7800.00
03054              34.00    -7600.00
03055              34.00    -7400.00
03056              34.00    -7200.00
03057              34.00    -7200.00
03058              32.00    -6800.00
03059              30.00    -6800.00
03060              28.00    -6600.00
03061              26.00    -6600.00
03062              26.00    -6200.00
03063              28.00    -6200.00
03064              26.00    -6000.00
03065              24.00    -5800.00
03066              20.00    -5600.00
03067              18.00    -5600.00
03068              16.00    -5400.00
03069              16.00    -5200.00
03070              18.00    -5000.00
03071              18.00    -5000.00
03072              16.00    -4600.00
03073              14.00    -4400.00
03074              14.00    -4200.00
03075              14.00    -4000.00
03076              14.00    -3800.00
03077              14.00    -3600.00
03078              12.00    -3400.00
03079              10.00    -3400.00
03080               8.00    -3000.00
03081               8.00    -3000.00
03082               8.00    -2800.00
03083               8.00    -2800.00
03084               8.00    -2400.00
03085               8.00    -2200.00
03086               6.00    -2000.00
03087               2.00    -1800.00
03088               6.00    -1600.00
03089               8.00    -1400.00
03090               2.00    -1200.00
03091               2.00    -1000.00
03092               2.00    -1000.00
03093               2.00     -800.00
03094               0.00     -400.00
03095              -2.00     -400.00
03096               0.00        0.00
03097               2.00      200.00
03098               2.00      200.00
03099               6.00      400.00
03100              24.00      600.00
03101              14.00      800.00
03102              -8.00     1000.00
03103              -8.00     1200.00
03104               8.00     1400.00
03105               8.00     1600.00
03106              26.00     1800.00
03107             188.00     2000.00
03108             174.00     2400.00
03109            -254.00     2400.00
03110            -254.00     2800.00
03111               6.00     2600.00
03112               6.00     2800.00
03113             154.00     3000.00
03114             214.00     3400.00
03115            -254.00     3000.00
03116              86.00     3800.00
03117             246.00     3800.00
03118            -238.00     3600.00
03119              48.00     4600.00
03120             -90.00     4000.00
03121              36.00     4400.00
03122             166.00     5000.00
03123            -254.00     4400.00
03124              62.00     5200.00
03125              54.00     5400.00
03126            -114.00     5000.00
03127              54.00     5800.00
03128             -76.00     5600.00
03129              16.00     6000.00
03130             -10.00     6400.00
03131             -40.00     6200.00
03132             -40.00     6200.00
03133             -26.00     6800.00
03134              -6.00     6800.00
03135             -44.00     6800.00
03136              20.00     7400.00
03137            -102.00     7000.00
03138             -16.00     7400.00
03139               8.00     7800.00
03140             -66.00     7600.00
03141              -2.00     8000.00
03142             -54.00     8200.00
03143             -32.00     8200.00
03144             -22.00     8400.00
03145             -54.00     8400.00
03146             -56.00     8600.00
03147             -10.00     8800.00
03148             -54.00     9000.00
03149             -42.00     9200.00
03150             -30.00     9200.00
03151             -66.00     9200.00
03152             -38.00     9400.00
03153             -46.00     9600.00
03154             -50.00     9400.00
03155             -42.00     9800.00
03156             -46.00     9800.00
03157             -64.00     9800.00
03158             -50.00    10000.00
03159             -62.00    10000.00
03160             -54.00    10200.00
03161             -40.00    10200.00
03162             -66.00    10400.00
03163             -66.00    10600.00
03164             -62.00    10600.00
03165             -72.00    10600.00
03166             -68.00    10800.00
03167             -62.00    11000.00
03168             -72.00    11000.00
03169             -64.00    11000.00
03170             -72.00    11000.00
03171             -80.00    11000.00
03172             -80.00    11400.00
03173             -82.00    11200.00
03174             -78.00    11400.00
03175             -74.00    11600.00
03176             -88.00    11400.00
03177             -96.00    11600.00
03178             -90.00    11600.00
03179             -96.00    11600.00
03180             -92.00    11600.00
03181             -94.00    11600.00
03182             -98.00    11800.00
03183            -102.00    11800.00
03184            -110.00    11800.00
03185            -112.00    11800.00
03186            -106.00    11800.00
03187            -110.00    11800.00
03188            -112.00    11800.00
03189            -114.00    11800.00
03190            -122.00    12000.00
03191            -128.00    11800.00
03192            -128.00    11800.00
03193            -128.00    11800.00
03194            -130.00    12000.00
03195            -130.00    11800.00
03196            -136.00    11800.00
03197            -138.00    11800.00
03198            -142.00    11800.00
03199            -144.00    11800.00
03200            -144.00    11800.00
03201            -144.00    11800.00
03202            -144.00    11600.00
03203            -144.00    11800.00
03204            -150.00    11800.00
03205            -150.00    11800.00
03206            -144.00    11600.00
03207            -142.00    11800.00
03208            -138.00    11600.00
03209            -138.00    11600.00
03210            -136.00    11400.00
03211            -136.00    11400.00
03212            -132.00    11400.00
03213            -128.00    11400.00
03214            -122.00    11400.00
03215            -122.00    11000.00
03216            -120.00    11200.00
03217            -118.00    10800.00
03218            -112.00    11000.00
03219            -106.00    10800.00
03220            -104.00    10800.00
03221            -100.00    10800.00
03222             -98.00    10600.00
03223             -96.00    10400.00
03224             -94.00    10200.00
03225             -90.00    10400.00
03226             -86.00    10200.00
03227             -86.00    10200.00
03228             -78.00    10000.00
03229             -78.00    10000.00
03230             -78.00     9800.00
03231             -74.00     9800.00
03232             -72.00     9400.00
03233             -70.00     9400.00
03234             -64.00     9200.00
03235             -62.00     9200.00
03236             -62.00     9000.00
03237             -64.00     9000.00
03238             -56.00     9000.00
03239             -56.00     8600.00
03240             -56.00     8600.00
03241             -50.00     8400.00
03242             -48.00     8400.00
03243             -50.00     8200.00
03244             -54.00     7800.00
03245             -48.00     7800.00
03246             -46.00     7800.00
03247             -40.00     7600.00
03248             -44.00     7400.00
03249             -46.00     7200.00
03250             -34.00     7000.00
03251             -34.00     7000.00
03252             -40.00     6800.00
03253             -40.00     6600.00
03254             -32.00     6200.00
03255             -28.00     6200.00
03256             -32.00     6200.00
03257             -40.00     6000.00
03258             -30.00     5800.00
03259             -24.00     5600.00
03260             -26.00     5400.00
03261             -26.00     5200.00
03262             -24.00     5000.00
03263             -24.00     4800.00
03264             -26.00     4600.00
03265             -30.00     4600.00
03266             -22.00     4400.00
03267             -16.00     4200.00
03268             -18.00     4000.00
03269             -22.00     3800.00
03270             -14.00     3600.00
03271             -18.00     3600.00
03272             -22.00     3400.00
03273             -16.00     3000.00
03274             -10.00     3000.00
03275             -10.00     2600.00
03276             -16.00     2400.00
03277             -14.00     2200.00
03278             -10.00     2200.00
03279             -14.00     1800.00
03280             -16.00     1600.00
03281             -10.00     1400.00
03282              -2.00     1400.00
03283              -6.00     1200.00
03284              -8.00     1000.00
03285             -10.00      800.00
03286              -8.00      600.00
03287              -6.00      400.00
03288              -2.00      400.00
03289               0.00     -200.00
03290               2.00     -200.00
03291              18.00     -200.00
03292              20.00     -600.00
03293              -6.00     -600.00
03294              -8.00    -1000.00
03295               8.00    -1200.00
03296              14.00    -1200.00
03297               6.00    -1400.00
03298              40.00    -1400.00
03299             176.00    -1800.00
03300             150.00    -2200.00
03301            -232.00    -2200.00
03302            -254.00    -2600.00
03303              48.00    -2600.00
03304              70.00    -2800.00
03305             -98.00    -2800.00
03306             198.00    -3000.00
03307              34.00    -3400.00
03308            -162.00    -3200.00
03309             184.00    -3800.00
03310              -6.00    -4000.00
03311             -30.00    -3800.00
03312              22.00    -4200.00
03313             -30.00    -4400.00
03314             130.00    -4400.00
03315             -56.00    -4800.00
03316             -32.00    -5000.00
03317              48.00    -4800.00
03318             -10.00    -5400.00
03319              62.00    -5400.00
03320             -24.00    -5400.00
03321              22.00    -6000.00
03322              46.00    -6000.00
03323               6.00    -6000.00
03324              18.00    -6600.00
03325               8.00    -6200.00
03326              34.00    -6600.00
03327               8.00    -6800.00
03328              46.00    -7000.00
03329              10.00    -7200.00
03330               0.00    -7400.00
03331              54.00    -7400.00
03332              16.00    -7600.00
03333              38.00    -7800.00
03334              30.00    -7800.00
03335              18.00    -8200.00
03336              46.00    -8200.00
03337              24.00    -8200.00
03338              18.00    -8600.00
03339              42.00    -8400.00
03340              46.00    -8600.00
03341              26.00    -8800.00
03342              44.00    -9000.00
03343              38.00    -9200.00
03344              36.00    -9200.00
03345              48.00    -9200.00
03346              42.00    -9400.00
03347              46.00    -9600.00
03348              50.00    -9400.00
03349              42.00    -9800.00
03350              48.00    -9800.00
03351              52.00   -10000.00
03352              48.00   -10200.00
03353              64.00   -10000.00
03354              62.00   -10200.00
03355              50.00   -10200.00
03356              58.00   -10200.00
03357              56.00   -10400.00
03358              58.00   -10400.00
03359              66.00   -10600.00
03360              66.00   -10600.00
03361              70.00   -10800.00
03362              70.00   -11000.00
03363              70.00   -11000.00
03364              70.00   -11000.00
03365              78.00   -11000.00
03366              76.00   -11200.00
03367              84.00   -11200.00
03368              84.00   -11200.00
03369              80.00   -11400.00
03370              84.00   -11400.00
03371              88.00   -11400.00
03372              88.00   -11600.00
03373              94.00   -11400.00
03374              96.00   -11600.00
03375              98.00   -11600.00
03376              96.00   -11600.00
03377             102.00   -11600.00
03378             104.00   -11600.00
03379             110.00   -11600.00
03380             110.00   -11800.00
03381             114.00   -11800.00
03382             116.00   -11800.00
03383             116.00   -11800.00
03384             118.00   -11800.00
03385             124.00   -11600.00
03386             128.00   -11800.00
03387             130.00   -11800.00
03388             128.00   -11600.00
03389             132.00   -11800.00
03390             134.00   -11600.00
03391             136.00   -11400.00
03392             134.00   -11600.00
03393             144.00   -11600.00
03394             144.00   -11600.00
03395             136.00   -11400.00
03396             138.00   -11400.00
03397             138.00   -11400.00
03398             138.00   -11400.00
03399             134.00   -11400.00
03400             136.00   -11400.00
03401             138.00   -11200.00
03402             126.00   -11000.00
03403             120.00   -11000.00
03404             126.00   -11000.00
03405             122.00   -11000.00
03406             114.00   -10800.00
03407             112.00   -10800.00
03408             114.00   -10800.00
03409             112.00   -10800.00
03410             102.00   -10600.00
03411              98.00   -10600.00
03412             102.00   -10400.00
03413             100.00   -10400.00
03414              94.00   -10200.00
03415              82.00   -10200.00
03416              82.00   -10000.00
03417              82.00    -9800.00
03418              80.00    -9800.00
03419              74.00    -9800.00
03420              76.00    -9600.00
03421              74.00    -9400.00
03422              70.00    -9400.00
03423              62.00    -9400.00
03424              62.00    -9200.00
03425              62.00    -9000.00
03426              64.00    -8800.00
03427              56.00    -8800.00
03428              54.00    -8600.00
03429              56.00    -8600.00
03430              48.00    -8600.00
03431              48.00    -8400.00
03432              46.00    -8200.00
03433              46.00    -8000.00
03434              42.00    -8000.00
03435              38.00    -7800.00
03436              38.00    -7600.00
03437              38.00    -7600.00
03438              40.00    -7200.00
03439              34.00    -7000.00
03440              32.00    -7000.00
03441              30.00    -6800.00
03442              28.00    -6800.00
03443              28.00    -6600.00
03444              30.00    -6400.00
03445              26.00    -6200.00
03446              30.00    -6000.00
03447              24.00    -6000.00
03448              22.00    -5800.00
03449              20.00    -5800.00
03450              20.00    -5400.00
03451              18.00    -5200.00
03452              18.00    -5000.00
03453              16.00    -5000.00
03454              16.00    -4800.00
03455              16.00    -4400.00
03456              14.00    -4200.00
03457              10.00    -4200.00
03458              16.00    -3800.00
03459              14.00    -3800.00
03460              14.00    -3600.00
03461               8.00    -3400.00
03462               8.00    -3400.00
03463              10.00    -3200.00
03464               6.00    -3000.00
03465               6.00    -2800.00
03466               8.00    -2400.00
03467               8.00    -2400.00
03468               8.00    -2000.00
03469               6.00    -2000.00
03470               2.00    -1800.00
03471               2.00    -1600.00
03472               2.00    -1400.00
03473               2.00    -1200.00
03474               2.00    -1000.00
03475               2.00    -1000.00
03476              -2.00     -600.00
03477               0.00     -400.00
03478               0.00     -200.00
03479               2.00        0.00
03480               0.00      200.00
03481               0.00      400.00
03482              12.00      600.00
03483              24.00      600.00
03484               6.00      800.00
03485             -10.00     1200.00
03486              -2.00     1200.00
03487              10.00     1200.00
03488               6.00     1400.00
03489              56.00     2000.00
03490             234.00     2400.00
03491              64.00     2400.00
03492            -254.00     2400.00
03493            -254.00     2800.00
03494              64.00     2800.00
03495             -14.00     3000.00
03496             246.00     3400.00
03497              34.00     3400.00
03498            -254.00     3000.00
03499             246.00     4200.00
03500             102.00     3600.00
03501            -216.00     4000.00
03502              80.00     4600.00
03503            -142.00     4000.00
03504             150.00     4600.00
03505              40.00     5000.00
03506            -254.00     4400.00
03507             142.00     5400.00
03508             -48.00     5400.00
03509             -50.00     5000.00
03510              42.00     6000.00
03511             -86.00     5600.00
03512              26.00     6000.00
03513             -34.00     6600.00
03514             -22.00     6000.00
03515             -54.00     6600.00
03516              -6.00     6800.00
03517             -24.00     6600.00
03518             -24.00     7000.00
03519              -8.00     7400.00
03520            -110.00     7000.00
03521              28.00     7600.00
03522             -26.00     7800.00
03523             -48.00     7600.00
03524             -10.00     8200.00
03525             -64.00     8000.00
03526             -30.00     8200.00
03527             -32.00     8600.00
03528             -52.00     8400.00
03529             -38.00     8800.00
03530             -18.00     9000.00
03531             -64.00     9000.00
03532             -26.00     9200.00
03533             -38.00     9200.00
03534             -64.00     9200.00
03535             -38.00     9400.00
03536             -48.00     9400.00
03537             -50.00     9400.00
03538             -42.00     9800.00
03539             -50.00     9800.00
03540             -58.00    10000.00
03541             -50.00    10200.00
03542             -72.00    10000.00
03543             -48.00    10400.00
03544             -42.00    10400.00
03545             -70.00    10400.00
03546             -62.00    10600.00
03547             -62.00    10600.00
03548             -74.00    10800.00
03549             -66.00    10800.00
03550             -64.00    10800.00
03551             -72.00    11000.00
03552             -64.00    11000.00
03553             -80.00    11200.00
03554             -80.00    11200.00
03555             -78.00    11200.00
03556             -86.00    11400.00
03557             -80.00    11400.00
03558             -74.00    11400.00
03559             -88.00    11600.00
03560             -90.00    11600.00
03561             -90.00    11600.00
03562             -96.00    11600.00
03563             -90.00    11800.00
03564             -94.00    11800.00
03565             -98.00    11800.00
03566             -98.00    11800.00
03567            -110.00    11800.00
03568            -112.00    11800.00
03569            -110.00    11800.00
03570            -112.00    11800.00
03571            -112.00    11800.00
03572            -118.00    11800.00
03573            -126.00    11800.00
03574            -126.00    11800.00
03575            -126.00    11800.00
03576            -130.00    11800.00
03577            -130.00    11800.00
03578            -130.00    11800.00
03579            -138.00    12000.00
03580            -138.00    11800.00
03581            -144.00    11800.00
03582            -144.00    11800.00
03583            -148.00    11800.00
03584            -144.00    11800.00
03585            -138.00    11800.00
03586            -144.00    11800.00
03587            -154.00    11800.00
03588            -152.00    11600.00
03589            -138.00    11600.00
03590            -138.00    11600.00
03591            -144.00    11600.00
03592            -138.00    11400.00
03593            -128.00    11400.00
03594            -136.00    11400.00
03595            -138.00    11400.00
03596            -132.00    11200.00
03597            -122.00    11200.00
03598            -120.00    11000.00
03599            -114.00    11000.00
03600            -110.00    11000.00
03601            -108.00    10800.00
03602            -114.00    10800.00
03603            -110.00    10600.00
03604             -96.00    10600.00
03605             -94.00    10600.00
03606             -96.00    10600.00
03607             -90.00    10400.00
03608             -90.00    10200.00
03609             -86.00    10200.00
03610             -86.00    10000.00
03611             -82.00    10000.00
03612             -74.00    10000.00
03613             -74.00     9800.00
03614             -74.00     9600.00
03615             -72.00     9400.00
03616             -68.00     9400.00
03617             -64.00     9200.00
03618             -64.00     9000.00
03619             -62.00     9000.00
03620             -58.00     9000.00
03621             -58.00     8600.00
03622             -58.00     8600.00
03623             -50.00     8400.00
03624             -50.00     8400.00
03625             -48.00     8200.00
03626             -50.00     8000.00
03627             -48.00     8000.00
03628             -48.00     7800.00
03629             -40.00     7600.00
03630             -40.00     7400.00
03631             -38.00     7400.00
03632             -44.00     7200.00
03633             -36.00     7000.00
03634             -38.00     6800.00
03635             -34.00     6800.00
03636             -36.00     6600.00
03637             -32.00     6400.00
03638             -32.00     6200.00
03639             -28.00     6000.00
03640             -34.00     6000.00
03641             -32.00     5600.00
03642             -30.00     5600.00
03643             -24.00     5400.00
03644             -24.00     5200.00
03645             -26.00     5000.00
03646             -26.00     4800.00
03647             -24.00     4600.00
03648             -22.00     4400.00
03649             -22.00     4400.00
03650             -24.00     4200.00
03651             -18.00     3800.00
03652             -16.00     3800.00
03653             -20.00     3600.00
03654             -22.00     3600.00
03655             -18.00     3200.00
03656             -16.00     3000.00
03657             -14.00     2800.00
03658             -14.00     2600.00
03659             -14.00     2600.00
03660             -10.00     2200.00
03661             -12.00     2200.00
03662             -16.00     1800.00
03663             -14.00     1800.00
03664             -10.00     1400.00
03665             -10.00     1400.00
03666             -10.00     1000.00
03667              -8.00     1000.00
03668              -8.00      600.00
03669              -6.00      600.00
03670              -4.00      400.00
03671              -2.00      200.00
03672              -2.00        0.00
03673               2.00     -200.00
03674              22.00     -400.00
03675              16.00     -400.00
03676              -2.00     -600.00
03677              -8.00    -1000.00
03678               6.00    -1200.00
03679              10.00    -1400.00
03680               8.00    -1400.00
03681              66.00    -1600.00
03682             210.00    -1800.00
03683              58.00    -2200.00
03684            -254.00    -2400.00
03685            -200.00    -2600.00
03686             106.00    -2600.00
03687              -2.00    -3000.00
03688             -54.00    -2600.00
03689             242.00    -3400.00
03690             -94.00    -3400.00
03691             -64.00    -3200.00
03692             178.00    -3800.00
03693             -66.00    -3800.00
03694              18.00    -3800.00
03695             -14.00    -4200.00
03696              26.00    -4400.00
03697             110.00    -4400.00
03698             -96.00    -5000.00
03699              10.00    -5000.00
03700              26.00    -5000.00
03701               8.00    -5600.00
03702              54.00    -5400.00
03703             -32.00    -5400.00
03704              42.00    -6000.00
03705              26.00    -5800.00
03706              12.00    -6200.00
03707              12.00    -6600.00
03708              18.00    -6400.00
03709              32.00    -6800.00
03710              10.00    -6800.00
03711              46.00    -6800.00
03712              -8.00    -7400.00
03713              24.00    -7200.00
03714              48.00    -7400.00
03715              16.00    -7600.00
03716              42.00    -7800.00
03717              20.00    -7800.00
03718              22.00    -8200.00
03719              42.00    -8200.00
03720              18.00    -8200.00
03721              24.00    -8600.00
03722              52.00    -8600.00
03723              34.00    -8600.00
03724              30.00    -8800.00
03725              42.00    -9000.00
03726              32.00    -9000.00
03727              40.00    -9200.00
03728              48.00    -9200.00
03729              40.00    -9400.00
03730              48.00    -9400.00
03731              48.00    -9400.00
03732              40.00    -9800.00
03733              54.00   -10000.00
03734              48.00   -10000.00
03735              50.00   -10000.00
03736              70.00   -10000.00
03737              56.00   -10200.00
03738              54.00   -10200.00
03739              58.00   -10600.00
03740              56.00   -10600.00
03741              64.00   -10800.00
03742              68.00   -10600.00
03743              70.00   -10800.00
03744              72.00   -10800.00
03745              72.00   -10800.00
03746              70.00   -10800.00
03747              74.00   -11000.00
03748              78.00   -11000.00
03749              80.00   -11200.00
03750              86.00   -11200.00
03751              82.00   -11400.00
03752              80.00   -11400.00
03753              86.00   -11400.00
03754              86.00   -11400.00
03755              92.00   -11600.00
03756              96.00   -11400.00
03757             102.00   -11600.00
03758             100.00   -11400.00
03759             102.00   -11600.00
03760             102.00   -11600.00
03761             106.00   -11600.00
03762             112.00   -11600.00
03763             112.00   -11600.00
03764             114.00   -11800.00
03765             114.00   -11600.00
03766             118.00   -11800.00
03767             120.00   -11600.00
03768             124.00   -11800.00
03769             128.00   -11800.00
03770             130.00   -11600.00
03771             128.00   -11600.00
03772             132.00   -11800.00
03773             134.00   -11600.00
03774             136.00   -11600.00
03775             142.00   -11400.00
03776             142.00   -11600.00
03777             140.00   -11400.00
03778             142.00   -11600.00
03779             138.00   -11600.00
03780             136.00   -11400.00
03781             134.00   -11400.00
03782             134.00   -11400.00
03783             136.00   -11200.00
03784             132.00   -11400.00
03785             126.00   -11200.00
03786             122.00   -11000.00
03787             122.00   -11000.00
03788             118.00   -11000.00
03789             118.00   -11000.00
03790             118.00   -11000.00
03791             110.00   -10800.00
03792             106.00   -10600.00
03793             102.00   -10600.00
03794              98.00   -10400.00
03795              98.00   -10200.00
03796              96.00   -10400.00
03797              88.00   -10200.00
03798              88.00   -10200.00
03799              80.00   -10000.00
03800              80.00    -9800.00
03801              78.00    -9800.00
03802              78.00    -9800.00
03803              72.00    -9800.00
03804              72.00    -9400.00
03805              66.00    -9400.00
03806              64.00    -9400.00
03807              64.00    -9200.00
03808              62.00    -9000.00
03809              62.00    -8800.00
03810              54.00    -8600.00
03811              54.00    -8600.00
03812              50.00    -8600.00
03813              50.00    -8400.00
03814              48.00    -8400.00
03815              48.00    -8200.00
03816              44.00    -8000.00
03817              42.00    -7800.00
03818              38.00    -7600.00
03819              38.00    -7600.00
03820              38.00    -7400.00
03821              34.00    -7400.00
03822              36.00    -7000.00
03823              34.00    -7000.00
03824              32.00    -6800.00
03825              32.00    -6600.00
03826              26.00    -6600.00
03827              26.00    -6400.00
03828              26.00    -6200.00
03829              30.00    -6000.00
03830              26.00    -5800.00
03831              22.00    -5800.00
03832              18.00    -5600.00
03833              18.00    -5200.00
03834              22.00    -5400.00
03835              18.00    -5000.00
03836              16.00    -5000.00
03837              16.00    -4600.00
03838              16.00    -4400.00
03839              14.00    -4400.00
03840              14.00    -4200.00
03841              14.00    -4000.00
03842              12.00    -3800.00
03843               6.00    -3600.00
03844               8.00    -3400.00
03845              10.00    -3200.00
03846              10.00    -3000.00
03847               6.00    -2800.00
03848               6.00    -2600.00
03849               6.00    -2600.00
03850               6.00    -2200.00
03851               4.00    -2200.00
03852               0.00    -2000.00
03853               0.00    -1800.00
03854               6.00    -1600.00
03855               4.00    -1400.00
03856               4.00    -1200.00
03857               0.00    -1000.00
03858               0.00    -1000.00
03859              -2.00     -600.00
03860              -2.00     -400.00
03861               0.00     -200.00
03862               2.00      200.00
03863               2.00      200.00
03864               0.00      400.00
03865              10.00      400.00
03866              22.00      600.00
03867               0.00     1000.00
03868             -10.00     1000.00
03869               0.00     1200.00
03870              10.00     1400.00
03871               6.00     1600.00
03872              96.00     2000.00
03873             246.00     2200.00
03874             -68.00     2200.00
03875            -254.00     2600.00
03876            -162.00     2600.00
03877              68.00     2800.00
03878               6.00     2800.00
03879             246.00     3400.00
03880            -174.00     3200.00
03881            -254.00     3400.00
03882             246.00     4000.00
03883             -74.00     3400.00
03884            -122.00     4200.00
03885              50.00     4400.00
03886            -128.00     4000.00
03887             224.00     5000.00
03888            -120.00     4800.00
03889            -168.00     4600.00
03890             168.00     5600.00
03891            -112.00     5000.00
03892               8.00     5400.00
03893             -10.00     6000.00
03894             -50.00     5600.00
03895              32.00     6200.00
03896             -48.00     6400.00
03897             -26.00     6200.00
03898             -56.00     6800.00
03899               6.00     6800.00
03900             -42.00     6800.00
03901               8.00     7200.00
03902             -40.00     7000.00
03903             -90.00     7000.00
03904              38.00     7800.00
03905             -56.00     7600.00
03906             -26.00     7800.00
03907             -28.00     8200.00
03908             -50.00     8200.00
03909             -16.00     8200.00
03910             -40.00     8600.00
03911             -66.00     8400.00
03912             -24.00     8800.00
03913             -26.00     8800.00
03914             -58.00     9000.00
03915             -20.00     9200.00
03916             -58.00     9200.00
03917             -54.00     9400.00
03918             -36.00     9400.00
03919             -54.00     9400.00
03920             -48.00     9600.00
03921             -38.00     9800.00
03922             -58.00     9800.00
03923             -58.00    10000.00
03924             -54.00    10200.00
03925             -70.00    10200.00
03926             -40.00    10200.00
03927             -50.00    10600.00
03928             -68.00    10400.00
03929             -62.00    10600.00
03930             -70.00    10600.00
03931             -72.00    10800.00
03932             -58.00    10800.00
03933             -66.00    11000.00
03934             -70.00    11000.00
03935             -68.00    11000.00
03936             -78.00    11200.00
03937             -78.00    11000.00
03938             -80.00    11400.00
03939             -80.00    11400.00
03940             -78.00    11400.00
03941             -80.00    11600.00
03942             -90.00    11400.00
03943             -90.00    11600.00
03944             -94.00    11600.00
03945             -94.00    11600.00
03946             -88.00    11800.00
03947             -96.00    11600.00
03948             -98.00    11800.00
03949            -102.00    11800.00
03950            -110.00    11800.00
03951            -110.00    11800.00
03952            -106.00    11800.00
03953            -110.00    11800.00
03954            -112.00    12200.00
03955            -116.00    12000.00
03956            -124.00    11800.00
03957            -128.00    12000.00
03958            -126.00    11800.00
03959            -126.00    11800.00
03960            -128.00    11800.00
03961            -132.00    11800.00
03962            -138.00    11800.00
03963            -142.00    11800.00
03964            -144.00    11800.00
03965            -140.00    11800.00
03966            -142.00    11800.00
03967            -144.00    11800.00
03968            -146.00    11600.00
03969            -146.00    11800.00
03970            -150.00    11600.00
03971            -144.00    11600.00
03972            -142.00    11600.00
03973            -138.00    11600.00
03974            -138.00    11400.00
03975            -138.00    11600.00
03976            -138.00    11400.00
03977            -134.00    11400.00
03978            -132.00    11400.00
03979            -126.00    11200.00
03980            -120.00    11000.00
03981            -120.00    11000.00
03982            -118.00    11000.00
03983            -114.00    11000.00
03984            -114.00    10800.00
03985            -106.00    10600.00
03986            -102.00    10800.00
03987             -98.00    10600.00
03988             -98.00    10400.00
03989             -96.00    10400.00
03990             -94.00    10200.00
03991             -90.00    10200.00
03992             -88.00    10200.00
03993             -80.00    10000.00
03994             -78.00    10000.00
03995             -78.00     9800.00
03996             -76.00     9800.00
03997             -74.00     9600.00
03998             -70.00     9400.00
03999             -68.00     9400.00
04000             -64.00     9200.00
04001             -62.00     9200.00
04002             -62.00     9000.00
04003             -62.00     9000.00
04004             -58.00     8800.00
04005             -56.00     8400.00
04006             -52.00     8400.00
04007             -48.00     8400.00
04008             -48.00     8200.00
04009             -50.00     8000.00
04010             -48.00     7800.00
04011             -46.00     7800.00
04012             -42.00     7600.00
04013             -40.00     7400.00
04014             -38.00     7400.00
04015             -40.00     7400.00
04016             -34.00     7000.00
04017             -40.00     6800.00
04018             -38.00     6600.00
04019             -34.00     6600.00
04020             -32.00     6400.00
04021             -32.00     6200.00
04022             -30.00     6200.00
04023             -32.00     5800.00
04024             -26.00     5800.00
04025             -26.00     5400.00
04026             -26.00     5200.00
04027             -24.00     5000.00
04028             -24.00     5000.00
04029             -26.00     4800.00
04030             -26.00     4600.00
04031             -24.00     4400.00
04032             -22.00     4200.00
04033             -18.00     4000.00
04034             -20.00     3800.00
04035             -18.00     3800.00
04036             -18.00     3400.00
04037             -18.00     3400.00
04038             -16.00     3200.00
04039             -16.00     3000.00
04040             -14.00     2800.00
04041             -14.00     2600.00
04042             -14.00     2400.00
04043             -16.00     2400.00
04044             -14.00     2000.00
04045             -12.00     2000.00
04046             -10.00     1400.00
04047             -10.00     1400.00
04048              -8.00     1200.00
04049             -12.00     1200.00
04050             -10.00     1000.00
04051             -10.00      600.00
04052              -6.00      400.00
04053              -6.00      400.00
04054              -2.00      200.00
04055               0.00        0.00
04056               6.00     -200.00
04057              22.00     -400.00
04058               6.00     -600.00
04059             -10.00     -800.00
04060              -2.00    -1000.00
04061              14.00    -1200.00
04062               6.00    -1200.00
04063              14.00    -1400.00
04064             102.00    -1400.00
04065             218.00    -2000.00
04066             -54.00    -2200.00
04067            -254.00    -2400.00
04068            -110.00    -2800.00
04069             130.00    -2800.00
04070             -64.00    -2800.00
04071              32.00    -2800.00
04072             222.00    -3400.00
04073            -184.00    -3400.00
04074              54.00    -3400.00
04075             130.00    -4000.00
04076             -80.00    -3600.00
04077              48.00    -4000.00
04078             -48.00    -4400.00
04079              86.00    -4400.00
04080              54.00    -4400.00
04081             -94.00    -5000.00
04082              46.00    -5000.00
04083               2.00    -5000.00
04084              38.00    -5600.00
04085              26.00    -5200.00
04086             -20.00    -5800.00
04087              58.00    -6000.00
04088              14.00    -5800.00
04089              22.00    -6400.00
04090               8.00    -6200.00
04091              30.00    -6600.00
04092              22.00    -6800.00
04093              22.00    -6800.00
04094              40.00    -6800.00
04095             -16.00    -7400.00
04096              40.00    -7400.00
04097              34.00    -7600.00
04098              22.00    -7800.00
04099              42.00    -7800.00
04100              14.00    -7800.00
04101              34.00    -8200.00
04102              38.00    -8200.00
04103              16.00    -8400.00
04104              32.00    -8400.00
04105              50.00    -8600.00
04106              30.00    -8600.00
04107              34.00    -9000.00
04108              42.00    -9000.00
04109              32.00    -9200.00
04110              46.00    -9200.00
04111              46.00    -9200.00
04112              42.00    -9400.00
04113              48.00    -9600.00
04114              48.00    -9600.00
04115              42.00    -9800.00
04116              54.00    -9800.00
04117              46.00   -10000.00
04118              54.00   -10000.00
04119              66.00   -10000.00
04120              54.00   -10200.00
04121              56.00   -10200.00
04122              58.00   -10400.00
04123              60.00   -10400.00
04124              64.00   -10800.00
04125              68.00   -10800.00
04126              66.00   -10800.00
04127              72.00   -11000.00
04128              70.00   -10800.00
04129              72.00   -11000.00
04130              76.00   -11000.00
04131              80.00   -11000.00
04132              80.00   -11200.00
04133              86.00   -11000.00
04134              82.00   -11400.00
04135              82.00   -11400.00
04136              88.00   -11400.00
04137              88.00   -11400.00
04138              94.00   -11400.00
04139              96.00   -11400.00
04140              98.00   -11600.00
04141             102.00   -11600.00
04142              98.00   -11600.00
04143             102.00   -11600.00
04144             108.00   -11600.00
04145             112.00   -11600.00
04146             112.00   -11600.00
04147             118.00   -11800.00
04148             116.00   -11600.00
04149             118.00   -11600.00
04150             126.00   -11600.00
04151             126.00   -11600.00
04152             130.00   -11800.00
04153             132.00   -11600.00
04154             132.00   -11600.00
04155             134.00   -11600.00
04156             136.00   -11600.00
04157             136.00   -11600.00
04158             142.00   -11600.00
04159             142.00   -11600.00
04160             138.00   -11400.00
04161             140.00   -11600.00
04162             138.00   -11400.00
04163             136.00   -11600.00
04164             134.00   -11400.00
04165             134.00   -11400.00
04166             134.00   -11400.00
04167             128.00   -11200.00
04168             126.00   -11400.00
04169             124.00   -11000.00
04170             118.00   -11000.00
04171             120.00   -10800.00
04172             116.00   -10800.00
04173             112.00   -10800.00
04174             106.00   -10600.00
04175             104.00   -10600.00
04176              98.00   -10600.00
04177              98.00   -10400.00
04178              96.00   -10400.00
04179              96.00   -10200.00
04180              90.00   -10200.00
04181              86.00   -10200.00
04182              80.00   -10000.00
04183              80.00   -10000.00
04184              78.00    -9800.00
04185              78.00    -9600.00
04186              72.00    -9400.00
04187              70.00    -9400.00
04188              64.00    -9400.00
04189              62.00    -9200.00
04190              62.00    -9000.00
04191              62.00    -9000.00
04192              58.00    -9000.00
04193              56.00    -8800.00
04194              56.00    -8600.00
04195              50.00    -8600.00
04196              46.00    -8600.00
04197              48.00    -8200.00
04198              46.00    -8200.00
04199              44.00    -8000.00
04200              42.00    -7800.00
04201              40.00    -7600.00
04202              38.00    -7600.00
04203              34.00    -7400.00
04204              38.00    -7000.00
04205              34.00    -7000.00
04206              32.00    -6800.00
04207              32.00    -6800.00
04208              30.00    -6800.00
04209              26.00    -6600.00
04210              26.00    -6200.00
04211              26.00    -6200.00
04212              26.00    -5800.00
04213              26.00    -6000.00
04214              22.00    -5600.00
04215              20.00    -5400.00
04216              20.00    -5400.00
04217              22.00    -5200.00
04218              18.00    -5000.00
04219              18.00    -4800.00
04220              18.00    -4600.00
04221              14.00    -4400.00
04222              16.00    -4400.00
04223              12.00    -4000.00
04224              14.00    -3800.00
04225              10.00    -3800.00
04226              12.00    -3600.00
04227              10.00    -3400.00
04228               8.00    -3000.00
04229               8.00    -3000.00
04230               6.00    -2800.00
04231               6.00    -2600.00
04232               6.00    -2400.00
04233               6.00    -2400.00
04234               2.00    -2000.00
04235               2.00    -1800.00
04236               0.00    -1800.00
04237               2.00    -1400.00
04238               0.00    -1400.00
04239               2.00    -1200.00
04240               0.00    -1000.00
04241               2.00     -800.00
04242               0.00     -600.00
04243              -2.00     -400.00
04244              -2.00     -200.00
04245              -2.00        0.00
04246               0.00      200.00
04247               0.00      400.00
04248              16.00      600.00
04249              16.00      800.00
04250              -2.00     1000.00
04251             -10.00     1000.00
04252               6.00     1200.00
04253               8.00     1400.00
04254              16.00     1600.00
04255             146.00     2000.00
04256             224.00     2400.00
04257            -206.00     2400.00
04258            -254.00     2600.00
04259             -58.00     2800.00
04260              38.00     2800.00
04261              80.00     3000.00
04262             246.00     3400.00
04263            -254.00     3000.00
04264             -74.00     3800.00
04265             246.00     4000.00
04266            -198.00     3600.00
04267             -14.00     4600.00
04268             -26.00     4200.00
04269             -50.00     4200.00
04270             226.00     5200.00
04271            -242.00     4600.00
04272             -32.00     5000.00
04273             118.00     5600.00
04274            -132.00     5000.00
04275              48.00     5800.00
04276             -54.00     6000.00
04277             -10.00     5600.00
04278              14.00     6600.00
04279             -46.00     6200.00
04280             -32.00     6200.00
04281             -42.00     6800.00
04282               6.00     6800.00
04283             -48.00     6800.00
04284              22.00     7400.00
04285             -78.00     7400.00
04286             -48.00     7400.00
04287              26.00     7800.00
04288             -70.00     7400.00
04289              -6.00     7800.00
04290             -46.00     8200.00
04291             -42.00     7800.00
04292             -18.00     8400.00
04293             -48.00     8400.00
04294             -58.00     8400.00
04295             -14.00     9000.00
04296             -44.00     8800.00
04297             -50.00     9000.00
04298             -24.00     9200.00
04299             -62.00     9200.00
04300             -44.00     9400.00
04301             -46.00     9400.00
04302             -50.00     9600.00
04303             -46.00     9800.00
04304             -40.00     9800.00
04305             -64.00     9800.00
04306             -54.00    10000.00
04307             -58.00    10000.00
04308             -62.00    10200.00
04309             -40.00    10200.00
04310             -64.00    10400.00
04311             -66.00    10600.00
04312             -62.00    10600.00
04313             -72.00    10600.00
04314             -70.00    10600.00
04315             -60.00    10800.00
04316             -70.00    11000.00
04317             -66.00    11000.00
04318             -72.00    11200.00
04319             -80.00    11000.00
04320             -78.00    11200.00
04321             -82.00    11400.00
04322             -80.00    11400.00
04323             -74.00    11600.00
04324             -86.00    11600.00
04325             -90.00    11600.00
04326             -90.00    11600.00
04327             -96.00    11400.00
04328             -96.00    11800.00
04329             -90.00    11600.00
04330             -98.00    11800.00
04331             -98.00    11800.00
04332            -104.00    11800.00
04333            -112.00    11800.00
04334            -106.00    12000.00
04335            -110.00    11800.00
04336            -110.00    12000.00
04337            -114.00    12000.00
04338            -118.00    12000.00
04339            -122.00    11800.00
04340            -126.00    11800.00
04341            -128.00    11800.00
04342            -128.00    12000.00
04343            -128.00    11800.00
04344            -134.00    12000.00
04345            -138.00    12200.00
04346            -142.00    11800.00
04347            -144.00    11800.00
04348            -142.00    11800.00
04349            -140.00    11800.00
04350            -144.00    11800.00
04351            -144.00    11800.00
04352            -150.00    11800.00
04353            -148.00    11800.00
04354            -146.00    11600.00
04355            -142.00    11600.00
04356            -138.00    11400.00
04357            -138.00    11600.00
04358            -138.00    11400.00
04359            -138.00    11400.00
04360            -136.00    11400.00
04361            -130.00    11200.00
04362            -122.00    11400.00
04363            -122.00    11000.00
04364            -118.00    11200.00
04365            -120.00    11000.00
04366            -116.00    11000.00
04367            -112.00    10800.00
04368            -106.00    10800.00
04369            -102.00    10600.00
04370            -100.00    10600.00
04371             -96.00    10600.00
04372             -96.00    10600.00
04373             -96.00    10400.00
04374             -90.00    10200.00
04375             -88.00    10000.00
04376             -80.00    10000.00
04377             -78.00    10000.00
04378             -80.00     9800.00
04379             -74.00     9800.00
04380             -72.00     9400.00
04381             -74.00     9400.00
04382             -70.00     9400.00
04383             -58.00     9200.00
04384             -62.00     9200.00
04385             -66.00     9000.00
04386             -60.00     8800.00
04387             -54.00     8600.00
04388             -56.00     8600.00
04389             -56.00     8600.00
04390             -48.00     8400.00
04391             -46.00     8200.00
04392             -50.00     8200.00
04393             -46.00     8000.00
04394             -38.00     7800.00
04395             -40.00     7600.00
04396             -46.00     7400.00
04397             -42.00     7200.00
04398             -38.00     7000.00
04399             -32.00     7000.00
04400             -34.00     6800.00
04401             -34.00     6600.00
04402             -32.00     6600.00
04403             -32.00     6200.00
04404             -34.00     6200.00
04405             -32.00     6000.00
04406             -26.00     6000.00
04407             -26.00     5800.00
04408             -30.00     5400.00
04409             -32.00     5400.00
04410             -24.00     5000.00
04411             -16.00     5000.00
04412             -24.00     4800.00
04413             -30.00     4400.00
04414             -24.00     4400.00
04415             -22.00     4200.00
04416             -18.00     4000.00
04417             -18.00     4000.00
04418             -22.00     3800.00
04419             -18.00     3400.00
04420             -22.00     3400.00
04421             -22.00     3200.00
04422             -14.00     3000.00
04423              -8.00     2800.00
04424              -8.00     2600.00
04425             -10.00     2400.00
04426             -18.00     2000.00
04427             -18.00     2000.00
04428             -14.00     1800.00
04429             -10.00     1600.00
04430              -8.00     1200.00
04431              -8.00     1400.00
04432             -10.00      800.00
04433              -8.00      800.00
04434             -10.00      600.00
04435              -8.00      400.00
04436              -2.00      200.00
04437              -2.00      200.00
04438              -2.00     -200.00
04439              12.00     -400.00
04440              22.00     -400.00
04441               2.00     -600.00
04442             -10.00     -800.00
04443               0.00    -1200.00
04444              14.00    -1200.00
04445               8.00    -1400.00
04446              30.00    -1400.00
04447             144.00    -1800.00
04448             192.00    -2200.00
04449            -162.00    -2600.00
04450            -254.00    -2600.00
04451             -16.00    -2800.00
04452             106.00    -2800.00
04453            -104.00    -2800.00
04454             130.00    -3000.00
04455             134.00    -3400.00
04456            -202.00    -3400.00
04457             148.00    -3600.00
04458              56.00    -4000.00
04459             -56.00    -3800.00
04460              48.00    -4000.00
04461             -48.00    -4400.00
04462             126.00    -4200.00
04463             -14.00    -4600.00
04464             -66.00    -5200.00
04465              54.00    -4800.00
04466             -10.00    -5200.00
04467              58.00    -5600.00
04468              -2.00    -5200.00
04469               6.00    -5800.00
04470              58.00    -6000.00
04471               8.00    -6000.00
04472              22.00    -6400.00
04473               6.00    -6400.00
04474              38.00    -6600.00
04475              14.00    -6800.00
04476              38.00    -7000.00
04477              30.00    -7000.00
04478             -10.00    -7400.00
04479              54.00    -7400.00
04480              22.00    -7400.00
04481              32.00    -7800.00
04482              38.00    -7600.00
04483              14.00    -8000.00
04484              42.00    -8400.00
04485              30.00    -8200.00
04486              16.00    -8400.00
04487              38.00    -8600.00
04488              50.00    -8600.00
04489              26.00    -9000.00
04490              42.00    -9000.00
04491              40.00    -9000.00
04492              32.00    -9000.00
04493              46.00    -9200.00
04494              42.00    -9400.00
04495              42.00    -9400.00
04496              48.00    -9400.00
04497              42.00    -9800.00
04498              48.00    -9800.00
04499              54.00    -9800.00
04500              48.00   -10000.00
04501              58.00   -10000.00
04502              62.00   -10200.00
04503              50.00   -10200.00
04504              56.00   -10200.00
04505              58.00   -10400.00
04506              58.00   -10600.00
04507              64.00   -10600.00
04508              66.00   -10800.00
04509              66.00   -10800.00
04510              70.00   -10800.00
04511              70.00   -11000.00
04512              72.00   -11000.00
04513              78.00   -11000.00
04514              78.00   -11000.00
04515              80.00   -11000.00
04516              86.00   -11400.00
04517              78.00   -11400.00
04518              82.00   -11400.00
04519              86.00   -11400.00
04520              88.00   -11600.00
04521              96.00   -11400.00
04522              98.00   -11600.00
04523              96.00   -11600.00
04524             100.00   -11600.00
04525             102.00   -11600.00
04526             104.00   -11600.00
04527             106.00   -11600.00
04528             110.00   -11800.00
04529             114.00   -11600.00
04530             114.00   -11600.00
04531             114.00   -11800.00
04532             118.00   -11800.00
04533             122.00   -11600.00
04534             128.00   -11600.00
04535             132.00   -11600.00
04536             130.00   -11600.00
04537             132.00   -11600.00
04538             134.00   -11600.00
04539             134.00   -11600.00
04540             136.00   -11600.00
04541             144.00   -11600.00
04542             142.00   -11400.00
04543             140.00   -11400.00
04544             140.00   -11400.00
04545             136.00   -11400.00
04546             136.00   -11400.00
04547             134.00   -11400.00
04548             136.00   -11200.00
04549             130.00   -11000.00
04550             128.00   -11400.00
04551             122.00   -11200.00
04552             126.00   -11200.00
04553             120.00   -11000.00
04554             118.00   -11000.00
04555             114.00   -11000.00
04556             112.00   -10800.00
04557             106.00   -10800.00
04558             104.00   -10600.00
04559              96.00   -10800.00
04560              96.00   -10400.00
04561              94.00   -10400.00
04562              94.00   -10200.00
04563              86.00   -10200.00
04564              82.00   -10000.00
04565              80.00   -10000.00
04566              80.00   -10000.00
04567              74.00    -9800.00
04568              74.00    -9800.00
04569              70.00    -9600.00
04570              70.00    -9400.00
04571              64.00    -9400.00
04572              60.00    -9200.00
04573              58.00    -9200.00
04574              60.00    -9000.00
04575              58.00    -8800.00
04576              56.00    -8800.00
04577              54.00    -8600.00
04578              48.00    -8600.00
04579              46.00    -8400.00
04580              46.00    -8200.00
04581              42.00    -8200.00
04582              42.00    -7800.00
04583              40.00    -7800.00
04584              38.00    -7600.00
04585              38.00    -7600.00
04586              38.00    -7400.00
04587              34.00    -7200.00
04588              34.00    -7200.00
04589              32.00    -6800.00
04590              30.00    -6800.00
04591              30.00    -6600.00
04592              30.00    -6400.00
04593              26.00    -6400.00
04594              26.00    -6000.00
04595              28.00    -6000.00
04596              24.00    -5800.00
04597              22.00    -5600.00
04598              22.00    -5400.00
04599              20.00    -5200.00
04600              22.00    -5200.00
04601              18.00    -5000.00
04602              18.00    -4800.00
04603              16.00    -4600.00
04604              16.00    -4400.00
04605              14.00    -4200.00
04606              14.00    -3800.00
04607              14.00    -3800.00
04608              14.00    -3600.00
04609              12.00    -3400.00
04610              12.00    -3400.00
04611              10.00    -3000.00
04612               8.00    -3000.00
04613               8.00    -2800.00
04614               6.00    -2600.00
04615               6.00    -2200.00
04616               4.00    -2200.00
04617               6.00    -2200.00
04618               2.00    -1800.00
04619               2.00    -1600.00
04620               2.00    -1400.00
04621               2.00    -1200.00
04622               2.00    -1000.00
04623               0.00    -1000.00
04624              -2.00     -600.00
04625              -2.00     -600.00
04626               0.00     -400.00
04627               0.00     -200.00
04628               0.00      200.00
04629               2.00      200.00
04630               2.00      400.00
04631              22.00      600.00
04632              14.00      600.00
04633             -10.00     1000.00
04634             -10.00     1000.00
04635               8.00     1200.00
04636              10.00     1400.00
04637              34.00     1800.00
04638             196.00     2000.00
04639             146.00     2400.00
04640            -254.00     2400.00
04641            -254.00     2600.00
04642              18.00     2800.00
04643               0.00     2800.00
04644             190.00     3200.00
04645             176.00     3400.00
04646            -254.00     3000.00
04647             132.00     4000.00
04648             228.00     3800.00
04649            -240.00     3800.00
04650              62.00     4600.00
04651            -104.00     4200.00
04652              66.00     4400.00
04653             142.00     5200.00
04654            -254.00     4600.00
04655              88.00     5400.00
04656              30.00     5400.00
04657            -100.00     5000.00
04658              52.00     6000.00
04659             -78.00     5600.00
04660              26.00     5800.00
04661             -16.00     6600.00
04662             -34.00     6200.00
04663             -46.00     6400.00
04664             -22.00     6800.00
04665             -10.00     6800.00
04666             -34.00     6800.00
04667              20.00     7200.00
04668            -102.00     7000.00
04669              -2.00     7600.00
04670              -2.00     7600.00
04671             -62.00     7800.00
04672              -2.00     7800.00
04673             -56.00     8200.00
04674             -30.00     8200.00
04675             -24.00     8400.00
04676             -56.00     8400.00
04677             -50.00     8600.00
04678             -10.00     8800.00
04679             -56.00     8800.00
04680             -38.00     9200.00
04681             -32.00     9200.00
04682             -64.00     9200.00
04683             -38.00     9400.00
04684             -48.00     9400.00
04685             -50.00     9600.00
04686             -44.00     9800.00
04687             -42.00     9800.00
04688             -64.00    10000.00
04689             -50.00    10000.00
04690             -64.00    10200.00
04691             -50.00    10000.00
04692             -42.00    10400.00
04693             -66.00    10200.00
04694             -66.00    10600.00
04695             -64.00    10600.00
04696             -72.00    10800.00
04697             -70.00    10800.00
04698             -66.00    10800.00
04699             -70.00    11000.00
04700             -60.00    11000.00
04701             -80.00    11000.00
04702             -88.00    11200.00
04703             -74.00    11400.00
04704             -78.00    11400.00
04705             -86.00    11400.00
04706             -76.00    11400.00
04707             -80.00    11400.00
04708             -90.00    11600.00
04709             -96.00    11600.00
04710            -104.00    11600.00
04711             -96.00    11600.00
04712             -90.00    11800.00
04713             -90.00    11600.00
04714             -96.00    11800.00
04715            -114.00    11800.00
04716            -122.00    11800.00
04717            -104.00    11800.00
04718             -98.00    11800.00
04719            -114.00    11800.00
04720            -122.00    12000.00
04721            -114.00    11800.00
04722            -120.00    11800.00
04723            -136.00    11800.00
04724            -134.00    11800.00
04725            -118.00    11800.00
04726            -122.00    12000.00
04727            -140.00    12000.00
04728            -144.00    11800.00
04729            -136.00    11800.00
04730            -142.00    11800.00
04731            -144.00    11800.00
04732            -144.00    11600.00
04733            -136.00    12000.00
04734            -146.00    11800.00
04735            -150.00    11800.00
04736            -144.00    11800.00
04737            -144.00    11600.00
04738            -146.00    11800.00
04739            -144.00    11600.00
04740            -136.00    11400.00
04741            -136.00    11400.00
04742            -138.00    11400.00
04743            -130.00    11400.00
04744            -120.00    11400.00
04745            -126.00    11000.00
04746            -128.00    11400.00
04747            -120.00    11000.00
04748            -120.00    11000.00
04749            -114.00    10800.00
04750            -106.00    10800.00
04751            -102.00    10600.00
04752            -104.00    10600.00
04753            -104.00    10600.00
04754             -96.00    10600.00
04755             -94.00    10400.00
04756             -98.00    10200.00
04757             -88.00    10200.00
04758             -78.00    10000.00
04759             -82.00    10000.00
04760             -86.00    10000.00
04761             -80.00     9800.00
04762             -76.00     9600.00
04763             -70.00     9400.00
04764             -66.00     9400.00
04765             -64.00     9200.00
04766             -62.00     9200.00
04767             -70.00     9000.00
04768             -68.00     9000.00
04769             -58.00     8800.00
04770             -50.00     8600.00
04771             -50.00     8600.00
04772             -50.00     8400.00
04773             -52.00     8400.00
04774             -50.00     8200.00
04775             -54.00     8200.00
04776             -48.00     7800.00
04777             -42.00     7600.00
04778             -40.00     7600.00
04779             -38.00     7400.00
04780             -40.00     7200.00
04781             -40.00     7200.00
04782             -42.00     7000.00
04783             -38.00     6800.00
04784             -34.00     6600.00
04785             -26.00     6600.00
04786             -26.00     6400.00
04787             -30.00     6000.00
04788             -32.00     6000.00
04789             -34.00     5800.00
04790             -32.00     5400.00
04791             -22.00     5200.00
04792             -18.00     5200.00
04793             -18.00     5000.00
04794             -26.00     5000.00
04795             -24.00     4600.00
04796             -24.00     4600.00
04797             -16.00     4400.00
04798             -34.00     4200.00
04799             -10.00     4200.00
04800             -26.00     3800.00
04801             -18.00     3600.00
04802             -42.00     3400.00
04803             -10.00     3200.00
04804              22.00     3000.00
04805               0.00     2800.00
04806               8.00     2800.00
04807             -34.00     2400.00
04808             -10.00     2200.00
04809             -46.00     2200.00
04810             -34.00     1800.00
04811             -32.00     1800.00
04812              24.00     1400.00
04813              14.00     1400.00
04814               2.00     1200.00
04815              -2.00     1000.00
04816             -14.00      600.00
04817              -2.00      600.00
04818             -32.00      400.00
04819               6.00      200.00
04820              -6.00        0.00
04821              -6.00     -200.00
04822               8.00     -200.00
04823              22.00     -600.00
04824               8.00     -400.00
04825             -10.00    -1000.00
04826               8.00    -1200.00
04827              16.00    -1400.00
04828              18.00    -1400.00
04829              34.00    -1600.00
04830             176.00    -1800.00
04831             128.00    -2200.00
04832            -252.00    -2600.00
04833            -254.00    -2400.00
04834              64.00    -2600.00
04835              66.00    -2800.00
04836             -80.00    -2800.00
04837             214.00    -3000.00
04838               2.00    -3600.00
04839            -142.00    -3200.00
04840             182.00    -3800.00
04841             -32.00    -3800.00
04842             -16.00    -3800.00
04843              22.00    -4200.00
04844             -14.00    -4400.00
04845             134.00    -4400.00
04846             -64.00    -5000.00
04847             -20.00    -5000.00
04848              42.00    -5000.00
04849             -10.00    -5400.00
04850              62.00    -5400.00
04851             -24.00    -5400.00
04852              32.00    -6000.00
04853              40.00    -5800.00
04854               8.00    -6000.00
04855              18.00    -6400.00
04856              14.00    -6400.00
04857              38.00    -6600.00
04858              10.00    -6800.00
04859              48.00    -6800.00
04860               6.00    -7000.00
04861               6.00    -7400.00
04862              56.00    -7600.00
04863              16.00    -7600.00
04864              38.00    -7800.00
04865              28.00    -7800.00
04866              22.00    -8200.00
04867              46.00    -8200.00
04868              24.00    -8200.00
04869              22.00    -8600.00
04870              50.00    -8600.00
04871              42.00    -8600.00
04872              28.00    -8800.00
04873              42.00    -9000.00
04874              38.00    -9200.00
04875              34.00    -9200.00
04876              48.00    -9200.00
04877              42.00    -9400.00
04878              48.00    -9600.00
04879              48.00    -9400.00
04880              42.00    -9800.00
04881              48.00    -9800.00
04882              50.00    -9800.00
04883              48.00   -10000.00
04884              62.00   -10200.00
04885              58.00   -10200.00
04886              50.00   -10200.00
04887              58.00   -10400.00
04888              56.00   -10600.00
04889              62.00   -10600.00
04890              66.00   -10600.00
04891              66.00   -10800.00
04892              66.00   -10800.00
04893              70.00   -10800.00
04894              70.00   -11000.00
04895              70.00   -11000.00
04896              74.00   -11000.00
04897              74.00   -11200.00
04898              82.00   -11200.00
04899              82.00   -11400.00
04900              80.00   -11400.00
04901              86.00   -11400.00
04902              88.00   -11600.00
04903              90.00   -11400.00
04904              94.00   -11600.00
04905              98.00   -11600.00
04906             102.00   -11600.00
04907              98.00   -11600.00
04908             100.00   -11600.00
04909             104.00   -11600.00
04910             110.00   -11600.00
04911             110.00   -11600.00
04912             112.00   -11600.00
04913             118.00   -11800.00
04914             118.00   -11800.00
04915             120.00   -11800.00
04916             126.00   -11600.00
04917             130.00   -11600.00
04918             130.00   -11600.00
04919             130.00   -11600.00
04920             134.00   -11600.00
04921             134.00   -11600.00
04922             136.00   -11600.00
04923             138.00   -11400.00
04924             142.00   -11600.00
04925             144.00   -11600.00
04926             140.00   -11400.00
04927             138.00   -11400.00
04928             138.00   -11400.00
04929             136.00   -11400.00
04930             134.00   -11400.00
04931             134.00   -11400.00
04932             132.00   -11200.00
04933             128.00   -11000.00
04934             122.00   -11200.00
04935             122.00   -11000.00
04936             118.00   -10800.00
04937             118.00   -11000.00
04938             114.00   -11000.00
04939             110.00   -10800.00
04940             104.00   -10800.00
04941             102.00   -10400.00
04942              98.00   -10600.00
04943              96.00   -10400.00
04944              94.00   -10200.00
04945              94.00   -10200.00
04946              88.00   -10200.00
04947              80.00   -10200.00
04948              80.00   -10000.00
04949              78.00    -9800.00
04950              74.00    -9600.00
04951              72.00    -9600.00
04952              70.00    -9400.00
04953              66.00    -9400.00
04954              62.00    -9400.00
04955              62.00    -9200.00
04956              58.00    -9000.00
04957              58.00    -9000.00
04958              56.00    -9000.00
04959              54.00    -8600.00
04960              50.00    -8600.00
04961              46.00    -8400.00
04962              46.00    -8200.00
04963              46.00    -8200.00
04964              46.00    -8000.00
04965              42.00    -8000.00
04966              40.00    -7800.00
04967              38.00    -7600.00
04968              36.00    -7600.00
04969              38.00    -7400.00
04970              34.00    -7200.00
04971              34.00    -7000.00
04972              30.00    -6800.00
04973              28.00    -6600.00
04974              26.00    -6600.00
04975              26.00    -6400.00
04976              30.00    -6200.00
04977              26.00    -6000.00
04978              30.00    -5800.00
04979              24.00    -5600.00
04980              22.00    -5800.00
04981              16.00    -5400.00
04982              18.00    -5200.00
04983              22.00    -5200.00
04984              22.00    -4800.00
04985              22.00    -4600.00
04986              18.00    -4400.00
04987              14.00    -4400.00
04988              14.00    -4000.00
04989              14.00    -4000.00
04990              16.00    -3800.00
04991              10.00    -3600.00
04992              14.00    -3400.00
04993              12.00    -3200.00
04994               8.00    -3000.00
04995               6.00    -2800.00
04996               8.00    -2800.00
04997               8.00    -2400.00
04998              10.00    -2200.00
04999               8.00    -2200.00
05000               6.00    -2000.00
