Unit:(mV)
                     CH1         CH2
Frequency              ? 261.143 kHz
00001              16.00    -5800.00
00002              16.00    -5800.00
00003              14.00    -5400.00
00004              12.00    -5400.00
00005              16.00    -5400.00
00006              14.00    -5000.00
00007              12.00    -5000.00
00008              10.00    -4600.00
00009              10.00    -4400.00
00010               6.00    -4400.00
00011               8.00    -4000.00
00012               6.00    -3800.00
00013               8.00    -3800.00
00014              10.00    -3600.00
00015               6.00    -3400.00
00016               2.00    -3400.00
00017               2.00    -3000.00
00018               6.00    -2800.00
00019               6.00    -2600.00
00020               6.00    -2400.00
00021               2.00    -2200.00
00022               2.00    -2000.00
00023               0.00    -1800.00
00024              -2.00    -1800.00
00025               0.00    -1400.00
00026               2.00    -1400.00
00027               2.00    -1000.00
00028               0.00    -1000.00
00029               0.00     -600.00
00030              -2.00     -400.00
00031              -2.00     -400.00
00032               0.00     -200.00
00033               2.00      200.00
00034               2.00      400.00
00035               4.00      400.00
00036              22.00      600.00
00037              16.00      800.00
00038              -6.00     1000.00
00039              -8.00     1200.00
00040              10.00     1400.00
00041               8.00     1400.00
00042              32.00     1800.00
00043             192.00     2200.00
00044             178.00     2400.00
00045            -254.00     2400.00
00046            -254.00     2800.00
00047              18.00     2800.00
00048              10.00     2800.00
00049             154.00     3200.00
00050             224.00     3400.00
00051            -254.00     3400.00
00052              98.00     4000.00
00053             246.00     3800.00
00054            -248.00     3800.00
00055              62.00     4800.00
00056             -76.00     4200.00
00057              34.00     4400.00
00058             154.00     5200.00
00059            -250.00     4600.00
00060              58.00     5400.00
00061              24.00     5400.00
00062             -62.00     5000.00
00063              32.00     6000.00
00064             -88.00     6000.00
00065              58.00     6000.00
00066             -24.00     6600.00
00067             -32.00     6400.00
00068             -32.00     6600.00
00069             -18.00     6800.00
00070             -10.00     6800.00
00071             -30.00     7200.00
00072              22.00     7600.00
00073             -96.00     7400.00
00074               4.00     7800.00
00075              -8.00     7800.00
00076             -42.00     7600.00
00077              -2.00     8400.00
00078             -54.00     8200.00
00079             -16.00     8400.00
00080             -18.00     8800.00
00081             -48.00     8600.00
00082             -42.00     8800.00
00083              -8.00     9000.00
00084             -50.00     9000.00
00085             -24.00     9400.00
00086             -32.00     9400.00
00087             -50.00     9400.00
00088             -32.00     9600.00
00089             -42.00     9600.00
00090             -38.00     9800.00
00091             -34.00    10000.00
00092             -40.00    10200.00
00093             -54.00    10200.00
00094             -42.00    10400.00
00095             -58.00    10400.00
00096             -42.00    10600.00
00097             -34.00    10600.00
00098             -54.00    10600.00
00099             -54.00    11000.00
00100             -56.00    11000.00
00101             -64.00    11000.00
00102             -58.00    11200.00
00103             -58.00    11200.00
00104             -58.00    11400.00
00105             -58.00    11400.00
00106             -70.00    11400.00
00107             -70.00    11600.00
00108             -72.00    11800.00
00109             -74.00    11600.00
00110             -72.00    11800.00
00111             -70.00    11600.00
00112             -80.00    11800.00
00113             -82.00    11800.00
00114             -88.00    11800.00
00115             -88.00    11800.00
00116             -86.00    11800.00
00117             -90.00    12200.00
00118             -90.00    12200.00
00119             -94.00    12200.00
00120            -102.00    12200.00
00121            -106.00    12200.00
00122            -104.00    12200.00
00123            -106.00    12200.00
00124            -106.00    12200.00
00125            -110.00    12200.00
00126            -116.00    12200.00
00127            -120.00    12400.00
00128            -124.00    12200.00
00129            -122.00    12400.00
00130            -126.00    12200.00
00131            -130.00    12400.00
00132            -134.00    12200.00
00133            -136.00    12200.00
00134            -142.00    12200.00
00135            -144.00    12200.00
00136            -142.00    12200.00
00137            -142.00    12200.00
00138            -142.00    12000.00
00139            -144.00    12200.00
00140            -146.00    12200.00
00141            -144.00    11800.00
00142            -144.00    11800.00
00143            -138.00    11800.00
00144            -136.00    11800.00
00145            -136.00    11800.00
00146            -134.00    11600.00
00147            -136.00    11800.00
00148            -128.00    11800.00
00149            -122.00    11600.00
00150            -120.00    11400.00
00151            -114.00    11600.00
00152            -112.00    11400.00
00153            -112.00    11400.00
00154            -108.00    11400.00
00155            -106.00    11400.00
00156             -98.00    11000.00
00157             -92.00    11000.00
00158             -92.00    11000.00
00159             -90.00    10800.00
00160             -88.00    10800.00
00161             -86.00    10600.00
00162             -80.00    10600.00
00163             -74.00    10600.00
00164             -74.00    10200.00
00165             -70.00    10200.00
00166             -72.00    10000.00
00167             -66.00    10000.00
00168             -64.00     9800.00
00169             -62.00     9600.00
00170             -58.00     9600.00
00171             -56.00     9400.00
00172             -54.00     9400.00
00173             -56.00     9200.00
00174             -50.00     9000.00
00175             -50.00     9000.00
00176             -46.00     8800.00
00177             -42.00     8600.00
00178             -42.00     8600.00
00179             -42.00     8400.00
00180             -42.00     8400.00
00181             -40.00     8200.00
00182             -38.00     8000.00
00183             -34.00     7800.00
00184             -32.00     7600.00
00185             -32.00     7400.00
00186             -32.00     7400.00
00187             -30.00     7200.00
00188             -32.00     7000.00
00189             -28.00     6800.00
00190             -30.00     6600.00
00191             -24.00     6600.00
00192             -26.00     6600.00
00193             -26.00     6200.00
00194             -26.00     6000.00
00195             -24.00     5800.00
00196             -24.00     5600.00
00197             -20.00     5400.00
00198             -22.00     5000.00
00199             -22.00     5000.00
00200             -18.00     4800.00
00201             -22.00     4600.00
00202             -18.00     4400.00
00203             -16.00     4400.00
00204             -14.00     4200.00
00205             -16.00     3800.00
00206             -14.00     3800.00
00207             -16.00     3400.00
00208             -16.00     3400.00
00209             -12.00     3200.00
00210             -10.00     3000.00
00211             -10.00     2800.00
00212             -10.00     2600.00
00213             -10.00     2600.00
00214             -10.00     2200.00
00215             -10.00     2000.00
00216             -10.00     1800.00
00217              -6.00     1800.00
00218              -6.00     1400.00
00219              -6.00     1200.00
00220             -10.00     1000.00
00221              -8.00     1000.00
00222              -6.00      800.00
00223              -4.00      400.00
00224              -2.00      200.00
00225               0.00      200.00
00226               0.00     -200.00
00227              16.00     -200.00
00228              22.00     -400.00
00229               0.00     -600.00
00230              -8.00    -1000.00
00231               4.00    -1000.00
00232              14.00    -1200.00
00233               8.00    -1400.00
00234              34.00    -1600.00
00235             162.00    -1800.00
00236             174.00    -2200.00
00237            -214.00    -2400.00
00238            -254.00    -2600.00
00239              24.00    -2800.00
00240              94.00    -3000.00
00241            -112.00    -2800.00
00242             170.00    -3000.00
00243              82.00    -3600.00
00244            -184.00    -3200.00
00245             168.00    -3800.00
00246               4.00    -4000.00
00247             -34.00    -3800.00
00248              38.00    -4400.00
00249             -42.00    -4400.00
00250             120.00    -4400.00
00251             -40.00    -5000.00
00252             -42.00    -5200.00
00253              30.00    -5000.00
00254              -2.00    -5600.00
00255              64.00    -5800.00
00256             -40.00    -5400.00
00257              26.00    -6200.00
00258              42.00    -6000.00
00259             -10.00    -6200.00
00260              18.00    -6600.00
00261              10.00    -6400.00
00262              28.00    -6800.00
00263               6.00    -7000.00
00264              38.00    -7000.00
00265               6.00    -7400.00
00266               0.00    -7600.00
00267              40.00    -7400.00
00268               8.00    -7800.00
00269              38.00    -7800.00
00270              22.00    -7800.00
00271              10.00    -8200.00
00272              38.00    -8400.00
00273              18.00    -8400.00
00274              10.00    -8600.00
00275              34.00    -8600.00
00276              34.00    -9000.00
00277              22.00    -9000.00
00278              34.00    -9200.00
00279              30.00    -9200.00
00280              32.00    -9400.00
00281              36.00    -9400.00
00282              38.00    -9600.00
00283              40.00    -9600.00
00284              40.00    -9800.00
00285              34.00   -10000.00
00286              42.00   -10000.00
00287              42.00   -10000.00
00288              40.00   -10200.00
00289              54.00   -10200.00
00290              52.00   -10400.00
00291              46.00   -10600.00
00292              50.00   -10600.00
00293              48.00   -10800.00
00294              54.00   -10800.00
00295              58.00   -10800.00
00296              58.00   -11000.00
00297              64.00   -11000.00
00298              62.00   -11400.00
00299              62.00   -11200.00
00300              66.00   -11200.00
00301              70.00   -11400.00
00302              70.00   -11400.00
00303              78.00   -11400.00
00304              74.00   -11600.00
00305              72.00   -11600.00
00306              80.00   -11800.00
00307              80.00   -11600.00
00308              86.00   -11800.00
00309              88.00   -11800.00
00310              94.00   -11800.00
00311              92.00   -11800.00
00312              94.00   -11800.00
00313              96.00   -12000.00
00314             102.00   -11800.00
00315             104.00   -11800.00
00316             106.00   -11800.00
00317             110.00   -12000.00
00318             112.00   -12000.00
00319             114.00   -11800.00
00320             118.00   -12000.00
00321             120.00   -12000.00
00322             122.00   -11800.00
00323             126.00   -11800.00
00324             128.00   -12000.00
00325             130.00   -12000.00
00326             132.00   -11800.00
00327             134.00   -12000.00
00328             138.00   -11800.00
00329             140.00   -11800.00
00330             140.00   -11800.00
00331             140.00   -11800.00
00332             136.00   -11800.00
00333             134.00   -11800.00
00334             130.00   -11600.00
00335             128.00   -11800.00
00336             134.00   -11600.00
00337             130.00   -11600.00
00338             126.00   -11600.00
00339             120.00   -11400.00
00340             118.00   -11400.00
00341             112.00   -11400.00
00342             112.00   -11400.00
00343             110.00   -11000.00
00344             106.00   -11000.00
00345             102.00   -11000.00
00346              94.00   -11000.00
00347              94.00   -10800.00
00348              90.00   -10800.00
00349              90.00   -10400.00
00350              88.00   -10600.00
00351              82.00   -10400.00
00352              74.00   -10400.00
00353              74.00   -10200.00
00354              70.00   -10200.00
00355              68.00   -10000.00
00356              64.00    -9800.00
00357              66.00    -9800.00
00358              58.00    -9800.00
00359              58.00    -9600.00
00360              52.00    -9400.00
00361              54.00    -9200.00
00362              52.00    -9200.00
00363              48.00    -9000.00
00364              46.00    -9000.00
00365              42.00    -9000.00
00366              40.00    -8600.00
00367              40.00    -8600.00
00368              38.00    -8400.00
00369              38.00    -8200.00
00370              38.00    -8200.00
00371              36.00    -7800.00
00372              32.00    -7800.00
00373              32.00    -7600.00
00374              30.00    -7600.00
00375              30.00    -7400.00
00376              30.00    -7400.00
00377              26.00    -7200.00
00378              24.00    -7000.00
00379              26.00    -6800.00
00380              22.00    -6600.00
00381              22.00    -6600.00
00382              18.00    -6200.00
00383              18.00    -6000.00
00384              22.00    -6000.00
00385              16.00    -5800.00
00386              14.00    -5600.00
00387              14.00    -5400.00
00388              14.00    -5200.00
00389              14.00    -5000.00
00390              14.00    -5000.00
00391              12.00    -4600.00
00392              12.00    -4600.00
00393              10.00    -4000.00
00394               6.00    -4200.00
00395               8.00    -3800.00
00396              10.00    -3800.00
00397               8.00    -3600.00
00398               6.00    -3200.00
00399               6.00    -3400.00
00400               2.00    -3000.00
00401               4.00    -2800.00
00402               2.00    -2600.00
00403               6.00    -2200.00
00404               2.00    -2200.00
00405               0.00    -2000.00
00406               0.00    -1800.00
00407               0.00    -1600.00
00408               0.00    -1400.00
00409               0.00    -1400.00
00410               0.00    -1000.00
00411               2.00    -1000.00
00412               0.00     -600.00
00413              -6.00     -400.00
00414              -2.00     -200.00
00415               0.00        0.00
00416               0.00      200.00
00417               0.00      400.00
00418               6.00      600.00
00419              22.00      600.00
00420              14.00      800.00
00421              -8.00     1000.00
00422              -6.00     1200.00
00423               8.00     1200.00
00424               6.00     1600.00
00425              40.00     1800.00
00426             210.00     2200.00
00427             148.00     2400.00
00428            -254.00     2600.00
00429            -254.00     2800.00
00430              40.00     2800.00
00431              -2.00     3000.00
00432             190.00     3400.00
00433             176.00     3400.00
00434            -254.00     3200.00
00435             160.00     4200.00
00436             214.00     3800.00
00437            -246.00     3800.00
00438              80.00     4800.00
00439            -102.00     4200.00
00440              72.00     4600.00
00441             120.00     5200.00
00442            -254.00     4600.00
00443              86.00     5600.00
00444               0.00     5800.00
00445             -44.00     5200.00
00446              26.00     6200.00
00447             -82.00     6000.00
00448              64.00     6000.00
00449             -32.00     6600.00
00450             -26.00     6200.00
00451             -34.00     6600.00
00452             -14.00     7000.00
00453             -16.00     6800.00
00454             -24.00     7200.00
00455              14.00     7400.00
00456             -98.00     7400.00
00457              12.00     7800.00
00458             -18.00     7800.00
00459             -36.00     7800.00
00460              -6.00     8200.00
00461             -56.00     8400.00
00462             -14.00     8400.00
00463             -24.00     8800.00
00464             -50.00     8600.00
00465             -38.00     9000.00
00466             -10.00     9000.00
00467             -50.00     9000.00
00468             -22.00     9400.00
00469             -34.00     9400.00
00470             -50.00     9400.00
00471             -30.00     9600.00
00472             -46.00     9800.00
00473             -40.00     9800.00
00474             -38.00    10000.00
00475             -42.00    10200.00
00476             -52.00    10200.00
00477             -46.00    10200.00
00478             -58.00    10200.00
00479             -42.00    10600.00
00480             -38.00    10600.00
00481             -58.00    10800.00
00482             -56.00    10800.00
00483             -58.00    11000.00
00484             -64.00    11000.00
00485             -58.00    11000.00
00486             -62.00    11200.00
00487             -64.00    11200.00
00488             -60.00    11400.00
00489             -72.00    11400.00
00490             -68.00    11600.00
00491             -72.00    11400.00
00492             -74.00    11600.00
00493             -70.00    11600.00
00494             -70.00    11800.00
00495             -80.00    11800.00
00496             -84.00    11800.00
00497             -86.00    12000.00
00498             -90.00    11800.00
00499             -82.00    12000.00
00500             -90.00    12200.00
00501             -90.00    12200.00
00502             -96.00    12200.00
00503            -102.00    12200.00
00504            -102.00    12200.00
00505            -102.00    12200.00
00506            -106.00    12400.00
00507            -106.00    12400.00
00508            -110.00    12200.00
00509            -114.00    12400.00
00510            -120.00    12200.00
00511            -122.00    12200.00
00512            -122.00    12200.00
00513            -126.00    12400.00
00514            -128.00    12400.00
00515            -130.00    12400.00
00516            -134.00    12400.00
00517            -142.00    12200.00
00518            -144.00    12200.00
00519            -138.00    12200.00
00520            -138.00    12200.00
00521            -144.00    12200.00
00522            -146.00    12200.00
00523            -144.00    12200.00
00524            -144.00    12000.00
00525            -144.00    11800.00
00526            -138.00    11800.00
00527            -136.00    11800.00
00528            -136.00    11800.00
00529            -136.00    11800.00
00530            -134.00    11800.00
00531            -128.00    11600.00
00532            -126.00    11600.00
00533            -120.00    11400.00
00534            -116.00    11400.00
00535            -112.00    11400.00
00536            -112.00    11400.00
00537            -112.00    11400.00
00538            -106.00    11200.00
00539             -98.00    11000.00
00540             -94.00    11000.00
00541             -90.00    10800.00
00542             -90.00    10800.00
00543             -88.00    10800.00
00544             -88.00    10600.00
00545             -80.00    10600.00
00546             -74.00    10400.00
00547             -72.00    10200.00
00548             -76.00    10200.00
00549             -66.00    10000.00
00550             -62.00    10000.00
00551             -66.00     9800.00
00552             -64.00     9800.00
00553             -58.00     9800.00
00554             -56.00     9400.00
00555             -50.00     9400.00
00556             -48.00     9200.00
00557             -58.00     9000.00
00558             -56.00     9000.00
00559             -42.00     8800.00
00560             -32.00     8600.00
00561             -44.00     8600.00
00562             -50.00     8400.00
00563             -42.00     8200.00
00564             -32.00     8200.00
00565             -38.00     7800.00
00566             -34.00     7800.00
00567             -28.00     7600.00
00568             -34.00     7400.00
00569             -40.00     7400.00
00570             -26.00     7200.00
00571             -26.00     7000.00
00572             -22.00     6800.00
00573             -30.00     6600.00
00574             -26.00     6600.00
00575             -28.00     6400.00
00576             -26.00     6200.00
00577             -26.00     6000.00
00578             -14.00     5800.00
00579             -16.00     5600.00
00580             -22.00     5200.00
00581             -26.00     5200.00
00582             -18.00     5000.00
00583             -16.00     5000.00
00584             -22.00     4600.00
00585             -24.00     4400.00
00586             -12.00     4200.00
00587             -14.00     4200.00
00588             -16.00     4000.00
00589             -16.00     3800.00
00590             -14.00     3600.00
00591             -16.00     3400.00
00592             -16.00     3200.00
00593             -14.00     3000.00
00594             -10.00     2800.00
00595             -10.00     2600.00
00596             -14.00     2600.00
00597             -14.00     2200.00
00598             -10.00     2000.00
00599              -8.00     1800.00
00600              -6.00     1400.00
00601              -8.00     1400.00
00602              -8.00     1200.00
00603             -10.00     1000.00
00604              -8.00      800.00
00605              -6.00      600.00
00606              -2.00      400.00
00607              -2.00      200.00
00608              -2.00        0.00
00609               0.00     -200.00
00610              16.00     -400.00
00611              22.00     -400.00
00612               0.00     -600.00
00613             -10.00    -1000.00
00614               2.00    -1000.00
00615              10.00    -1200.00
00616               4.00    -1400.00
00617              40.00    -1600.00
00618             176.00    -1800.00
00619             152.00    -2200.00
00620            -240.00    -2600.00
00621            -254.00    -2600.00
00622              50.00    -2800.00
00623              76.00    -2800.00
00624            -110.00    -2800.00
00625             192.00    -3000.00
00626              40.00    -3600.00
00627            -160.00    -3200.00
00628             182.00    -3800.00
00629             -18.00    -4000.00
00630             -22.00    -3800.00
00631              24.00    -4400.00
00632             -30.00    -4400.00
00633             120.00    -4400.00
00634             -54.00    -5000.00
00635             -28.00    -5200.00
00636              22.00    -5000.00
00637               0.00    -5600.00
00638              62.00    -5400.00
00639             -46.00    -5400.00
00640              40.00    -6200.00
00641              38.00    -5800.00
00642              -8.00    -6200.00
00643              16.00    -6600.00
00644               6.00    -6600.00
00645              26.00    -6800.00
00646               6.00    -7000.00
00647              40.00    -7000.00
00648              -2.00    -7400.00
00649               6.00    -7600.00
00650              38.00    -7600.00
00651               8.00    -7800.00
00652              38.00    -7800.00
00653              18.00    -8000.00
00654              12.00    -8200.00
00655              38.00    -8400.00
00656              16.00    -8600.00
00657              12.00    -8600.00
00658              38.00    -8600.00
00659              32.00    -9000.00
00660              22.00    -9000.00
00661              32.00    -9000.00
00662              26.00    -9200.00
00663              34.00    -9400.00
00664              40.00    -9400.00
00665              34.00    -9800.00
00666              38.00    -9600.00
00667              38.00    -9800.00
00668              34.00   -10000.00
00669              42.00   -10200.00
00670              38.00   -10200.00
00671              40.00   -10200.00
00672              56.00   -10200.00
00673              50.00   -10600.00
00674              42.00   -10400.00
00675              50.00   -10800.00
00676              50.00   -10800.00
00677              58.00   -10800.00
00678              56.00   -10800.00
00679              60.00   -11000.00
00680              64.00   -11000.00
00681              64.00   -11400.00
00682              62.00   -11200.00
00683              66.00   -11400.00
00684              70.00   -11400.00
00685              72.00   -11400.00
00686              78.00   -11400.00
00687              78.00   -11400.00
00688              74.00   -11800.00
00689              78.00   -11600.00
00690              80.00   -11600.00
00691              86.00   -11600.00
00692              92.00   -11800.00
00693              94.00   -11800.00
00694              94.00   -11800.00
00695              94.00   -11800.00
00696              96.00   -11800.00
00697              98.00   -12000.00
00698             106.00   -11800.00
00699             106.00   -12000.00
00700             112.00   -11800.00
00701             112.00   -11800.00
00702             112.00   -11800.00
00703             114.00   -11800.00
00704             122.00   -12000.00
00705             126.00   -11800.00
00706             130.00   -12000.00
00707             128.00   -11800.00
00708             130.00   -11800.00
00709             134.00   -12000.00
00710             134.00   -11800.00
00711             138.00   -11800.00
00712             138.00   -11800.00
00713             138.00   -11800.00
00714             138.00   -11800.00
00715             136.00   -11800.00
00716             134.00   -11600.00
00717             134.00   -11600.00
00718             132.00   -11600.00
00719             134.00   -11600.00
00720             128.00   -11600.00
00721             122.00   -11600.00
00722             118.00   -11600.00
00723             118.00   -11400.00
00724             114.00   -11400.00
00725             112.00   -11000.00
00726             110.00   -11200.00
00727             104.00   -11000.00
00728              98.00   -10800.00
00729              96.00   -11000.00
00730              94.00   -10800.00
00731              90.00   -10800.00
00732              86.00   -10400.00
00733              86.00   -10400.00
00734              80.00   -10200.00
00735              78.00   -10200.00
00736              72.00   -10200.00
00737              72.00   -10200.00
00738              70.00   -10000.00
00739              66.00   -10000.00
00740              64.00    -9800.00
00741              58.00    -9800.00
00742              56.00    -9400.00
00743              54.00    -9400.00
00744              52.00    -9200.00
00745              50.00    -9200.00
00746              48.00    -9200.00
00747              48.00    -9000.00
00748              40.00    -8800.00
00749              40.00    -8600.00
00750              40.00    -8600.00
00751              40.00    -8400.00
00752              38.00    -8200.00
00753              36.00    -8200.00
00754              32.00    -7800.00
00755              32.00    -7800.00
00756              30.00    -7800.00
00757              30.00    -7400.00
00758              28.00    -7400.00
00759              30.00    -7000.00
00760              26.00    -7000.00
00761              26.00    -6800.00
00762              22.00    -6600.00
00763              22.00    -6600.00
00764              22.00    -6400.00
00765              22.00    -6200.00
00766              20.00    -6200.00
00767              18.00    -6000.00
00768              14.00    -5600.00
00769              16.00    -5600.00
00770              18.00    -5400.00
00771              14.00    -5200.00
00772              12.00    -5000.00
00773              16.00    -5000.00
00774              20.00    -4600.00
00775               6.00    -4400.00
00776               6.00    -4200.00
00777              12.00    -4000.00
00778              14.00    -3800.00
00779               6.00    -3800.00
00780               6.00    -3600.00
00781               8.00    -3400.00
00782               4.00    -3200.00
00783               6.00    -3000.00
00784               8.00    -2800.00
00785               8.00    -2600.00
00786               2.00    -2400.00
00787              -2.00    -2200.00
00788              -4.00    -2000.00
00789               4.00    -1800.00
00790               4.00    -1800.00
00791               2.00    -1400.00
00792               2.00    -1400.00
00793               0.00    -1200.00
00794              -6.00    -1000.00
00795              -6.00     -600.00
00796               0.00     -600.00
00797               2.00     -200.00
00798              -2.00        0.00
00799             -10.00        0.00
00800              -2.00      200.00
00801              10.00      600.00
00802              34.00      600.00
00803              12.00     1000.00
00804             -14.00     1000.00
00805             -10.00     1200.00
00806               8.00     1400.00
00807               6.00     1600.00
00808              46.00     1800.00
00809             228.00     2400.00
00810             114.00     2600.00
00811            -254.00     2600.00
00812            -254.00     2800.00
00813              56.00     3000.00
00814             -10.00     2800.00
00815             224.00     3400.00
00816             128.00     3400.00
00817            -254.00     3400.00
00818             200.00     4200.00
00819             172.00     3800.00
00820            -248.00     3800.00
00821              88.00     5000.00
00822            -158.00     4000.00
00823             144.00     5000.00
00824              98.00     5200.00
00825            -218.00     4400.00
00826              96.00     5800.00
00827             -22.00     5200.00
00828             -22.00     5400.00
00829             -16.00     6200.00
00830            -110.00     5800.00
00831              56.00     6200.00
00832             -10.00     6600.00
00833             -22.00     6600.00
00834             -34.00     6600.00
00835              -2.00     7200.00
00836               6.00     6800.00
00837             -16.00     7400.00
00838             -18.00     7400.00
00839             -88.00     7400.00
00840              10.00     7800.00
00841             -34.00     7800.00
00842             -48.00     7800.00
00843               8.00     8200.00
00844             -42.00     8400.00
00845             -10.00     8400.00
00846             -26.00     8800.00
00847             -46.00     8800.00
00848             -32.00     9000.00
00849             -30.00     9200.00
00850             -62.00     9000.00
00851             -16.00     9400.00
00852             -40.00     9200.00
00853             -54.00     9400.00
00854             -28.00     9800.00
00855             -32.00     9800.00
00856             -26.00    10000.00
00857             -34.00    10000.00
00858             -48.00    10200.00
00859             -56.00    10200.00
00860             -54.00    10600.00
00861             -72.00    10600.00
00862             -42.00    10600.00
00863             -38.00    10600.00
00864             -48.00    10800.00
00865             -50.00    11000.00
00866             -58.00    11000.00
00867             -62.00    11000.00
00868             -62.00    11200.00
00869             -66.00    11000.00
00870             -68.00    11400.00
00871             -60.00    11400.00
00872             -66.00    11400.00
00873             -66.00    11600.00
00874             -70.00    11600.00
00875             -74.00    11600.00
00876             -72.00    11800.00
00877             -80.00    11800.00
00878             -86.00    11800.00
00879             -88.00    12000.00
00880             -88.00    11800.00
00881             -88.00    12200.00
00882             -82.00    12200.00
00883             -86.00    12000.00
00884             -88.00    12200.00
00885             -96.00    12000.00
00886            -106.00    12400.00
00887            -106.00    12200.00
00888            -106.00    12400.00
00889            -104.00    12200.00
00890            -106.00    12200.00
00891            -110.00    12200.00
00892            -114.00    12400.00
00893            -122.00    12400.00
00894            -122.00    12400.00
00895            -126.00    12400.00
00896            -128.00    12200.00
00897            -130.00    12200.00
00898            -130.00    12400.00
00899            -136.00    12400.00
00900            -138.00    12400.00
00901            -142.00    12400.00
00902            -142.00    12000.00
00903            -134.00    12200.00
00904            -142.00    12200.00
00905            -148.00    12200.00
00906            -150.00    11800.00
00907            -144.00    12000.00
00908            -142.00    12000.00
00909            -144.00    12000.00
00910            -134.00    11800.00
00911            -130.00    11800.00
00912            -136.00    11800.00
00913            -136.00    11800.00
00914            -128.00    11600.00
00915            -120.00    11600.00
00916            -120.00    11600.00
00917            -118.00    11400.00
00918            -114.00    11400.00
00919            -106.00    11400.00
00920            -110.00    11400.00
00921            -104.00    11000.00
00922             -98.00    11000.00
00923             -90.00    11000.00
00924             -94.00    11000.00
00925             -90.00    10800.00
00926             -90.00    10600.00
00927             -86.00    10600.00
00928             -80.00    10400.00
00929             -74.00    10400.00
00930             -72.00    10200.00
00931             -68.00    10200.00
00932             -70.00    10000.00
00933             -68.00    10000.00
00934             -66.00     9800.00
00935             -62.00     9800.00
00936             -56.00     9600.00
00937             -56.00     9400.00
00938             -50.00     9200.00
00939             -54.00     9200.00
00940             -52.00     9000.00
00941             -48.00     9000.00
00942             -46.00     8800.00
00943             -44.00     8600.00
00944             -42.00     8400.00
00945             -42.00     8400.00
00946             -42.00     8200.00
00947             -38.00     8200.00
00948             -38.00     7800.00
00949             -34.00     7800.00
00950             -32.00     7600.00
00951             -32.00     7600.00
00952             -32.00     7400.00
00953             -30.00     7200.00
00954             -32.00     6800.00
00955             -26.00     6800.00
00956             -28.00     6800.00
00957             -24.00     6600.00
00958             -26.00     6200.00
00959             -24.00     6200.00
00960             -26.00     6000.00
00961             -24.00     5800.00
00962             -22.00     5400.00
00963             -16.00     5400.00
00964             -18.00     5200.00
00965             -18.00     5000.00
00966             -18.00     5000.00
00967             -18.00     4600.00
00968             -16.00     4400.00
00969             -16.00     4400.00
00970             -14.00     4200.00
00971             -16.00     4000.00
00972             -16.00     3600.00
00973             -16.00     3600.00
00974             -16.00     3400.00
00975             -14.00     3000.00
00976             -10.00     3000.00
00977             -10.00     2800.00
00978             -10.00     2600.00
00979             -14.00     2400.00
00980             -10.00     2200.00
00981             -10.00     2000.00
00982             -10.00     1800.00
00983              -6.00     1400.00
00984              -8.00     1400.00
00985              -8.00     1200.00
00986             -10.00     1000.00
00987             -10.00     1000.00
00988              -8.00      600.00
00989              -6.00      400.00
00990              -2.00      200.00
00991               0.00      200.00
00992               0.00     -200.00
00993              16.00     -200.00
00994              22.00     -400.00
00995              -6.00     -600.00
00996              -8.00    -1000.00
00997               6.00    -1000.00
00998              10.00    -1200.00
00999               6.00    -1400.00
01000              48.00    -1600.00
01001             190.00    -1800.00
01002             124.00    -2200.00
01003            -254.00    -2600.00
01004            -254.00    -2400.00
01005              74.00    -2800.00
01006              54.00    -3000.00
01007            -106.00    -2800.00
01008             214.00    -3000.00
01009              -6.00    -3600.00
01010            -138.00    -3400.00
01011             186.00    -4000.00
01012             -38.00    -4200.00
01013              -6.00    -3800.00
01014              14.00    -4400.00
01015             -16.00    -4600.00
01016             116.00    -4400.00
01017             -66.00    -5000.00
01018             -16.00    -5200.00
01019              18.00    -5000.00
01020              10.00    -5400.00
01021              56.00    -5400.00
01022             -46.00    -5600.00
01023              46.00    -6200.00
01024              30.00    -6000.00
01025              -2.00    -6200.00
01026              16.00    -6400.00
01027              10.00    -6400.00
01028              26.00    -6800.00
01029              10.00    -7000.00
01030              40.00    -7000.00
01031              -6.00    -7400.00
01032              14.00    -7400.00
01033              38.00    -7400.00
01034              10.00    -7600.00
01035              40.00    -8000.00
01036              16.00    -7800.00
01037              18.00    -8200.00
01038              40.00    -8200.00
01039              16.00    -8400.00
01040              14.00    -8600.00
01041              38.00    -8600.00
01042              30.00    -9000.00
01043              22.00    -9000.00
01044              32.00    -9200.00
01045              26.00    -9400.00
01046              34.00    -9400.00
01047              36.00    -9400.00
01048              34.00    -9600.00
01049              38.00    -9800.00
01050              38.00    -9800.00
01051              34.00   -10000.00
01052              40.00   -10000.00
01053              40.00   -10200.00
01054              42.00   -10200.00
01055              56.00   -10400.00
01056              48.00   -10600.00
01057              46.00   -10400.00
01058              48.00   -10600.00
01059              48.00   -10800.00
01060              56.00   -10800.00
01061              56.00   -11000.00
01062              62.00   -11200.00
01063              64.00   -11000.00
01064              58.00   -11000.00
01065              62.00   -11400.00
01066              64.00   -11400.00
01067              70.00   -11400.00
01068              72.00   -11600.00
01069              74.00   -11400.00
01070              78.00   -11600.00
01071              74.00   -11600.00
01072              80.00   -11600.00
01073              82.00   -11800.00
01074              86.00   -11800.00
01075              88.00   -11800.00
01076              94.00   -11800.00
01077              96.00   -11800.00
01078              94.00   -12000.00
01079              94.00   -11800.00
01080             102.00   -11800.00
01081             104.00   -11800.00
01082             112.00   -11800.00
01083             112.00   -12000.00
01084             112.00   -11800.00
01085             114.00   -12200.00
01086             114.00   -11800.00
01087             118.00   -11800.00
01088             126.00   -12000.00
01089             128.00   -12000.00
01090             130.00   -12000.00
01091             134.00   -11800.00
01092             132.00   -12000.00
01093             134.00   -11800.00
01094             138.00   -11800.00
01095             136.00   -11800.00
01096             140.00   -11800.00
01097             138.00   -11800.00
01098             140.00   -11800.00
01099             138.00   -11800.00
01100             134.00   -11600.00
01101             134.00   -11600.00
01102             130.00   -11600.00
01103             126.00   -11600.00
01104             124.00   -11400.00
01105             122.00   -11400.00
01106             122.00   -11400.00
01107             114.00   -11400.00
01108             110.00   -11200.00
01109             104.00   -11000.00
01110             104.00   -11000.00
01111             102.00   -11000.00
01112             100.00   -10800.00
01113              94.00   -10800.00
01114              90.00   -10800.00
01115              80.00   -10600.00
01116              80.00   -10400.00
01117              80.00   -10400.00
01118              78.00   -10400.00
01119              74.00   -10200.00
01120              72.00   -10200.00
01121              64.00   -10000.00
01122              64.00    -9800.00
01123              62.00    -9800.00
01124              58.00    -9800.00
01125              58.00    -9600.00
01126              54.00    -9200.00
01127              54.00    -9400.00
01128              48.00    -9200.00
01129              46.00    -9000.00
01130              48.00    -9000.00
01131              46.00    -8800.00
01132              42.00    -8600.00
01133              42.00    -8400.00
01134              38.00    -8400.00
01135              34.00    -8200.00
01136              34.00    -8000.00
01137              30.00    -7800.00
01138              32.00    -7800.00
01139              32.00    -7600.00
01140              30.00    -7600.00
01141              30.00    -7400.00
01142              26.00    -7200.00
01143              24.00    -7000.00
01144              24.00    -7000.00
01145              24.00    -6600.00
01146              16.00    -6600.00
01147              26.00    -6400.00
01148              18.00    -6000.00
01149              22.00    -6000.00
01150              14.00    -5800.00
01151              14.00    -5800.00
01152              18.00    -5600.00
01153              20.00    -5400.00
01154              14.00    -5200.00
01155              14.00    -5000.00
01156              12.00    -4800.00
01157               8.00    -4600.00
01158              10.00    -4400.00
01159              10.00    -4200.00
01160              14.00    -4000.00
01161              14.00    -3800.00
01162               6.00    -3600.00
01163              10.00    -3600.00
01164               6.00    -3400.00
01165               6.00    -3000.00
01166               0.00    -3000.00
01167               4.00    -2800.00
01168               8.00    -2600.00
01169               6.00    -2200.00
01170               2.00    -2200.00
01171               4.00    -2000.00
01172               2.00    -2000.00
01173               0.00    -1600.00
01174              -2.00    -1400.00
01175               0.00    -1400.00
01176               0.00    -1000.00
01177               0.00    -1000.00
01178              -2.00     -600.00
01179              -2.00     -400.00
01180               0.00     -400.00
01181               0.00     -200.00
01182               0.00      200.00
01183               2.00      400.00
01184               2.00      600.00
01185              24.00      600.00
01186               6.00      800.00
01187              -8.00     1000.00
01188              -4.00     1400.00
01189              10.00     1400.00
01190               6.00     1600.00
01191              54.00     1800.00
01192             240.00     2200.00
01193              74.00     2400.00
01194            -254.00     2400.00
01195            -254.00     2800.00
01196              70.00     2600.00
01197             -22.00     2800.00
01198             246.00     3600.00
01199              56.00     3400.00
01200            -254.00     3400.00
01201             246.00     4200.00
01202             106.00     3800.00
01203            -218.00     4200.00
01204              90.00     4600.00
01205            -136.00     4200.00
01206             142.00     5000.00
01207              42.00     5200.00
01208            -232.00     4600.00
01209             118.00     5600.00
01210             -46.00     5400.00
01211             -12.00     5200.00
01212              -6.00     6200.00
01213             -66.00     5800.00
01214              66.00     6200.00
01215             -48.00     6600.00
01216             -18.00     6400.00
01217             -46.00     6800.00
01218               0.00     7000.00
01219             -32.00     6800.00
01220              -6.00     7400.00
01221              -2.00     7600.00
01222             -88.00     7400.00
01223              30.00     7800.00
01224             -38.00     7800.00
01225             -24.00     7800.00
01226             -16.00     8200.00
01227             -50.00     8200.00
01228             -10.00     8400.00
01229             -24.00     8800.00
01230             -54.00     8800.00
01231             -32.00     9000.00
01232             -16.00     9000.00
01233             -50.00     9000.00
01234             -16.00     9400.00
01235             -42.00     9400.00
01236             -48.00     9400.00
01237             -32.00     9600.00
01238             -48.00     9800.00
01239             -40.00     9800.00
01240             -38.00    10000.00
01241             -46.00    10200.00
01242             -52.00    10200.00
01243             -46.00    10400.00
01244             -64.00    10400.00
01245             -38.00    10600.00
01246             -40.00    10600.00
01247             -64.00    10800.00
01248             -56.00    11000.00
01249             -60.00    10800.00
01250             -64.00    11000.00
01251             -56.00    11000.00
01252             -64.00    11200.00
01253             -60.00    11200.00
01254             -64.00    11400.00
01255             -74.00    11400.00
01256             -70.00    11400.00
01257             -74.00    11600.00
01258             -74.00    11600.00
01259             -72.00    11800.00
01260             -74.00    11800.00
01261             -86.00    11800.00
01262             -86.00    11800.00
01263             -88.00    12000.00
01264             -90.00    12200.00
01265             -84.00    12000.00
01266             -88.00    12000.00
01267             -90.00    12200.00
01268             -96.00    12200.00
01269            -106.00    12400.00
01270            -104.00    12200.00
01271            -104.00    12200.00
01272            -106.00    12200.00
01273            -106.00    12400.00
01274            -110.00    12200.00
01275            -118.00    12200.00
01276            -118.00    12400.00
01277            -122.00    12400.00
01278            -122.00    12200.00
01279            -122.00    12200.00
01280            -128.00    12200.00
01281            -130.00    12400.00
01282            -134.00    12200.00
01283            -142.00    12400.00
01284            -144.00    12200.00
01285            -144.00    12200.00
01286            -134.00    12200.00
01287            -138.00    12200.00
01288            -146.00    12200.00
01289            -150.00    12200.00
01290            -138.00    12000.00
01291            -136.00    12000.00
01292            -146.00    11800.00
01293            -134.00    11800.00
01294            -130.00    11800.00
01295            -130.00    11800.00
01296            -136.00    11800.00
01297            -128.00    11600.00
01298            -118.00    11600.00
01299            -118.00    11400.00
01300            -114.00    11400.00
01301            -114.00    11400.00
01302            -106.00    11600.00
01303            -110.00    11400.00
01304            -106.00    11200.00
01305             -96.00    11000.00
01306             -90.00    11000.00
01307             -90.00    11000.00
01308             -94.00    10800.00
01309             -88.00    10600.00
01310             -82.00    10600.00
01311             -80.00    10400.00
01312             -80.00    10200.00
01313             -72.00    10400.00
01314             -66.00    10200.00
01315             -74.00    10000.00
01316             -66.00    10000.00
01317             -64.00     9800.00
01318             -62.00     9800.00
01319             -64.00     9800.00
01320             -52.00     9400.00
01321             -54.00     9200.00
01322             -52.00     9200.00
01323             -54.00     9000.00
01324             -50.00     9000.00
01325             -42.00     8800.00
01326             -42.00     8600.00
01327             -42.00     8400.00
01328             -46.00     8400.00
01329             -48.00     8000.00
01330             -32.00     8000.00
01331             -36.00     8000.00
01332             -40.00     7800.00
01333             -32.00     7600.00
01334             -30.00     7400.00
01335             -32.00     7200.00
01336             -32.00     7200.00
01337             -32.00     6800.00
01338             -24.00     6800.00
01339             -26.00     6800.00
01340             -26.00     6600.00
01341             -26.00     6400.00
01342             -22.00     6000.00
01343             -26.00     6000.00
01344             -22.00     5800.00
01345             -20.00     5600.00
01346             -16.00     5200.00
01347             -20.00     5200.00
01348             -24.00     5000.00
01349             -16.00     5000.00
01350             -16.00     4600.00
01351             -18.00     4600.00
01352             -14.00     4200.00
01353             -10.00     4200.00
01354             -14.00     3800.00
01355             -16.00     3800.00
01356             -16.00     3600.00
01357             -10.00     3400.00
01358             -10.00     3400.00
01359             -14.00     3000.00
01360             -10.00     2800.00
01361             -12.00     2600.00
01362             -16.00     2400.00
01363             -10.00     2200.00
01364              -8.00     2000.00
01365             -16.00     1800.00
01366              -8.00     1600.00
01367              -2.00     1400.00
01368             -10.00     1200.00
01369             -10.00     1000.00
01370               0.00      800.00
01371              -8.00      600.00
01372              -2.00      400.00
01373              -6.00      200.00
01374              -8.00        0.00
01375               2.00     -200.00
01376              20.00     -200.00
01377              26.00     -600.00
01378              -6.00     -600.00
01379             -22.00    -1000.00
01380               2.00    -1000.00
01381              18.00    -1200.00
01382              10.00    -1400.00
01383              48.00    -1600.00
01384             198.00    -1800.00
01385              96.00    -2200.00
01386            -254.00    -2400.00
01387            -240.00    -2600.00
01388              94.00    -2800.00
01389              40.00    -2800.00
01390             -92.00    -2800.00
01391             230.00    -3200.00
01392             -48.00    -3600.00
01393            -102.00    -3000.00
01394             184.00    -4000.00
01395             -60.00    -3800.00
01396               8.00    -3800.00
01397              -2.00    -4400.00
01398               0.00    -4400.00
01399             106.00    -4400.00
01400             -78.00    -5000.00
01401              -8.00    -5200.00
01402              12.00    -5000.00
01403              20.00    -5800.00
01404              48.00    -5400.00
01405             -46.00    -5600.00
01406              54.00    -6200.00
01407              22.00    -6000.00
01408               2.00    -6200.00
01409              18.00    -6600.00
01410              14.00    -6600.00
01411              18.00    -6800.00
01412               6.00    -7000.00
01413              42.00    -7000.00
01414              -8.00    -7400.00
01415              20.00    -7600.00
01416              30.00    -7400.00
01417              10.00    -7800.00
01418              40.00    -7800.00
01419              14.00    -8000.00
01420              22.00    -8200.00
01421              38.00    -8200.00
01422              14.00    -8600.00
01423              16.00    -8600.00
01424              40.00    -8600.00
01425              30.00    -9000.00
01426              28.00    -9000.00
01427              34.00    -9000.00
01428              28.00    -9400.00
01429              38.00    -9200.00
01430              38.00    -9400.00
01431              34.00    -9800.00
01432              40.00    -9800.00
01433              38.00    -9800.00
01434              36.00   -10000.00
01435              42.00   -10000.00
01436              38.00   -10200.00
01437              40.00   -10200.00
01438              56.00   -10200.00
01439              48.00   -10600.00
01440              48.00   -10600.00
01441              48.00   -10600.00
01442              48.00   -10600.00
01443              54.00   -10800.00
01444              56.00   -10800.00
01445              58.00   -11000.00
01446              64.00   -11200.00
01447              62.00   -11200.00
01448              62.00   -11200.00
01449              64.00   -11400.00
01450              70.00   -11400.00
01451              70.00   -11400.00
01452              76.00   -11400.00
01453              72.00   -11600.00
01454              72.00   -11600.00
01455              78.00   -11600.00
01456              80.00   -11800.00
01457              86.00   -11600.00
01458              88.00   -11800.00
01459              90.00   -12000.00
01460              94.00   -11800.00
01461              90.00   -11800.00
01462              96.00   -11800.00
01463             102.00   -11800.00
01464             106.00   -12000.00
01465             110.00   -11800.00
01466             108.00   -12000.00
01467             112.00   -12000.00
01468             114.00   -11800.00
01469             116.00   -12000.00
01470             120.00   -12200.00
01471             128.00   -12000.00
01472             128.00   -12000.00
01473             130.00   -11800.00
01474             132.00   -12000.00
01475             128.00   -12000.00
01476             134.00   -11800.00
01477             144.00   -11800.00
01478             136.00   -11800.00
01479             140.00   -11800.00
01480             138.00   -11800.00
01481             144.00   -11800.00
01482             142.00   -11600.00
01483             128.00   -11600.00
01484             132.00   -11600.00
01485             136.00   -11600.00
01486             128.00   -11600.00
01487             122.00   -11400.00
01488             122.00   -11400.00
01489             120.00   -11400.00
01490             112.00   -11200.00
01491             110.00   -11000.00
01492             110.00   -11200.00
01493             112.00   -11000.00
01494             100.00   -11000.00
01495              94.00   -10800.00
01496              96.00   -10800.00
01497              88.00   -10800.00
01498              82.00   -10400.00
01499              84.00   -10400.00
01500              86.00   -10400.00
01501              78.00   -10200.00
01502              70.00   -10200.00
01503              66.00   -10000.00
01504              72.00   -10000.00
01505              66.00    -9800.00
01506              62.00    -9800.00
01507              58.00    -9800.00
01508              60.00    -9600.00
01509              54.00    -9400.00
01510              48.00    -9400.00
01511              48.00    -9200.00
01512              50.00    -9000.00
01513              48.00    -9000.00
01514              40.00    -8800.00
01515              40.00    -8600.00
01516              38.00    -8600.00
01517              38.00    -8400.00
01518              38.00    -8200.00
01519              36.00    -8200.00
01520              36.00    -7800.00
01521              32.00    -7800.00
01522              30.00    -7600.00
01523              30.00    -7400.00
01524              30.00    -7400.00
01525              30.00    -7200.00
01526              26.00    -7000.00
01527              16.00    -6800.00
01528              24.00    -6800.00
01529              22.00    -6600.00
01530              16.00    -6400.00
01531              22.00    -6400.00
01532              22.00    -6000.00
01533              16.00    -5800.00
01534              16.00    -5800.00
01535              16.00    -5600.00
01536              14.00    -5400.00
01537              16.00    -5400.00
01538              14.00    -5000.00
01539              16.00    -4600.00
01540              14.00    -4600.00
01541               8.00    -4600.00
01542               8.00    -4200.00
01543              10.00    -4000.00
01544              10.00    -3800.00
01545              10.00    -3600.00
01546               6.00    -3600.00
01547               6.00    -3400.00
01548               8.00    -3000.00
01549               6.00    -3000.00
01550               2.00    -2800.00
01551               8.00    -2600.00
01552               8.00    -2400.00
01553               6.00    -2200.00
01554               0.00    -2000.00
01555               0.00    -1800.00
01556               2.00    -1600.00
01557               2.00    -1400.00
01558               0.00    -1200.00
01559               0.00    -1000.00
01560               2.00     -800.00
01561               0.00     -600.00
01562              -6.00     -400.00
01563              -4.00     -400.00
01564              -2.00     -200.00
01565               0.00      200.00
01566               2.00      200.00
01567              10.00      600.00
01568              24.00      600.00
01569               2.00     1000.00
01570             -10.00     1200.00
01571              -6.00     1200.00
01572              10.00     1400.00
01573              10.00     1600.00
01574              70.00     1800.00
01575             246.00     2200.00
01576              30.00     2400.00
01577            -254.00     2400.00
01578            -230.00     2600.00
01579              74.00     2800.00
01580             -24.00     2800.00
01581             246.00     3600.00
01582             -10.00     3400.00
01583            -254.00     3400.00
01584             246.00     4200.00
01585              48.00     3600.00
01586            -194.00     4000.00
01587              90.00     4600.00
01588            -138.00     4000.00
01589             168.00     5000.00
01590              -6.00     5200.00
01591            -208.00     4600.00
01592             128.00     5800.00
01593             -64.00     5200.00
01594               2.00     5400.00
01595             -16.00     6200.00
01596             -50.00     5800.00
01597              64.00     6200.00
01598             -56.00     6600.00
01599             -14.00     6200.00
01600             -42.00     6800.00
01601               4.00     7000.00
01602             -32.00     6800.00
01603               6.00     7400.00
01604             -14.00     7400.00
01605             -86.00     7400.00
01606              30.00     7800.00
01607             -42.00     7800.00
01608             -14.00     7800.00
01609             -18.00     8400.00
01610             -50.00     8200.00
01611              -8.00     8400.00
01612             -30.00     8800.00
01613             -54.00     8800.00
01614             -22.00     9000.00
01615             -16.00     9000.00
01616             -48.00     9200.00
01617             -16.00     9400.00
01618             -46.00     9400.00
01619             -40.00     9400.00
01620             -34.00     9800.00
01621             -42.00     9800.00
01622             -38.00     9800.00
01623             -34.00    10200.00
01624             -46.00    10000.00
01625             -50.00    10200.00
01626             -48.00    10400.00
01627             -58.00    10200.00
01628             -36.00    10600.00
01629             -46.00    10600.00
01630             -56.00    10800.00
01631             -56.00    10800.00
01632             -58.00    11000.00
01633             -64.00    11000.00
01634             -56.00    11000.00
01635             -62.00    11000.00
01636             -60.00    11400.00
01637             -64.00    11400.00
01638             -72.00    11400.00
01639             -70.00    11400.00
01640             -74.00    11600.00
01641             -74.00    11600.00
01642             -72.00    11800.00
01643             -74.00    11600.00
01644             -82.00    11800.00
01645             -84.00    11800.00
01646             -88.00    11800.00
01647             -88.00    12000.00
01648             -86.00    12000.00
01649             -90.00    12200.00
01650             -90.00    12200.00
01651             -96.00    12200.00
01652            -104.00    12400.00
01653            -104.00    12200.00
01654            -102.00    12200.00
01655            -106.00    12400.00
01656            -106.00    12400.00
01657            -112.00    12200.00
01658            -118.00    12400.00
01659            -122.00    12400.00
01660            -122.00    12200.00
01661            -124.00    12200.00
01662            -126.00    12200.00
01663            -128.00    12400.00
01664            -132.00    12200.00
01665            -136.00    12400.00
01666            -140.00    12200.00
01667            -142.00    12200.00
01668            -146.00    12200.00
01669            -136.00    12200.00
01670            -136.00    12200.00
01671            -150.00    12000.00
01672            -150.00    12000.00
01673            -138.00    12200.00
01674            -136.00    11800.00
01675            -146.00    11800.00
01676            -136.00    12000.00
01677            -128.00    12000.00
01678            -128.00    11800.00
01679            -138.00    11600.00
01680            -128.00    11800.00
01681            -118.00    11600.00
01682            -114.00    11400.00
01683            -118.00    11600.00
01684            -112.00    11400.00
01685            -106.00    11400.00
01686            -106.00    11400.00
01687            -106.00    11000.00
01688             -96.00    11000.00
01689             -88.00    11000.00
01690             -88.00    10800.00
01691             -90.00    10800.00
01692             -88.00    10600.00
01693             -82.00    10600.00
01694             -80.00    10400.00
01695             -78.00    10400.00
01696             -72.00    10200.00
01697             -70.00    10000.00
01698             -70.00    10000.00
01699             -66.00     9800.00
01700             -64.00     9800.00
01701             -62.00     9600.00
01702             -56.00     9800.00
01703             -56.00     9400.00
01704             -54.00     9200.00
01705             -54.00     9200.00
01706             -54.00     9000.00
01707             -48.00     9000.00
01708             -48.00     8600.00
01709             -42.00     8600.00
01710             -42.00     8400.00
01711             -42.00     8400.00
01712             -42.00     8200.00
01713             -40.00     8200.00
01714             -38.00     7800.00
01715             -32.00     7800.00
01716             -34.00     7400.00
01717             -34.00     7400.00
01718             -32.00     7400.00
01719             -32.00     7200.00
01720             -32.00     7000.00
01721             -26.00     6800.00
01722             -30.00     6600.00
01723             -22.00     6600.00
01724             -24.00     6400.00
01725             -26.00     6000.00
01726             -26.00     6000.00
01727             -18.00     5600.00
01728             -18.00     5400.00
01729             -20.00     5400.00
01730             -16.00     5200.00
01731             -16.00     5000.00
01732             -18.00     4800.00
01733             -26.00     4600.00
01734             -18.00     4400.00
01735             -16.00     4200.00
01736             -12.00     4200.00
01737             -16.00     4000.00
01738             -14.00     3800.00
01739             -14.00     3400.00
01740             -16.00     3400.00
01741             -12.00     3000.00
01742             -12.00     3000.00
01743              -8.00     3000.00
01744             -10.00     2600.00
01745             -12.00     2400.00
01746             -10.00     2200.00
01747             -10.00     2000.00
01748              -6.00     1800.00
01749              -6.00     1600.00
01750              -6.00     1400.00
01751              -8.00     1200.00
01752             -10.00     1000.00
01753             -10.00      800.00
01754              -8.00      600.00
01755              -2.00      400.00
01756               0.00      200.00
01757              -2.00        0.00
01758               0.00     -200.00
01759              22.00     -400.00
01760              14.00     -400.00
01761              -8.00     -800.00
01762              -8.00    -1000.00
01763              10.00    -1000.00
01764               8.00    -1200.00
01765               8.00    -1400.00
01766              64.00    -1600.00
01767             210.00    -1800.00
01768              62.00    -2200.00
01769            -254.00    -2600.00
01770            -208.00    -2600.00
01771             112.00    -2800.00
01772               6.00    -3000.00
01773             -72.00    -2800.00
01774             242.00    -3400.00
01775             -90.00    -3400.00
01776             -68.00    -3400.00
01777             176.00    -4000.00
01778             -72.00    -4000.00
01779              22.00    -4000.00
01780             -14.00    -4400.00
01781              18.00    -4400.00
01782              96.00    -4400.00
01783             -82.00    -5000.00
01784               8.00    -5000.00
01785               6.00    -5000.00
01786              26.00    -5800.00
01787              38.00    -5400.00
01788             -42.00    -5600.00
01789              58.00    -6200.00
01790              12.00    -6000.00
01791               4.00    -6400.00
01792              16.00    -6600.00
01793              16.00    -6600.00
01794              22.00    -6800.00
01795              10.00    -7000.00
01796              42.00    -7200.00
01797             -14.00    -7400.00
01798              26.00    -7600.00
01799              32.00    -7600.00
01800              16.00    -7800.00
01801              40.00    -7800.00
01802              10.00    -7800.00
01803              24.00    -8400.00
01804              38.00    -8200.00
01805              14.00    -8400.00
01806              16.00    -8600.00
01807              42.00    -8600.00
01808              28.00    -9000.00
01809              26.00    -9000.00
01810              34.00    -9200.00
01811              30.00    -9200.00
01812              38.00    -9400.00
01813              38.00    -9400.00
01814              40.00    -9800.00
01815              40.00    -9800.00
01816              40.00    -9800.00
01817              34.00   -10000.00
01818              44.00   -10000.00
01819              38.00   -10200.00
01820              46.00   -10200.00
01821              58.00   -10400.00
01822              48.00   -10600.00
01823              46.00   -10600.00
01824              50.00   -10600.00
01825              50.00   -10800.00
01826              54.00   -10800.00
01827              58.00   -10800.00
01828              62.00   -11000.00
01829              64.00   -11200.00
01830              62.00   -11200.00
01831              62.00   -11400.00
01832              66.00   -11200.00
01833              68.00   -11400.00
01834              72.00   -11400.00
01835              78.00   -11600.00
01836              74.00   -11600.00
01837              76.00   -11600.00
01838              78.00   -11600.00
01839              80.00   -11800.00
01840              86.00   -11800.00
01841              86.00   -11800.00
01842              92.00   -11800.00
01843              94.00   -11800.00
01844              94.00   -11800.00
01845              94.00   -11800.00
01846             102.00   -12000.00
01847             106.00   -12000.00
01848             108.00   -12000.00
01849             110.00   -11800.00
01850             112.00   -12000.00
01851             112.00   -12000.00
01852             118.00   -12000.00
01853             120.00   -11800.00
01854             128.00   -11800.00
01855             128.00   -11800.00
01856             128.00   -12000.00
01857             130.00   -12000.00
01858             130.00   -12000.00
01859             134.00   -11800.00
01860             138.00   -11800.00
01861             142.00   -11800.00
01862             142.00   -11800.00
01863             140.00   -11800.00
01864             138.00   -11800.00
01865             136.00   -11800.00
01866             134.00   -11800.00
01867             130.00   -11600.00
01868             134.00   -11400.00
01869             128.00   -11400.00
01870             126.00   -11400.00
01871             120.00   -11400.00
01872             118.00   -11400.00
01873             118.00   -11400.00
01874             116.00   -11000.00
01875             110.00   -11000.00
01876             104.00   -11000.00
01877              98.00   -11000.00
01878              96.00   -11000.00
01879              96.00   -10800.00
01880              90.00   -10600.00
01881              90.00   -10400.00
01882              86.00   -10400.00
01883              80.00   -10400.00
01884              72.00   -10200.00
01885              76.00   -10200.00
01886              70.00   -10000.00
01887              66.00   -10000.00
01888              64.00    -9800.00
01889              64.00    -9800.00
01890              56.00    -9800.00
01891              56.00    -9400.00
01892              56.00    -9400.00
01893              54.00    -9400.00
01894              48.00    -9200.00
01895              46.00    -9000.00
01896              46.00    -9000.00
01897              42.00    -8600.00
01898              38.00    -8600.00
01899              38.00    -8600.00
01900              34.00    -8200.00
01901              38.00    -8200.00
01902              34.00    -8200.00
01903              32.00    -8000.00
01904              30.00    -7800.00
01905              28.00    -7600.00
01906              26.00    -7600.00
01907              30.00    -7400.00
01908              26.00    -7200.00
01909              24.00    -7000.00
01910              22.00    -6800.00
01911              22.00    -6800.00
01912              18.00    -6600.00
01913              18.00    -6400.00
01914              20.00    -6400.00
01915              22.00    -6000.00
01916              16.00    -6000.00
01917              14.00    -5800.00
01918              16.00    -5600.00
01919              14.00    -5400.00
01920              12.00    -5200.00
01921              14.00    -5000.00
01922              16.00    -4800.00
01923              14.00    -4600.00
01924              10.00    -4400.00
01925               8.00    -4000.00
01926              10.00    -4000.00
01927              10.00    -3800.00
01928               6.00    -3600.00
01929               8.00    -3400.00
01930               8.00    -3400.00
01931               6.00    -3000.00
01932               6.00    -3000.00
01933               6.00    -2800.00
01934               8.00    -2400.00
01935               6.00    -2200.00
01936               2.00    -2200.00
01937               0.00    -2200.00
01938               0.00    -1800.00
01939               2.00    -1600.00
01940               4.00    -1400.00
01941               2.00    -1200.00
01942              -2.00    -1000.00
01943               0.00    -1000.00
01944               0.00     -600.00
01945               0.00     -400.00
01946               0.00     -200.00
01947               0.00        0.00
01948               0.00      200.00
01949               0.00      400.00
01950              10.00      600.00
01951              24.00      600.00
01952               6.00     1000.00
01953              -8.00     1200.00
01954              -2.00     1400.00
01955              10.00     1400.00
01956               8.00     1600.00
01957              80.00     1800.00
01958             246.00     2400.00
01959             -14.00     2400.00
01960            -254.00     2600.00
01961            -194.00     2800.00
01962              80.00     2800.00
01963             -16.00     2800.00
01964             246.00     3400.00
01965             -80.00     3400.00
01966            -254.00     3400.00
01967             246.00     4200.00
01968             -10.00     3600.00
01969            -162.00     4200.00
01970              82.00     4600.00
01971            -138.00     4000.00
01972             192.00     5200.00
01973             -50.00     5000.00
01974            -178.00     4600.00
01975             134.00     6000.00
01976             -78.00     5200.00
01977              16.00     5400.00
01978             -32.00     6200.00
01979             -36.00     5800.00
01980              58.00     6200.00
01981             -58.00     6600.00
01982             -12.00     6200.00
01983             -46.00     6800.00
01984               6.00     7000.00
01985             -38.00     6800.00
01986              14.00     7400.00
01987             -30.00     7600.00
01988             -78.00     7400.00
01989              32.00     7800.00
01990             -48.00     7800.00
01991             -10.00     7800.00
01992             -26.00     8400.00
01993             -42.00     8400.00
01994              -8.00     8600.00
01995             -32.00     8800.00
01996             -58.00     8800.00
01997             -20.00     9000.00
01998             -22.00     9200.00
01999             -48.00     9200.00
02000             -14.00     9400.00
02001             -48.00     9400.00
02002             -38.00     9600.00
02003             -34.00     9800.00
02004             -46.00     9800.00
02005             -34.00    10000.00
02006             -34.00    10000.00
02007             -46.00    10000.00
02008             -48.00    10200.00
02009             -48.00    10400.00
02010             -58.00    10400.00
02011             -34.00    10400.00
02012             -46.00    10800.00
02013             -56.00    10600.00
02014             -50.00    10800.00
02015             -62.00    11000.00
02016             -62.00    11000.00
02017             -56.00    11200.00
02018             -62.00    11400.00
02019             -58.00    11200.00
02020             -64.00    11400.00
02021             -72.00    11400.00
02022             -70.00    11600.00
02023             -74.00    11800.00
02024             -74.00    11600.00
02025             -72.00    11600.00
02026             -74.00    11800.00
02027             -86.00    11800.00
02028             -84.00    11800.00
02029             -88.00    11800.00
02030             -90.00    11800.00
02031             -88.00    12000.00
02032             -90.00    12200.00
02033             -88.00    12000.00
02034            -100.00    12200.00
02035            -106.00    12200.00
02036            -104.00    12200.00
02037            -106.00    12200.00
02038            -106.00    12200.00
02039            -106.00    12200.00
02040            -112.00    12200.00
02041            -118.00    12200.00
02042            -122.00    12400.00
02043            -122.00    12400.00
02044            -126.00    12400.00
02045            -126.00    12400.00
02046            -128.00    12400.00
02047            -132.00    12200.00
02048            -138.00    12400.00
02049            -142.00    12400.00
02050            -144.00    12200.00
02051            -148.00    12200.00
02052            -136.00    12200.00
02053            -134.00    12200.00
02054            -152.00    12200.00
02055            -150.00    12200.00
02056            -138.00    12000.00
02057            -136.00    11800.00
02058            -146.00    11800.00
02059            -136.00    11800.00
02060            -126.00    11800.00
02061            -130.00    11800.00
02062            -138.00    11600.00
02063            -128.00    11800.00
02064            -114.00    11600.00
02065            -114.00    11400.00
02066            -118.00    11400.00
02067            -114.00    11400.00
02068            -104.00    11400.00
02069            -106.00    11200.00
02070            -106.00    11000.00
02071             -96.00    11000.00
02072             -88.00    10800.00
02073             -88.00    11000.00
02074             -90.00    10800.00
02075             -86.00    10600.00
02076             -80.00    10600.00
02077             -80.00    10400.00
02078             -74.00    10400.00
02079             -72.00    10200.00
02080             -70.00    10200.00
02081             -68.00    10000.00
02082             -68.00    10000.00
02083             -64.00     9800.00
02084             -60.00     9800.00
02085             -56.00     9400.00
02086             -54.00     9400.00
02087             -54.00     9200.00
02088             -54.00     9200.00
02089             -52.00     9000.00
02090             -48.00     8800.00
02091             -46.00     8600.00
02092             -42.00     8800.00
02093             -42.00     8400.00
02094             -42.00     8200.00
02095             -42.00     8200.00
02096             -40.00     7800.00
02097             -38.00     7800.00
02098             -32.00     7800.00
02099             -32.00     7600.00
02100             -32.00     7400.00
02101             -32.00     7000.00
02102             -32.00     7000.00
02103             -32.00     6800.00
02104             -30.00     6800.00
02105             -30.00     6600.00
02106             -24.00     6600.00
02107             -26.00     6200.00
02108             -26.00     6200.00
02109             -24.00     6000.00
02110             -24.00     5600.00
02111             -22.00     5400.00
02112             -18.00     5400.00
02113             -18.00     5200.00
02114             -18.00     5000.00
02115             -20.00     5000.00
02116             -22.00     4600.00
02117             -16.00     4400.00
02118             -14.00     4200.00
02119             -14.00     4200.00
02120             -14.00     3800.00
02121             -14.00     3800.00
02122             -14.00     3600.00
02123             -16.00     3400.00
02124             -10.00     3200.00
02125             -10.00     3000.00
02126              -8.00     2800.00
02127             -14.00     2600.00
02128             -10.00     2400.00
02129             -10.00     2200.00
02130              -8.00     2000.00
02131              -8.00     1800.00
02132              -6.00     1400.00
02133              -8.00     1400.00
02134              -6.00     1200.00
02135              -8.00     1000.00
02136              -8.00      800.00
02137               0.00      600.00
02138              -4.00      400.00
02139              -2.00      200.00
02140               0.00      200.00
02141               6.00     -200.00
02142              24.00     -200.00
02143              14.00     -400.00
02144             -10.00     -800.00
02145              -6.00    -1000.00
02146              16.00    -1000.00
02147               8.00    -1200.00
02148               6.00    -1400.00
02149              70.00    -1600.00
02150             222.00    -1800.00
02151              30.00    -2400.00
02152            -254.00    -2600.00
02153            -180.00    -2600.00
02154             126.00    -3000.00
02155             -16.00    -3000.00
02156             -50.00    -2800.00
02157             244.00    -3400.00
02158            -122.00    -3400.00
02159             -30.00    -3400.00
02160             160.00    -4000.00
02161             -80.00    -3800.00
02162              34.00    -4000.00
02163             -32.00    -4400.00
02164              34.00    -4400.00
02165              82.00    -4600.00
02166             -84.00    -5200.00
02167              16.00    -5000.00
02168              -2.00    -5200.00
02169              36.00    -5800.00
02170              28.00    -5400.00
02171             -42.00    -5800.00
02172              62.00    -6200.00
02173               6.00    -6000.00
02174              10.00    -6400.00
02175              14.00    -6600.00
02176              18.00    -6600.00
02177              22.00    -6800.00
02178              14.00    -7000.00
02179              36.00    -7200.00
02180             -16.00    -7400.00
02181              32.00    -7600.00
02182              28.00    -7600.00
02183              16.00    -7800.00
02184              40.00    -7800.00
02185               8.00    -8200.00
02186              30.00    -8200.00
02187              36.00    -8200.00
02188              10.00    -8400.00
02189              22.00    -8600.00
02190              48.00    -8600.00
02191              24.00    -9000.00
02192              26.00    -9000.00
02193              34.00    -9200.00
02194              32.00    -9400.00
02195              34.00    -9400.00
02196              32.00    -9400.00
02197              42.00    -9600.00
02198              42.00    -9800.00
02199              34.00    -9800.00
02200              34.00   -10000.00
02201              46.00   -10200.00
02202              36.00   -10200.00
02203              48.00   -10200.00
02204              62.00   -10200.00
02205              50.00   -10400.00
02206              48.00   -10600.00
02207              48.00   -10800.00
02208              48.00   -10800.00
02209              56.00   -10800.00
02210              64.00   -10800.00
02211              62.00   -11000.00
02212              64.00   -11000.00
02213              62.00   -11200.00
02214              58.00   -11400.00
02215              62.00   -11400.00
02216              66.00   -11400.00
02217              78.00   -11600.00
02218              78.00   -11400.00
02219              64.00   -11600.00
02220              70.00   -11600.00
02221              86.00   -11600.00
02222              90.00   -11800.00
02223              88.00   -11800.00
02224              82.00   -11800.00
02225              86.00   -11800.00
02226              92.00   -11800.00
02227              90.00   -11800.00
02228              96.00   -11800.00
02229             102.00   -12000.00
02230             106.00   -12000.00
02231             106.00   -12000.00
02232             110.00   -11800.00
02233             110.00   -12200.00
02234             112.00   -12000.00
02235             116.00   -11800.00
02236             120.00   -11800.00
02237             126.00   -11800.00
02238             128.00   -12000.00
02239             128.00   -12000.00
02240             134.00   -11800.00
02241             130.00   -11800.00
02242             134.00   -12000.00
02243             138.00   -11800.00
02244             142.00   -11800.00
02245             138.00   -11800.00
02246             138.00   -11800.00
02247             136.00   -11600.00
02248             136.00   -11800.00
02249             130.00   -11600.00
02250             130.00   -11600.00
02251             132.00   -11600.00
02252             128.00   -11400.00
02253             122.00   -11400.00
02254             118.00   -11400.00
02255             114.00   -11400.00
02256             118.00   -11400.00
02257             114.00   -11200.00
02258             112.00   -11000.00
02259             102.00   -11000.00
02260             102.00   -11000.00
02261              90.00   -10800.00
02262              94.00   -10800.00
02263              90.00   -10600.00
02264              88.00   -10400.00
02265              86.00   -10400.00
02266              82.00   -10400.00
02267              72.00   -10400.00
02268              72.00   -10200.00
02269              70.00   -10200.00
02270              70.00    -9800.00
02271              64.00   -10000.00
02272              62.00    -9800.00
02273              58.00    -9600.00
02274              54.00    -9400.00
02275              54.00    -9400.00
02276              54.00    -9200.00
02277              50.00    -9200.00
02278              48.00    -9000.00
02279              46.00    -8800.00
02280              40.00    -8800.00
02281              38.00    -8600.00
02282              38.00    -8600.00
02283              38.00    -8200.00
02284              34.00    -8200.00
02285              34.00    -8000.00
02286              34.00    -8000.00
02287              30.00    -7800.00
02288              30.00    -7600.00
02289              30.00    -7400.00
02290              32.00    -7400.00
02291              26.00    -7000.00
02292              26.00    -7000.00
02293              24.00    -6800.00
02294              22.00    -6600.00
02295              22.00    -6600.00
02296              22.00    -6600.00
02297              18.00    -6200.00
02298              20.00    -6000.00
02299              16.00    -6000.00
02300              16.00    -5600.00
02301              14.00    -5400.00
02302              16.00    -5400.00
02303              16.00    -5200.00
02304              16.00    -5000.00
02305              14.00    -4800.00
02306              12.00    -4600.00
02307               8.00    -4400.00
02308               8.00    -4400.00
02309              10.00    -4000.00
02310              10.00    -3800.00
02311               8.00    -3800.00
02312               8.00    -3400.00
02313               8.00    -3400.00
02314               6.00    -3000.00
02315               8.00    -3000.00
02316               6.00    -2800.00
02317               6.00    -2600.00
02318               6.00    -2600.00
02319               2.00    -2200.00
02320               4.00    -2000.00
02321               4.00    -1800.00
02322               2.00    -1600.00
02323               6.00    -1200.00
02324               2.00    -1200.00
02325               2.00    -1000.00
02326               0.00     -800.00
02327               0.00     -400.00
02328               0.00     -400.00
02329               0.00     -200.00
02330               0.00        0.00
02331               2.00      200.00
02332               4.00      400.00
02333              14.00      600.00
02334              26.00      600.00
02335               6.00     1000.00
02336             -10.00     1200.00
02337               0.00     1400.00
02338              12.00     1400.00
02339              12.00     1800.00
02340              94.00     2000.00
02341             246.00     2400.00
02342             -58.00     2400.00
02343            -254.00     2400.00
02344            -162.00     2800.00
02345              80.00     2800.00
02346              -8.00     3000.00
02347             246.00     3600.00
02348            -152.00     3400.00
02349            -254.00     3400.00
02350             246.00     4200.00
02351             -66.00     3600.00
02352            -126.00     4200.00
02353              66.00     4600.00
02354            -128.00     4000.00
02355             210.00     5200.00
02356             -96.00     5000.00
02357            -150.00     4600.00
02358             128.00     5800.00
02359             -90.00     5200.00
02360              32.00     5800.00
02361             -48.00     6200.00
02362             -24.00     5800.00
02363              48.00     6400.00
02364             -58.00     6600.00
02365             -10.00     6600.00
02366             -44.00     6800.00
02367               8.00     7000.00
02368             -42.00     6800.00
02369              16.00     7400.00
02370             -42.00     7400.00
02371             -66.00     7400.00
02372              32.00     7800.00
02373             -54.00     7800.00
02374              -2.00     7800.00
02375             -34.00     8400.00
02376             -42.00     8400.00
02377              -8.00     8400.00
02378             -34.00     9000.00
02379             -56.00     8600.00
02380             -12.00     9000.00
02381             -28.00     9000.00
02382             -48.00     9400.00
02383             -16.00     9400.00
02384             -54.00     9400.00
02385             -36.00     9600.00
02386             -34.00     9800.00
02387             -42.00     9800.00
02388             -36.00    10000.00
02389             -38.00    10000.00
02390             -54.00    10000.00
02391             -42.00    10400.00
02392             -48.00    10600.00
02393             -56.00    10600.00
02394             -32.00    10600.00
02395             -48.00    10800.00
02396             -58.00    10800.00
02397             -56.00    11000.00
02398             -64.00    11000.00
02399             -58.00    11000.00
02400             -50.00    11000.00
02401             -64.00    11200.00
02402             -58.00    11400.00
02403             -64.00    11400.00
02404             -72.00    11600.00
02405             -70.00    11600.00
02406             -74.00    11600.00
02407             -74.00    11600.00
02408             -70.00    11800.00
02409             -74.00    11800.00
02410             -86.00    11800.00
02411             -86.00    11800.00
02412             -90.00    11800.00
02413             -88.00    11800.00
02414             -86.00    12000.00
02415             -90.00    12200.00
02416             -96.00    12200.00
02417             -98.00    12200.00
02418            -106.00    12200.00
02419            -104.00    12400.00
02420            -104.00    12200.00
02421            -106.00    12200.00
02422            -106.00    12400.00
02423            -114.00    12400.00
02424            -120.00    12200.00
02425            -120.00    12400.00
02426            -122.00    12200.00
02427            -124.00    12200.00
02428            -128.00    12200.00
02429            -130.00    12400.00
02430            -130.00    12400.00
02431            -138.00    12200.00
02432            -144.00    12200.00
02433            -142.00    12000.00
02434            -146.00    12200.00
02435            -134.00    12200.00
02436            -138.00    12200.00
02437            -152.00    12000.00
02438            -150.00    12000.00
02439            -138.00    11800.00
02440            -138.00    12000.00
02441            -148.00    11800.00
02442            -134.00    11800.00
02443            -130.00    11800.00
02444            -134.00    11800.00
02445            -138.00    11800.00
02446            -122.00    11600.00
02447            -112.00    11600.00
02448            -122.00    11400.00
02449            -120.00    11400.00
02450            -106.00    11400.00
02451            -104.00    11400.00
02452            -106.00    11200.00
02453            -106.00    11200.00
02454             -98.00    11000.00
02455             -90.00    11000.00
02456             -82.00    10800.00
02457             -90.00    10600.00
02458             -96.00    10600.00
02459             -82.00    10600.00
02460             -64.00    10600.00
02461             -70.00    10400.00
02462             -82.00    10200.00
02463             -74.00    10200.00
02464             -58.00    10000.00
02465             -64.00    10000.00
02466             -66.00     9800.00
02467             -54.00     9600.00
02468             -50.00     9400.00
02469             -62.00     9400.00
02470             -58.00     9400.00
02471             -50.00     9200.00
02472             -46.00     9000.00
02473             -46.00     9000.00
02474             -44.00     8800.00
02475             -42.00     8600.00
02476             -50.00     8400.00
02477             -54.00     8400.00
02478             -40.00     8200.00
02479             -26.00     7800.00
02480             -32.00     8000.00
02481             -40.00     7600.00
02482             -36.00     7600.00
02483             -32.00     7400.00
02484             -30.00     7200.00
02485             -34.00     7000.00
02486             -32.00     6800.00
02487             -24.00     6800.00
02488             -26.00     6600.00
02489             -26.00     6600.00
02490             -24.00     6200.00
02491             -28.00     6000.00
02492             -26.00     6000.00
02493             -26.00     5600.00
02494             -16.00     5600.00
02495             -16.00     5200.00
02496             -16.00     5200.00
02497             -24.00     5000.00
02498             -22.00     4800.00
02499             -24.00     4600.00
02500             -16.00     4400.00
02501             -16.00     4200.00
02502             -14.00     3800.00
02503             -14.00     3800.00
02504             -16.00     3600.00
02505             -16.00     3600.00
02506             -10.00     3400.00
02507             -10.00     3000.00
02508             -10.00     3000.00
02509             -10.00     2600.00
02510             -10.00     2600.00
02511             -14.00     2200.00
02512             -10.00     2200.00
02513              -8.00     2000.00
02514              -6.00     1800.00
02515              -6.00     1600.00
02516              -8.00     1400.00
02517              -8.00     1200.00
02518             -10.00     1000.00
02519              -8.00     1000.00
02520              -2.00      600.00
02521               0.00      400.00
02522              -2.00      200.00
02523              -2.00        0.00
02524               6.00     -200.00
02525              26.00     -200.00
02526              10.00     -600.00
02527             -10.00     -800.00
02528              -4.00     -800.00
02529              16.00    -1000.00
02530               6.00    -1200.00
02531              14.00    -1400.00
02532              86.00    -1600.00
02533             224.00    -2000.00
02534             -10.00    -2400.00
02535            -254.00    -2400.00
02536            -148.00    -2800.00
02537             134.00    -2800.00
02538             -40.00    -2800.00
02539             -18.00    -2800.00
02540             238.00    -3400.00
02541            -156.00    -3400.00
02542              10.00    -3400.00
02543             146.00    -4200.00
02544             -82.00    -3800.00
02545              46.00    -4000.00
02546             -42.00    -4600.00
02547              54.00    -4600.00
02548              64.00    -4600.00
02549             -88.00    -5200.00
02550              22.00    -5000.00
02551              -8.00    -5200.00
02552              42.00    -5800.00
02553              14.00    -5400.00
02554             -32.00    -5800.00
02555              66.00    -6200.00
02556               0.00    -6000.00
02557              10.00    -6600.00
02558               8.00    -6600.00
02559              18.00    -6600.00
02560              16.00    -6800.00
02561              18.00    -6800.00
02562              32.00    -7400.00
02563             -22.00    -7400.00
02564              32.00    -7600.00
02565              22.00    -7600.00
02566              22.00    -7800.00
02567              38.00    -8000.00
02568               6.00    -8000.00
02569              30.00    -8400.00
02570              30.00    -8400.00
02571              10.00    -8600.00
02572              22.00    -8600.00
02573              48.00    -8800.00
02574              24.00    -9000.00
02575              30.00    -9000.00
02576              32.00    -9200.00
02577              26.00    -9200.00
02578              38.00    -9400.00
02579              38.00    -9400.00
02580              40.00    -9800.00
02581              40.00    -9800.00
02582              38.00    -9800.00
02583              34.00   -10200.00
02584              44.00   -10200.00
02585              38.00   -10200.00
02586              50.00   -10200.00
02587              58.00   -10600.00
02588              48.00   -10200.00
02589              50.00   -10600.00
02590              50.00   -10800.00
02591              54.00   -10800.00
02592              56.00   -10800.00
02593              58.00   -10800.00
02594              64.00   -11000.00
02595              66.00   -11000.00
02596              62.00   -11000.00
02597              62.00   -11200.00
02598              66.00   -11400.00
02599              72.00   -11400.00
02600              76.00   -11400.00
02601              78.00   -11600.00
02602              74.00   -11600.00
02603              78.00   -11600.00
02604              80.00   -11600.00
02605              82.00   -11800.00
02606              86.00   -11800.00
02607              90.00   -11800.00
02608              90.00   -11800.00
02609              94.00   -11800.00
02610              92.00   -12000.00
02611              96.00   -12000.00
02612             102.00   -11800.00
02613             104.00   -11800.00
02614             106.00   -12000.00
02615             110.00   -12000.00
02616             112.00   -11800.00
02617             114.00   -11800.00
02618             118.00   -12000.00
02619             122.00   -11800.00
02620             126.00   -12000.00
02621             130.00   -11800.00
02622             130.00   -12000.00
02623             128.00   -11800.00
02624             130.00   -11800.00
02625             134.00   -11800.00
02626             138.00   -11800.00
02627             138.00   -11800.00
02628             136.00   -11800.00
02629             136.00   -11800.00
02630             136.00   -11600.00
02631             134.00   -11800.00
02632             130.00   -11600.00
02633             130.00   -11600.00
02634             134.00   -11600.00
02635             126.00   -11400.00
02636             122.00   -11600.00
02637             120.00   -11400.00
02638             116.00   -11400.00
02639             118.00   -11200.00
02640             112.00   -11200.00
02641             112.00   -11000.00
02642             104.00   -11000.00
02643             102.00   -10800.00
02644              96.00   -11000.00
02645              96.00   -10800.00
02646              88.00   -10600.00
02647              88.00   -10400.00
02648              82.00   -10400.00
02649              80.00   -10200.00
02650              74.00   -10200.00
02651              72.00   -10200.00
02652              72.00   -10000.00
02653              70.00   -10000.00
02654              66.00    -9800.00
02655              64.00    -9800.00
02656              58.00    -9600.00
02657              54.00    -9400.00
02658              56.00    -9400.00
02659              54.00    -9400.00
02660              50.00    -9000.00
02661              50.00    -9000.00
02662              48.00    -9000.00
02663              46.00    -8800.00
02664              40.00    -8600.00
02665              38.00    -8400.00
02666              40.00    -8400.00
02667              38.00    -8200.00
02668              34.00    -8200.00
02669              32.00    -7800.00
02670              30.00    -7800.00
02671              30.00    -7800.00
02672              30.00    -7600.00
02673              26.00    -7400.00
02674              26.00    -7200.00
02675              24.00    -7200.00
02676              22.00    -6800.00
02677              22.00    -6800.00
02678              22.00    -6600.00
02679              22.00    -6200.00
02680              20.00    -6200.00
02681              18.00    -6000.00
02682              18.00    -6000.00
02683              14.00    -5800.00
02684              14.00    -5400.00
02685              16.00    -5400.00
02686              14.00    -5200.00
02687              14.00    -5200.00
02688              12.00    -5000.00
02689              10.00    -4600.00
02690              10.00    -4400.00
02691               8.00    -4000.00
02692               8.00    -4200.00
02693               8.00    -3800.00
02694              10.00    -3600.00
02695               8.00    -3600.00
02696               8.00    -3400.00
02697               6.00    -3000.00
02698               6.00    -3000.00
02699               6.00    -2600.00
02700               6.00    -2600.00
02701               6.00    -2400.00
02702               2.00    -2200.00
02703               2.00    -1800.00
02704               0.00    -1800.00
02705               0.00    -1400.00
02706               2.00    -1400.00
02707               4.00    -1200.00
02708               2.00    -1000.00
02709               0.00    -1000.00
02710               0.00     -600.00
02711              -2.00     -400.00
02712               0.00     -200.00
02713               0.00        0.00
02714               0.00      200.00
02715               0.00      600.00
02716              16.00      600.00
02717              24.00      800.00
02718               0.00     1000.00
02719             -10.00     1200.00
02720               0.00     1200.00
02721              14.00     1600.00
02722              14.00     1800.00
02723             112.00     2000.00
02724             246.00     2400.00
02725            -106.00     2400.00
02726            -254.00     2600.00
02727            -128.00     2800.00
02728              74.00     3000.00
02729              10.00     3000.00
02730             246.00     3600.00
02731            -218.00     3200.00
02732            -224.00     3600.00
02733             246.00     4200.00
02734            -122.00     3400.00
02735             -88.00     4600.00
02736              46.00     4400.00
02737            -110.00     4000.00
02738             218.00     5200.00
02739            -142.00     4600.00
02740            -112.00     5000.00
02741             118.00     5800.00
02742             -92.00     5200.00
02743              38.00     5600.00
02744             -62.00     6200.00
02745              -6.00     5800.00
02746              36.00     6400.00
02747             -58.00     6600.00
02748             -14.00     6200.00
02749             -42.00     7000.00
02750               8.00     7000.00
02751             -42.00     7000.00
02752              22.00     7400.00
02753             -56.00     7400.00
02754             -56.00     7400.00
02755              26.00     7800.00
02756             -54.00     7800.00
02757               0.00     8000.00
02758             -40.00     8200.00
02759             -34.00     8200.00
02760             -10.00     8800.00
02761             -36.00     8800.00
02762             -54.00     8600.00
02763             -12.00     9200.00
02764             -30.00     9200.00
02765             -42.00     9200.00
02766             -16.00     9400.00
02767             -54.00     9400.00
02768             -34.00     9400.00
02769             -40.00     9800.00
02770             -40.00     9800.00
02771             -38.00     9800.00
02772             -34.00    10200.00
02773             -50.00    10200.00
02774             -48.00    10200.00
02775             -50.00    10400.00
02776             -54.00    10600.00
02777             -32.00    10800.00
02778             -50.00    10600.00
02779             -56.00    11000.00
02780             -54.00    10800.00
02781             -64.00    11000.00
02782             -58.00    11000.00
02783             -56.00    11200.00
02784             -64.00    11400.00
02785             -58.00    11400.00
02786             -64.00    11400.00
02787             -70.00    11400.00
02788             -70.00    11600.00
02789             -74.00    11600.00
02790             -72.00    11600.00
02791             -72.00    11800.00
02792             -74.00    11800.00
02793             -82.00    11800.00
02794             -82.00    11800.00
02795             -90.00    12000.00
02796             -88.00    11800.00
02797             -86.00    12000.00
02798             -90.00    12200.00
02799             -94.00    12200.00
02800             -98.00    12200.00
02801            -104.00    12200.00
02802            -104.00    12200.00
02803            -106.00    12200.00
02804            -108.00    12400.00
02805            -108.00    12200.00
02806            -112.00    12400.00
02807            -120.00    12400.00
02808            -122.00    12200.00
02809            -124.00    12200.00
02810            -124.00    12200.00
02811            -130.00    12400.00
02812            -130.00    12200.00
02813            -134.00    12400.00
02814            -138.00    12200.00
02815            -144.00    12200.00
02816            -144.00    12200.00
02817            -146.00    12200.00
02818            -130.00    12200.00
02819            -144.00    11800.00
02820            -152.00    12000.00
02821            -150.00    11800.00
02822            -138.00    11800.00
02823            -142.00    12000.00
02824            -146.00    11800.00
02825            -130.00    11800.00
02826            -128.00    11800.00
02827            -136.00    11600.00
02828            -138.00    11800.00
02829            -126.00    11600.00
02830            -114.00    11600.00
02831            -114.00    11600.00
02832            -116.00    11400.00
02833            -110.00    11400.00
02834            -106.00    11200.00
02835            -108.00    11200.00
02836            -106.00    11200.00
02837             -96.00    11000.00
02838             -88.00    11000.00
02839             -90.00    10800.00
02840             -90.00    10800.00
02841             -86.00    10600.00
02842             -82.00    10600.00
02843             -80.00    10200.00
02844             -74.00    10400.00
02845             -68.00    10200.00
02846             -70.00    10000.00
02847             -66.00    10000.00
02848             -64.00    10000.00
02849             -62.00     9800.00
02850             -58.00     9800.00
02851             -56.00     9600.00
02852             -54.00     9400.00
02853             -54.00     9200.00
02854             -52.00     9200.00
02855             -50.00     9000.00
02856             -46.00     8800.00
02857             -42.00     8800.00
02858             -40.00     8600.00
02859             -40.00     8400.00
02860             -40.00     8400.00
02861             -42.00     8200.00
02862             -38.00     8000.00
02863             -38.00     7800.00
02864             -32.00     7600.00
02865             -32.00     7400.00
02866             -32.00     7400.00
02867             -32.00     7200.00
02868             -34.00     7200.00
02869             -32.00     6800.00
02870             -26.00     6800.00
02871             -24.00     6600.00
02872             -26.00     6400.00
02873             -26.00     6200.00
02874             -26.00     6200.00
02875             -24.00     6000.00
02876             -24.00     5600.00
02877             -20.00     5400.00
02878             -18.00     5200.00
02879             -18.00     5000.00
02880             -22.00     5000.00
02881             -18.00     4600.00
02882             -24.00     4600.00
02883             -16.00     4400.00
02884             -16.00     4200.00
02885             -14.00     3800.00
02886             -14.00     3800.00
02887             -16.00     3600.00
02888             -16.00     3400.00
02889             -16.00     3400.00
02890             -12.00     3000.00
02891             -10.00     2800.00
02892             -10.00     2800.00
02893             -10.00     2400.00
02894             -10.00     2400.00
02895             -10.00     2200.00
02896             -10.00     2000.00
02897              -8.00     1800.00
02898              -8.00     1400.00
02899              -6.00     1200.00
02900              -8.00     1000.00
02901             -10.00     1000.00
02902              -8.00      600.00
02903              -8.00      600.00
02904              -2.00      400.00
02905              -2.00      200.00
02906               0.00        0.00
02907               6.00     -200.00
02908              24.00     -400.00
02909              10.00     -600.00
02910             -10.00     -800.00
02911              -2.00    -1000.00
02912              12.00    -1000.00
02913               6.00    -1200.00
02914              14.00    -1400.00
02915              98.00    -1400.00
02916             226.00    -2000.00
02917             -50.00    -2600.00
02918            -254.00    -2400.00
02919            -120.00    -2600.00
02920             136.00    -2800.00
02921             -62.00    -3000.00
02922              16.00    -2800.00
02923             224.00    -3400.00
02924            -180.00    -3400.00
02925              50.00    -3400.00
02926             122.00    -4200.00
02927             -86.00    -3800.00
02928              52.00    -4000.00
02929             -46.00    -4600.00
02930              70.00    -4400.00
02931              50.00    -4600.00
02932             -82.00    -5200.00
02933              30.00    -5200.00
02934             -10.00    -5200.00
02935              50.00    -5800.00
02936               6.00    -5400.00
02937             -24.00    -5800.00
02938              64.00    -6000.00
02939              -4.00    -6000.00
02940              10.00    -6600.00
02941               6.00    -6600.00
02942              24.00    -6600.00
02943              14.00    -7000.00
02944              18.00    -7000.00
02945              26.00    -7200.00
02946             -16.00    -7400.00
02947              40.00    -7600.00
02948              16.00    -7600.00
02949              22.00    -7800.00
02950              38.00    -8000.00
02951               6.00    -8200.00
02952              30.00    -8400.00
02953              28.00    -8400.00
02954              10.00    -8600.00
02955              22.00    -8600.00
02956              44.00    -8800.00
02957              22.00    -9000.00
02958              32.00    -9000.00
02959              32.00    -9200.00
02960              26.00    -9400.00
02961              38.00    -9400.00
02962              34.00    -9600.00
02963              38.00    -9800.00
02964              38.00    -9800.00
02965              34.00    -9800.00
02966              36.00   -10000.00
02967              46.00   -10000.00
02968              38.00   -10200.00
02969              50.00   -10200.00
02970              56.00   -10400.00
02971              48.00   -10400.00
02972              48.00   -10400.00
02973              48.00   -10600.00
02974              54.00   -10800.00
02975              58.00   -11000.00
02976              58.00   -10800.00
02977              62.00   -11000.00
02978              64.00   -11200.00
02979              62.00   -11200.00
02980              62.00   -11400.00
02981              68.00   -11400.00
02982              70.00   -11600.00
02983              74.00   -11400.00
02984              78.00   -11400.00
02985              78.00   -11800.00
02986              74.00   -11600.00
02987              82.00   -11600.00
02988              86.00   -11800.00
02989              90.00   -11600.00
02990              90.00   -11800.00
02991              94.00   -12000.00
02992              94.00   -11800.00
02993              96.00   -11800.00
02994              96.00   -11800.00
02995             102.00   -11800.00
02996             108.00   -12000.00
02997             108.00   -12200.00
02998             112.00   -12200.00
02999             110.00   -11800.00
03000             116.00   -12000.00
03001             118.00   -12000.00
03002             122.00   -11800.00
03003             126.00   -12000.00
03004             130.00   -12000.00
03005             130.00   -11800.00
03006             132.00   -12000.00
03007             134.00   -11800.00
03008             134.00   -11800.00
03009             140.00   -11800.00
03010             138.00   -12000.00
03011             140.00   -11800.00
03012             140.00   -11800.00
03013             134.00   -11800.00
03014             134.00   -11800.00
03015             134.00   -11600.00
03016             134.00   -11600.00
03017             134.00   -11600.00
03018             128.00   -11400.00
03019             120.00   -11400.00
03020             118.00   -11400.00
03021             116.00   -11200.00
03022             114.00   -11200.00
03023             110.00   -11200.00
03024             110.00   -11000.00
03025             102.00   -11000.00
03026             100.00   -11000.00
03027              94.00   -10800.00
03028              90.00   -10800.00
03029              92.00   -10600.00
03030              88.00   -10400.00
03031              84.00   -10400.00
03032              80.00   -10400.00
03033              74.00   -10200.00
03034              74.00   -10200.00
03035              70.00   -10000.00
03036              70.00   -10000.00
03037              64.00    -9800.00
03038              64.00    -9800.00
03039              58.00    -9800.00
03040              56.00    -9400.00
03041              54.00    -9400.00
03042              52.00    -9200.00
03043              52.00    -9000.00
03044              48.00    -9000.00
03045              48.00    -8800.00
03046              42.00    -8800.00
03047              42.00    -8600.00
03048              40.00    -8400.00
03049              38.00    -8200.00
03050              38.00    -8200.00
03051              34.00    -7800.00
03052              32.00    -8000.00
03053              32.00    -7800.00
03054              30.00    -7800.00
03055              28.00    -7600.00
03056              32.00    -7400.00
03057              26.00    -7000.00
03058              22.00    -7000.00
03059              24.00    -6800.00
03060              22.00    -6600.00
03061              22.00    -6600.00
03062              22.00    -6400.00
03063              16.00    -6200.00
03064              22.00    -6000.00
03065              16.00    -6000.00
03066              10.00    -5800.00
03067              16.00    -5400.00
03068              12.00    -5200.00
03069              14.00    -5000.00
03070              16.00    -5000.00
03071              10.00    -4800.00
03072              10.00    -4600.00
03073               8.00    -4400.00
03074               8.00    -4000.00
03075               8.00    -4000.00
03076               6.00    -3800.00
03077              10.00    -3600.00
03078              10.00    -3400.00
03079               6.00    -3200.00
03080               4.00    -3000.00
03081               2.00    -2800.00
03082               0.00    -2800.00
03083               2.00    -2400.00
03084               6.00    -2400.00
03085               2.00    -2200.00
03086               6.00    -2000.00
03087               2.00    -1600.00
03088              -2.00    -1800.00
03089               0.00    -1400.00
03090               2.00    -1400.00
03091               2.00    -1000.00
03092               0.00     -600.00
03093              -2.00     -600.00
03094              -2.00     -200.00
03095               0.00     -200.00
03096              -2.00     -200.00
03097               2.00      200.00
03098               0.00      400.00
03099              16.00      600.00
03100              22.00      600.00
03101               0.00     1000.00
03102              -8.00     1200.00
03103               2.00     1200.00
03104               8.00     1400.00
03105              18.00     1800.00
03106             130.00     2000.00
03107             246.00     2400.00
03108            -154.00     2400.00
03109            -254.00     2600.00
03110             -96.00     2800.00
03111              62.00     2800.00
03112              32.00     3000.00
03113             246.00     3600.00
03114            -254.00     3200.00
03115            -160.00     3800.00
03116             246.00     4000.00
03117            -164.00     3600.00
03118             -48.00     4400.00
03119              24.00     4400.00
03120             -88.00     4200.00
03121             222.00     5400.00
03122            -176.00     4600.00
03123             -74.00     5000.00
03124             104.00     5800.00
03125             -90.00     5000.00
03126              48.00     5800.00
03127             -72.00     6000.00
03128              12.00     5800.00
03129              20.00     6600.00
03130             -58.00     6400.00
03131             -16.00     6200.00
03132             -38.00     6800.00
03133               6.00     6800.00
03134             -42.00     6800.00
03135              30.00     7400.00
03136             -68.00     7200.00
03137             -42.00     7600.00
03138              22.00     7800.00
03139             -54.00     7600.00
03140               2.00     8000.00
03141             -46.00     8400.00
03142             -32.00     8200.00
03143             -14.00     8600.00
03144             -40.00     9000.00
03145             -54.00     8800.00
03146             -10.00     9000.00
03147             -34.00     9000.00
03148             -40.00     9200.00
03149             -20.00     9400.00
03150             -58.00     9400.00
03151             -32.00     9400.00
03152             -38.00     9600.00
03153             -40.00     9800.00
03154             -38.00    10000.00
03155             -34.00    10200.00
03156             -54.00    10000.00
03157             -48.00    10200.00
03158             -52.00    10600.00
03159             -50.00    10600.00
03160             -32.00    10600.00
03161             -54.00    10800.00
03162             -58.00    10600.00
03163             -54.00    10800.00
03164             -64.00    11000.00
03165             -60.00    11000.00
03166             -54.00    11200.00
03167             -62.00    11000.00
03168             -58.00    11400.00
03169             -66.00    11400.00
03170             -68.00    11400.00
03171             -66.00    11400.00
03172             -72.00    11600.00
03173             -72.00    11800.00
03174             -72.00    11800.00
03175             -80.00    11800.00
03176             -86.00    12000.00
03177             -82.00    11800.00
03178             -82.00    12000.00
03179             -84.00    12000.00
03180             -88.00    12000.00
03181             -94.00    12200.00
03182             -94.00    12200.00
03183             -98.00    12200.00
03184            -102.00    12200.00
03185            -100.00    12200.00
03186            -104.00    12200.00
03187            -106.00    12200.00
03188            -110.00    12200.00
03189            -114.00    12400.00
03190            -120.00    12200.00
03191            -122.00    12200.00
03192            -120.00    12400.00
03193            -122.00    12400.00
03194            -128.00    12200.00
03195            -130.00    12400.00
03196            -134.00    12200.00
03197            -138.00    12200.00
03198            -142.00    12200.00
03199            -144.00    12200.00
03200            -140.00    12200.00
03201            -134.00    12000.00
03202            -146.00    12200.00
03203            -150.00    12200.00
03204            -144.00    12000.00
03205            -138.00    12000.00
03206            -144.00    11800.00
03207            -140.00    11800.00
03208            -128.00    11800.00
03209            -134.00    11800.00
03210            -138.00    11800.00
03211            -136.00    11600.00
03212            -124.00    11600.00
03213            -118.00    11600.00
03214            -118.00    11400.00
03215            -118.00    11400.00
03216            -112.00    11400.00
03217            -108.00    11400.00
03218            -106.00    11400.00
03219            -102.00    11000.00
03220             -94.00    11000.00
03221             -88.00    11000.00
03222             -90.00    10800.00
03223             -88.00    10800.00
03224             -86.00    10600.00
03225             -82.00    10400.00
03226             -78.00    10600.00
03227             -72.00    10200.00
03228             -68.00    10200.00
03229             -70.00    10000.00
03230             -70.00    10000.00
03231             -66.00     9800.00
03232             -64.00     9800.00
03233             -58.00     9800.00
03234             -52.00     9600.00
03235             -54.00     9400.00
03236             -56.00     9400.00
03237             -54.00     9200.00
03238             -42.00     9000.00
03239             -42.00     9000.00
03240             -54.00     8600.00
03241             -42.00     8600.00
03242             -38.00     8400.00
03243             -48.00     8200.00
03244             -42.00     8200.00
03245             -32.00     8000.00
03246             -36.00     7800.00
03247             -30.00     7600.00
03248             -38.00     7600.00
03249             -34.00     7400.00
03250             -26.00     7400.00
03251             -30.00     7000.00
03252             -20.00     7000.00
03253             -32.00     6600.00
03254             -34.00     6600.00
03255             -26.00     6600.00
03256             -16.00     6400.00
03257             -24.00     6000.00
03258             -30.00     6000.00
03259             -24.00     5600.00
03260             -14.00     5400.00
03261             -18.00     5200.00
03262             -26.00     5200.00
03263             -22.00     5000.00
03264             -12.00     4800.00
03265             -22.00     4600.00
03266             -16.00     4400.00
03267             -16.00     4200.00
03268             -10.00     3800.00
03269             -16.00     3800.00
03270             -18.00     3800.00
03271             -14.00     3400.00
03272             -14.00     3400.00
03273             -14.00     3000.00
03274             -10.00     2800.00
03275             -10.00     2600.00
03276             -14.00     2600.00
03277             -12.00     2400.00
03278             -14.00     2000.00
03279             -10.00     2000.00
03280              -8.00     1600.00
03281              -6.00     1400.00
03282              -4.00     1400.00
03283              -8.00     1200.00
03284              -8.00     1000.00
03285              -8.00      800.00
03286             -10.00      400.00
03287              -6.00      200.00
03288               6.00      400.00
03289               0.00     -200.00
03290               2.00     -200.00
03291              24.00     -400.00
03292               6.00     -600.00
03293             -14.00     -800.00
03294               0.00    -1000.00
03295              16.00    -1200.00
03296               2.00    -1200.00
03297              18.00    -1400.00
03298             104.00    -1600.00
03299             224.00    -2000.00
03300             -86.00    -2400.00
03301            -254.00    -2600.00
03302             -84.00    -2600.00
03303             136.00    -2800.00
03304             -80.00    -2800.00
03305              46.00    -2800.00
03306             200.00    -3400.00
03307            -196.00    -3400.00
03308              90.00    -3400.00
03309              98.00    -4200.00
03310             -86.00    -3800.00
03311              56.00    -4200.00
03312             -50.00    -4400.00
03313              88.00    -4400.00
03314              24.00    -4600.00
03315             -74.00    -5200.00
03316              34.00    -5000.00
03317             -14.00    -5200.00
03318              56.00    -5600.00
03319              -6.00    -5400.00
03320             -12.00    -5800.00
03321              62.00    -6000.00
03322              -8.00    -6000.00
03323              16.00    -6600.00
03324               8.00    -6600.00
03325              22.00    -6600.00
03326               6.00    -6800.00
03327              26.00    -7000.00
03328              24.00    -7000.00
03329             -16.00    -7400.00
03330              42.00    -7400.00
03331              16.00    -7600.00
03332              28.00    -7800.00
03333              30.00    -7800.00
03334               6.00    -8200.00
03335              34.00    -8400.00
03336              24.00    -8400.00
03337              10.00    -8600.00
03338              28.00    -8600.00
03339              46.00    -9000.00
03340              22.00    -9000.00
03341              30.00    -9000.00
03342              32.00    -9200.00
03343              32.00    -9400.00
03344              38.00    -9400.00
03345              34.00    -9400.00
03346              40.00    -9600.00
03347              40.00    -9800.00
03348              32.00   -10000.00
03349              40.00   -10000.00
03350              42.00   -10000.00
03351              38.00   -10200.00
03352              54.00   -10200.00
03353              56.00   -10400.00
03354              46.00   -10600.00
03355              50.00   -10600.00
03356              46.00   -10800.00
03357              48.00   -10800.00
03358              56.00   -10800.00
03359              66.00   -11000.00
03360              66.00   -11000.00
03361              62.00   -11200.00
03362              58.00   -11200.00
03363              68.00   -11200.00
03364              70.00   -11400.00
03365              66.00   -11400.00
03366              74.00   -11400.00
03367              82.00   -11400.00
03368              78.00   -11600.00
03369              76.00   -11600.00
03370              80.00   -11800.00
03371              84.00   -11600.00
03372              88.00   -11800.00
03373              94.00   -11800.00
03374             102.00   -11800.00
03375              96.00   -11800.00
03376              90.00   -12000.00
03377              96.00   -11800.00
03378             104.00   -11800.00
03379             110.00   -11800.00
03380             112.00   -12000.00
03381             112.00   -12000.00
03382             114.00   -12000.00
03383             118.00   -12000.00
03384             118.00   -11800.00
03385             120.00   -12000.00
03386             128.00   -11800.00
03387             132.00   -11800.00
03388             134.00   -12000.00
03389             130.00   -11800.00
03390             130.00   -12000.00
03391             138.00   -11800.00
03392             142.00   -11800.00
03393             138.00   -11800.00
03394             134.00   -11800.00
03395             138.00   -11800.00
03396             142.00   -11800.00
03397             130.00   -11800.00
03398             136.00   -11600.00
03399             130.00   -11600.00
03400             128.00   -11600.00
03401             128.00   -11400.00
03402             122.00   -11600.00
03403             122.00   -11600.00
03404             116.00   -11400.00
03405             112.00   -11400.00
03406             110.00   -11200.00
03407             110.00   -11200.00
03408             102.00   -11000.00
03409             102.00   -11000.00
03410              94.00   -10800.00
03411              94.00   -10600.00
03412              88.00   -10400.00
03413              86.00   -10400.00
03414              82.00   -10400.00
03415              78.00   -10400.00
03416              72.00   -10400.00
03417              72.00   -10200.00
03418              72.00   -10000.00
03419              70.00   -10000.00
03420              70.00    -9800.00
03421              58.00    -9800.00
03422              54.00    -9600.00
03423              54.00    -9600.00
03424              54.00    -9400.00
03425              54.00    -9200.00
03426              54.00    -9200.00
03427              46.00    -9000.00
03428              40.00    -9000.00
03429              40.00    -8800.00
03430              42.00    -8600.00
03431              42.00    -8600.00
03432              38.00    -8200.00
03433              34.00    -8200.00
03434              36.00    -8000.00
03435              30.00    -7800.00
03436              30.00    -7600.00
03437              32.00    -7600.00
03438              30.00    -7600.00
03439              30.00    -7400.00
03440              28.00    -7000.00
03441              22.00    -7000.00
03442              22.00    -6800.00
03443              24.00    -6600.00
03444              22.00    -6400.00
03445              22.00    -6200.00
03446              20.00    -6000.00
03447              18.00    -6000.00
03448              16.00    -5800.00
03449              14.00    -5800.00
03450              16.00    -5400.00
03451              14.00    -5200.00
03452              14.00    -5000.00
03453              16.00    -5000.00
03454              14.00    -4800.00
03455               8.00    -4600.00
03456               6.00    -4400.00
03457               6.00    -4200.00
03458               8.00    -3800.00
03459              12.00    -3800.00
03460              10.00    -3600.00
03461              10.00    -3400.00
03462               6.00    -3400.00
03463               0.00    -3200.00
03464               0.00    -2800.00
03465               4.00    -2600.00
03466               8.00    -2600.00
03467               8.00    -2200.00
03468               2.00    -2200.00
03469               0.00    -2000.00
03470              -2.00    -1800.00
03471               0.00    -1600.00
03472               2.00    -1200.00
03473               2.00    -1200.00
03474               4.00    -1000.00
03475               0.00     -800.00
03476              -6.00     -600.00
03477              -6.00     -200.00
03478              -2.00     -200.00
03479               2.00        0.00
03480               2.00      400.00
03481               4.00      400.00
03482              18.00      600.00
03483              22.00      800.00
03484              -6.00     1000.00
03485             -10.00     1200.00
03486               4.00     1400.00
03487               8.00     1400.00
03488              18.00     1600.00
03489             144.00     2000.00
03490             238.00     2400.00
03491            -198.00     2400.00
03492            -254.00     2600.00
03493             -58.00     2800.00
03494              52.00     3000.00
03495              62.00     3000.00
03496             246.00     3600.00
03497            -254.00     3000.00
03498             -90.00     3800.00
03499             246.00     4000.00
03500            -198.00     3600.00
03501             -14.00     4600.00
03502              -6.00     4400.00
03503             -58.00     4200.00
03504             214.00     5400.00
03505            -208.00     4600.00
03506             -32.00     5200.00
03507              86.00     5800.00
03508             -88.00     5200.00
03509              48.00     6000.00
03510             -82.00     6200.00
03511              30.00     6000.00
03512              10.00     6600.00
03513             -48.00     6400.00
03514             -20.00     6400.00
03515             -34.00     7000.00
03516               2.00     7000.00
03517             -40.00     7000.00
03518              30.00     7600.00
03519             -78.00     7400.00
03520             -30.00     7600.00
03521              16.00     7800.00
03522             -52.00     7800.00
03523               2.00     8200.00
03524             -48.00     8400.00
03525             -24.00     8200.00
03526             -14.00     8800.00
03527             -42.00     8600.00
03528             -50.00     8800.00
03529              -6.00     9200.00
03530             -42.00     9000.00
03531             -34.00     9200.00
03532             -22.00     9400.00
03533             -54.00     9400.00
03534             -32.00     9600.00
03535             -42.00     9800.00
03536             -42.00     9800.00
03537             -38.00    10000.00
03538             -38.00    10200.00
03539             -52.00    10000.00
03540             -46.00    10200.00
03541             -56.00    10400.00
03542             -50.00    10400.00
03543             -36.00    10600.00
03544             -54.00    10600.00
03545             -56.00    10800.00
03546             -54.00    11000.00
03547             -64.00    11000.00
03548             -58.00    11000.00
03549             -54.00    11200.00
03550             -64.00    11400.00
03551             -58.00    11400.00
03552             -68.00    11600.00
03553             -70.00    11400.00
03554             -72.00    11600.00
03555             -74.00    11800.00
03556             -70.00    11800.00
03557             -70.00    11800.00
03558             -78.00    11800.00
03559             -84.00    11800.00
03560             -86.00    12200.00
03561             -88.00    12000.00
03562             -86.00    12000.00
03563             -88.00    12200.00
03564             -94.00    12200.00
03565             -92.00    12200.00
03566            -102.00    12200.00
03567             -98.00    12200.00
03568            -100.00    12200.00
03569            -104.00    12200.00
03570            -108.00    12400.00
03571            -110.00    12200.00
03572            -110.00    12200.00
03573            -118.00    12400.00
03574            -120.00    12400.00
03575            -120.00    12400.00
03576            -124.00    12400.00
03577            -128.00    12400.00
03578            -130.00    12400.00
03579            -130.00    12400.00
03580            -138.00    12400.00
03581            -142.00    12400.00
03582            -144.00    12200.00
03583            -138.00    12200.00
03584            -140.00    12000.00
03585            -146.00    12200.00
03586            -146.00    12200.00
03587            -142.00    12000.00
03588            -140.00    11800.00
03589            -148.00    11800.00
03590            -138.00    11800.00
03591            -130.00    11800.00
03592            -136.00    11800.00
03593            -136.00    11600.00
03594            -128.00    11600.00
03595            -126.00    11400.00
03596            -122.00    11600.00
03597            -118.00    11600.00
03598            -114.00    11400.00
03599            -110.00    11400.00
03600            -112.00    11400.00
03601            -108.00    11000.00
03602            -102.00    11200.00
03603             -96.00    11000.00
03604             -94.00    10800.00
03605             -90.00    10800.00
03606             -90.00    10800.00
03607             -86.00    10600.00
03608             -82.00    10600.00
03609             -78.00    10600.00
03610             -74.00    10200.00
03611             -70.00    10200.00
03612             -70.00    10000.00
03613             -70.00    10000.00
03614             -66.00     9800.00
03615             -64.00     9800.00
03616             -58.00     9800.00
03617             -56.00     9400.00
03618             -56.00     9400.00
03619             -56.00     9200.00
03620             -52.00     9200.00
03621             -48.00     9000.00
03622             -46.00     8800.00
03623             -42.00     8600.00
03624             -42.00     8600.00
03625             -42.00     8400.00
03626             -42.00     8200.00
03627             -40.00     8200.00
03628             -40.00     7800.00
03629             -38.00     7800.00
03630             -32.00     7600.00
03631             -32.00     7600.00
03632             -32.00     7400.00
03633             -30.00     7200.00
03634             -32.00     7000.00
03635             -26.00     6800.00
03636             -32.00     6600.00
03637             -26.00     6600.00
03638             -26.00     6600.00
03639             -24.00     6200.00
03640             -30.00     6200.00
03641             -24.00     5800.00
03642             -24.00     5800.00
03643             -16.00     5400.00
03644             -16.00     5200.00
03645             -12.00     5000.00
03646             -14.00     5000.00
03647             -14.00     4600.00
03648             -18.00     4400.00
03649             -18.00     4400.00
03650             -22.00     4200.00
03651             -24.00     3800.00
03652             -24.00     3800.00
03653             -22.00     3600.00
03654             -12.00     3400.00
03655              -6.00     3200.00
03656              -2.00     3000.00
03657              -2.00     2800.00
03658              -8.00     2600.00
03659             -16.00     2400.00
03660             -22.00     2400.00
03661             -22.00     2000.00
03662             -16.00     2000.00
03663              -8.00     1800.00
03664              -2.00     1400.00
03665               0.00     1200.00
03666              -2.00     1000.00
03667              -8.00     1000.00
03668             -10.00      600.00
03669              -8.00      400.00
03670              -8.00      200.00
03671              -8.00      200.00
03672              -2.00        0.00
03673               6.00     -200.00
03674              22.00     -400.00
03675               2.00     -600.00
03676              -6.00     -800.00
03677               6.00    -1000.00
03678              18.00    -1200.00
03679               6.00    -1200.00
03680              18.00    -1400.00
03681             120.00    -1600.00
03682             208.00    -2200.00
03683            -130.00    -2400.00
03684            -254.00    -2600.00
03685             -50.00    -2800.00
03686             136.00    -2600.00
03687             -92.00    -2800.00
03688              88.00    -2800.00
03689             178.00    -3400.00
03690            -210.00    -3400.00
03691             112.00    -3600.00
03692              70.00    -4200.00
03693             -74.00    -3800.00
03694              56.00    -4200.00
03695             -50.00    -4600.00
03696             106.00    -4400.00
03697              10.00    -4600.00
03698             -66.00    -5200.00
03699              34.00    -5000.00
03700             -16.00    -5200.00
03701              62.00    -5800.00
03702             -18.00    -5400.00
03703               0.00    -6000.00
03704              62.00    -6000.00
03705              -6.00    -6000.00
03706              20.00    -6600.00
03707               8.00    -6400.00
03708              28.00    -6800.00
03709               8.00    -7000.00
03710              30.00    -7000.00
03711              16.00    -7400.00
03712             -14.00    -7400.00
03713              44.00    -7600.00
03714              14.00    -7600.00
03715              32.00    -7800.00
03716              30.00    -7800.00
03717               6.00    -8200.00
03718              38.00    -8200.00
03719              24.00    -8400.00
03720               8.00    -8600.00
03721              30.00    -8600.00
03722              40.00    -9000.00
03723              22.00    -9000.00
03724              32.00    -9000.00
03725              30.00    -9200.00
03726              30.00    -9200.00
03727              38.00    -9400.00
03728              34.00    -9600.00
03729              38.00    -9800.00
03730              38.00    -9800.00
03731              36.00   -10000.00
03732              38.00   -10200.00
03733              42.00   -10200.00
03734              38.00   -10200.00
03735              54.00   -10200.00
03736              54.00   -10400.00
03737              46.00   -10400.00
03738              48.00   -10600.00
03739              48.00   -10800.00
03740              54.00   -10800.00
03741              56.00   -10800.00
03742              60.00   -11000.00
03743              64.00   -11000.00
03744              66.00   -11000.00
03745              62.00   -11400.00
03746              64.00   -11400.00
03747              66.00   -11400.00
03748              64.00   -11400.00
03749              74.00   -11400.00
03750              78.00   -11600.00
03751              78.00   -11600.00
03752              80.00   -11600.00
03753              82.00   -11800.00
03754              80.00   -11800.00
03755              88.00   -11800.00
03756              94.00   -11600.00
03757              96.00   -11800.00
03758              94.00   -11800.00
03759              94.00   -11800.00
03760              98.00   -11800.00
03761             104.00   -12000.00
03762             106.00   -12000.00
03763             112.00   -11800.00
03764             112.00   -11800.00
03765             112.00   -12000.00
03766             114.00   -12000.00
03767             120.00   -11800.00
03768             120.00   -12000.00
03769             128.00   -11800.00
03770             128.00   -11800.00
03771             134.00   -11800.00
03772             136.00   -11800.00
03773             132.00   -11800.00
03774             136.00   -11800.00
03775             140.00   -11800.00
03776             142.00   -11800.00
03777             140.00   -11800.00
03778             136.00   -11800.00
03779             134.00   -11800.00
03780             134.00   -11800.00
03781             134.00   -11600.00
03782             134.00   -11600.00
03783             130.00   -11600.00
03784             128.00   -11400.00
03785             120.00   -11400.00
03786             118.00   -11400.00
03787             114.00   -11400.00
03788             114.00   -11400.00
03789             112.00   -11200.00
03790             108.00   -11000.00
03791             102.00   -11000.00
03792              96.00   -10800.00
03793              90.00   -10800.00
03794              94.00   -10400.00
03795              86.00   -10800.00
03796              86.00   -10400.00
03797              80.00   -10600.00
03798              78.00   -10400.00
03799              74.00   -10400.00
03800              72.00   -10000.00
03801              66.00   -10200.00
03802              66.00   -10000.00
03803              64.00    -9800.00
03804              62.00    -9800.00
03805              56.00    -9600.00
03806              54.00    -9400.00
03807              50.00    -9400.00
03808              50.00    -9200.00
03809              48.00    -9000.00
03810              48.00    -9000.00
03811              46.00    -8800.00
03812              42.00    -8800.00
03813              38.00    -8600.00
03814              38.00    -8400.00
03815              38.00    -8400.00
03816              38.00    -8200.00
03817              34.00    -7800.00
03818              32.00    -7800.00
03819              30.00    -7800.00
03820              30.00    -7600.00
03821              30.00    -7400.00
03822              28.00    -7400.00
03823              26.00    -7200.00
03824              24.00    -7000.00
03825              24.00    -6800.00
03826              20.00    -6800.00
03827              22.00    -6400.00
03828              22.00    -6400.00
03829              22.00    -6200.00
03830              20.00    -6000.00
03831              16.00    -5800.00
03832              16.00    -5800.00
03833              16.00    -5400.00
03834              14.00    -5200.00
03835              16.00    -5000.00
03836              14.00    -5000.00
03837              14.00    -4800.00
03838              10.00    -4400.00
03839              10.00    -4400.00
03840              10.00    -4000.00
03841              10.00    -3800.00
03842               8.00    -3800.00
03843               8.00    -3600.00
03844              10.00    -3400.00
03845               2.00    -3400.00
03846               6.00    -3000.00
03847               4.00    -2800.00
03848               6.00    -2800.00
03849               6.00    -2600.00
03850               6.00    -2400.00
03851               2.00    -2000.00
03852               2.00    -2000.00
03853               0.00    -1600.00
03854               2.00    -1600.00
03855               0.00    -1200.00
03856               0.00    -1200.00
03857               0.00    -1000.00
03858               0.00     -800.00
03859              -4.00     -600.00
03860              -2.00     -400.00
03861               0.00     -200.00
03862              -2.00        0.00
03863               0.00      200.00
03864               0.00      400.00
03865              22.00      600.00
03866              18.00      800.00
03867              -6.00     1000.00
03868             -10.00     1200.00
03869               8.00     1400.00
03870              10.00     1400.00
03871              22.00     1800.00
03872             166.00     2000.00
03873             222.00     2400.00
03874            -240.00     2400.00
03875            -254.00     2800.00
03876             -26.00     3000.00
03877              40.00     2800.00
03878              94.00     3200.00
03879             246.00     3600.00
03880            -254.00     3000.00
03881             -14.00     3800.00
03882             246.00     4200.00
03883            -226.00     3600.00
03884              18.00     4600.00
03885             -34.00     4400.00
03886             -26.00     4400.00
03887             196.00     5400.00
03888            -230.00     4600.00
03889               6.00     5200.00
03890              64.00     5800.00
03891             -82.00     5000.00
03892              46.00     6000.00
03893             -86.00     6000.00
03894              42.00     6000.00
03895              -2.00     6600.00
03896             -42.00     6600.00
03897             -22.00     6600.00
03898             -30.00     7000.00
03899               0.00     6800.00
03900             -36.00     7000.00
03901              26.00     7400.00
03902             -88.00     7400.00
03903             -16.00     7600.00
03904              10.00     7800.00
03905             -48.00     7800.00
03906               4.00     8400.00
03907             -52.00     8400.00
03908             -22.00     8400.00
03909             -16.00     8800.00
03910             -48.00     8800.00
03911             -48.00     8800.00
03912              -6.00     9200.00
03913             -42.00     9000.00
03914             -32.00     9200.00
03915             -26.00     9400.00
03916             -54.00     9400.00
03917             -32.00     9800.00
03918             -42.00     9800.00
03919             -40.00     9800.00
03920             -34.00    10000.00
03921             -40.00    10200.00
03922             -54.00    10200.00
03923             -44.00    10200.00
03924             -56.00    10400.00
03925             -48.00    10600.00
03926             -34.00    10600.00
03927             -56.00    10800.00
03928             -58.00    10800.00
03929             -56.00    11000.00
03930             -64.00    11000.00
03931             -58.00    11000.00
03932             -56.00    11000.00
03933             -64.00    11400.00
03934             -56.00    11400.00
03935             -70.00    11600.00
03936             -74.00    11400.00
03937             -72.00    11600.00
03938             -74.00    11600.00
03939             -74.00    11800.00
03940             -70.00    11800.00
03941             -78.00    11800.00
03942             -84.00    11800.00
03943             -82.00    12000.00
03944             -90.00    11800.00
03945             -88.00    12200.00
03946             -88.00    12000.00
03947             -92.00    12200.00
03948             -94.00    12200.00
03949             -98.00    12200.00
03950            -104.00    12200.00
03951            -102.00    12400.00
03952            -104.00    12400.00
03953            -104.00    12200.00
03954            -108.00    12400.00
03955            -114.00    12200.00
03956            -120.00    12400.00
03957            -122.00    12400.00
03958            -122.00    12400.00
03959            -122.00    12200.00
03960            -128.00    12200.00
03961            -134.00    12400.00
03962            -136.00    12400.00
03963            -138.00    12200.00
03964            -144.00    12200.00
03965            -140.00    12400.00
03966            -136.00    12200.00
03967            -142.00    12200.00
03968            -146.00    12000.00
03969            -146.00    12200.00
03970            -142.00    12200.00
03971            -142.00    11800.00
03972            -140.00    12000.00
03973            -136.00    11800.00
03974            -136.00    11800.00
03975            -136.00    11800.00
03976            -136.00    11800.00
03977            -130.00    11600.00
03978            -126.00    11600.00
03979            -124.00    11400.00
03980            -118.00    11600.00
03981            -112.00    11400.00
03982            -110.00    11400.00
03983            -110.00    11400.00
03984            -108.00    11000.00
03985            -100.00    11000.00
03986             -96.00    11000.00
03987             -90.00    11000.00
03988             -90.00    10800.00
03989             -88.00    10800.00
03990             -88.00    10600.00
03991             -82.00    10400.00
03992             -80.00    10400.00
03993             -72.00    10200.00
03994             -72.00    10200.00
03995             -70.00    10000.00
03996             -70.00     9800.00
03997             -66.00     9800.00
03998             -64.00     9800.00
03999             -58.00     9600.00
04000             -56.00     9600.00
04001             -54.00     9200.00
04002             -54.00     9400.00
04003             -54.00     9200.00
04004             -48.00     9000.00
04005             -48.00     9000.00
04006             -44.00     8600.00
04007             -42.00     8400.00
04008             -44.00     8400.00
04009             -44.00     8400.00
04010             -38.00     8200.00
04011             -38.00     7800.00
04012             -40.00     7800.00
04013             -34.00     7600.00
04014             -26.00     7600.00
04015             -34.00     7400.00
04016             -38.00     7200.00
04017             -30.00     7000.00
04018             -26.00     7000.00
04019             -32.00     6800.00
04020             -26.00     6600.00
04021             -24.00     6200.00
04022             -26.00     6200.00
04023             -26.00     6200.00
04024             -18.00     6000.00
04025             -16.00     5400.00
04026             -18.00     5400.00
04027             -26.00     5200.00
04028             -26.00     5000.00
04029             -16.00     5000.00
04030             -14.00     4600.00
04031             -16.00     4600.00
04032             -18.00     4200.00
04033             -18.00     4200.00
04034             -16.00     4200.00
04035             -14.00     3800.00
04036             -16.00     3600.00
04037             -10.00     3400.00
04038             -16.00     3400.00
04039             -18.00     3000.00
04040             -10.00     2800.00
04041              -6.00     2600.00
04042              -2.00     2600.00
04043             -10.00     2200.00
04044             -18.00     2000.00
04045             -16.00     2000.00
04046             -10.00     1600.00
04047              -2.00     1400.00
04048              -2.00     1400.00
04049              -8.00     1200.00
04050              -6.00      800.00
04051              -6.00      600.00
04052              -8.00      400.00
04053              -6.00      400.00
04054               0.00      200.00
04055               0.00     -200.00
04056              10.00     -200.00
04057              22.00     -600.00
04058               0.00     -600.00
04059              -8.00     -800.00
04060               0.00    -1200.00
04061              10.00    -1200.00
04062               2.00    -1400.00
04063              26.00    -1400.00
04064             138.00    -1800.00
04065             200.00    -2200.00
04066            -162.00    -2600.00
04067            -254.00    -2600.00
04068             -24.00    -2800.00
04069             118.00    -2800.00
04070            -108.00    -2800.00
04071             120.00    -3000.00
04072             146.00    -3600.00
04073            -208.00    -3400.00
04074             138.00    -3600.00
04075              48.00    -4200.00
04076             -56.00    -3800.00
04077              50.00    -4200.00
04078             -50.00    -4600.00
04079             112.00    -4400.00
04080             -16.00    -5000.00
04081             -62.00    -5000.00
04082              32.00    -5000.00
04083             -10.00    -5400.00
04084              70.00    -5600.00
04085             -24.00    -5400.00
04086              10.00    -6000.00
04087              54.00    -6000.00
04088             -10.00    -6000.00
04089              22.00    -6600.00
04090               8.00    -6200.00
04091              30.00    -6600.00
04092               8.00    -7000.00
04093              32.00    -7200.00
04094              14.00    -7400.00
04095              -8.00    -7400.00
04096              48.00    -7400.00
04097              14.00    -7800.00
04098              34.00    -7800.00
04099              26.00    -8000.00
04100              10.00    -8200.00
04101              40.00    -8400.00
04102              22.00    -8400.00
04103              10.00    -8600.00
04104              32.00    -8600.00
04105              40.00    -9000.00
04106              22.00    -9000.00
04107              32.00    -9200.00
04108              30.00    -9200.00
04109              30.00    -9400.00
04110              34.00    -9400.00
04111              36.00    -9600.00
04112              38.00    -9800.00
04113              40.00    -9800.00
04114              36.00   -10000.00
04115              40.00   -10000.00
04116              42.00   -10000.00
04117              38.00   -10200.00
04118              54.00   -10400.00
04119              54.00   -10600.00
04120              46.00   -10400.00
04121              50.00   -10600.00
04122              48.00   -10800.00
04123              54.00   -10800.00
04124              58.00   -11000.00
04125              56.00   -11000.00
04126              62.00   -11000.00
04127              62.00   -11200.00
04128              62.00   -11000.00
04129              64.00   -11400.00
04130              70.00   -11400.00
04131              66.00   -11400.00
04132              72.00   -11600.00
04133              78.00   -11600.00
04134              74.00   -11600.00
04135              78.00   -11800.00
04136              80.00   -11600.00
04137              82.00   -11800.00
04138              86.00   -11600.00
04139              88.00   -11800.00
04140              94.00   -11800.00
04141              94.00   -11800.00
04142              94.00   -11800.00
04143              96.00   -11800.00
04144             106.00   -12000.00
04145             106.00   -11800.00
04146             110.00   -11800.00
04147             112.00   -12000.00
04148             112.00   -12200.00
04149             114.00   -11800.00
04150             118.00   -11800.00
04151             126.00   -12000.00
04152             128.00   -12000.00
04153             128.00   -11800.00
04154             130.00   -12000.00
04155             134.00   -12000.00
04156             136.00   -11800.00
04157             138.00   -11800.00
04158             138.00   -11800.00
04159             138.00   -11800.00
04160             138.00   -11800.00
04161             138.00   -11800.00
04162             136.00   -11600.00
04163             136.00   -11600.00
04164             134.00   -11800.00
04165             136.00   -11600.00
04166             130.00   -11600.00
04167             126.00   -11400.00
04168             120.00   -11400.00
04169             120.00   -11400.00
04170             114.00   -11400.00
04171             114.00   -11200.00
04172             110.00   -11200.00
04173             108.00   -11000.00
04174             102.00   -11000.00
04175              96.00   -10800.00
04176              94.00   -10800.00
04177              94.00   -10800.00
04178              88.00   -10600.00
04179              86.00   -10400.00
04180              82.00   -10400.00
04181              74.00   -10400.00
04182              72.00   -10200.00
04183              72.00   -10000.00
04184              70.00   -10200.00
04185              64.00   -10000.00
04186              66.00    -9800.00
04187              58.00    -9800.00
04188              56.00    -9600.00
04189              54.00    -9400.00
04190              54.00    -9400.00
04191              54.00    -9200.00
04192              48.00    -9200.00
04193              46.00    -8800.00
04194              44.00    -8800.00
04195              40.00    -8600.00
04196              38.00    -8600.00
04197              38.00    -8600.00
04198              38.00    -8400.00
04199              38.00    -8200.00
04200              32.00    -8000.00
04201              32.00    -7800.00
04202              30.00    -7600.00
04203              28.00    -7600.00
04204              30.00    -7400.00
04205              30.00    -7400.00
04206              26.00    -7200.00
04207              24.00    -6800.00
04208              22.00    -6800.00
04209              20.00    -6600.00
04210              22.00    -6600.00
04211              22.00    -6200.00
04212              22.00    -6200.00
04213              20.00    -5800.00
04214              16.00    -5800.00
04215              14.00    -5800.00
04216              16.00    -5400.00
04217              14.00    -5200.00
04218              16.00    -5200.00
04219              16.00    -5000.00
04220              16.00    -5000.00
04221              12.00    -4400.00
04222              10.00    -4400.00
04223               8.00    -4200.00
04224               8.00    -4000.00
04225              10.00    -3800.00
04226               8.00    -3600.00
04227               8.00    -3400.00
04228               8.00    -3200.00
04229               6.00    -3000.00
04230               6.00    -2800.00
04231               8.00    -2600.00
04232               8.00    -2400.00
04233               4.00    -2200.00
04234               2.00    -2200.00
04235               2.00    -2000.00
04236               0.00    -1800.00
04237               0.00    -1400.00
04238               2.00    -1400.00
04239               2.00    -1000.00
04240              -2.00    -1000.00
04241               0.00     -800.00
04242              -2.00     -400.00
04243              -2.00     -400.00
04244              -2.00     -200.00
04245              -2.00      200.00
04246               0.00      400.00
04247               2.00      400.00
04248              22.00      600.00
04249              14.00      800.00
04250              -6.00     1000.00
04251              -8.00     1000.00
04252               8.00     1400.00
04253               8.00     1600.00
04254              30.00     1800.00
04255             182.00     2200.00
04256             198.00     2400.00
04257            -254.00     2400.00
04258            -254.00     2600.00
04259              -2.00     2800.00
04260              22.00     2800.00
04261             130.00     3200.00
04262             246.00     3600.00
04263            -254.00     3200.00
04264              56.00     4000.00
04265             246.00     4000.00
04266            -242.00     3600.00
04267              48.00     4600.00
04268             -64.00     4200.00
04269              10.00     4400.00
04270             174.00     5200.00
04271            -246.00     4600.00
04272              36.00     5400.00
04273              40.00     5800.00
04274             -70.00     5200.00
04275              40.00     6000.00
04276             -88.00     6000.00
04277              54.00     6000.00
04278             -16.00     6600.00
04279             -34.00     6200.00
04280             -30.00     6600.00
04281             -22.00     7000.00
04282              -6.00     6800.00
04283             -32.00     7000.00
04284              26.00     7400.00
04285             -90.00     7400.00
04286              -2.00     7600.00
04287               0.00     8000.00
04288             -44.00     7800.00
04289               2.00     8200.00
04290             -54.00     8400.00
04291             -16.00     8400.00
04292             -16.00     8800.00
04293             -48.00     8600.00
04294             -42.00     8800.00
04295              -4.00     9200.00
04296             -48.00     9000.00
04297             -26.00     9400.00
04298             -30.00     9400.00
04299             -50.00     9400.00
04300             -30.00     9800.00
04301             -42.00     9800.00
04302             -40.00     9800.00
04303             -38.00    10000.00
04304             -42.00    10000.00
04305             -54.00    10200.00
04306             -42.00    10600.00
04307             -60.00    10400.00
04308             -46.00    10600.00
04309             -36.00    10600.00
04310             -56.00    10600.00
04311             -54.00    10800.00
04312             -58.00    11000.00
04313             -64.00    11000.00
04314             -58.00    11000.00
04315             -58.00    11000.00
04316             -64.00    11200.00
04317             -58.00    11400.00
04318             -72.00    11400.00
04319             -72.00    11400.00
04320             -72.00    11600.00
04321             -78.00    11600.00
04322             -74.00    11600.00
04323             -72.00    11800.00
04324             -80.00    11800.00
04325             -86.00    12000.00
04326             -86.00    12000.00
04327             -90.00    11800.00
04328             -86.00    11800.00
04329             -90.00    12200.00
04330             -90.00    12200.00
04331             -90.00    12200.00
04332            -102.00    12200.00
04333            -104.00    12200.00
04334            -104.00    12200.00
04335            -106.00    12200.00
04336            -106.00    12400.00
04337            -106.00    12200.00
04338            -118.00    12400.00
04339            -126.00    12400.00
04340            -120.00    12400.00
04341            -120.00    12400.00
04342            -126.00    12200.00
04343            -126.00    12200.00
04344            -134.00    12200.00
04345            -136.00    12200.00
04346            -132.00    12400.00
04347            -138.00    12200.00
04348            -146.00    12200.00
04349            -146.00    12200.00
04350            -134.00    12000.00
04351            -134.00    12200.00
04352            -150.00    12000.00
04353            -154.00    12200.00
04354            -142.00    11800.00
04355            -136.00    11800.00
04356            -138.00    11800.00
04357            -130.00    11800.00
04358            -128.00    11800.00
04359            -136.00    11800.00
04360            -136.00    11800.00
04361            -126.00    11600.00
04362            -112.00    11400.00
04363            -114.00    11400.00
04364            -114.00    11400.00
04365            -112.00    11400.00
04366            -104.00    11400.00
04367            -110.00    11000.00
04368            -104.00    11200.00
04369             -90.00    10800.00
04370             -88.00    10800.00
04371             -92.00    10800.00
04372             -94.00    10600.00
04373             -88.00    10600.00
04374             -78.00    10400.00
04375             -78.00    10400.00
04376             -76.00    10200.00
04377             -66.00    10200.00
04378             -70.00    10000.00
04379             -70.00    10000.00
04380             -66.00     9800.00
04381             -62.00     9800.00
04382             -56.00     9400.00
04383             -54.00     9400.00
04384             -56.00     9400.00
04385             -54.00     9400.00
04386             -54.00     9200.00
04387             -52.00     9000.00
04388             -48.00     8800.00
04389             -42.00     8600.00
04390             -42.00     8600.00
04391             -40.00     8400.00
04392             -40.00     8400.00
04393             -42.00     8200.00
04394             -46.00     7800.00
04395             -38.00     7800.00
04396             -30.00     7600.00
04397             -30.00     7600.00
04398             -34.00     7200.00
04399             -28.00     7000.00
04400             -32.00     7000.00
04401             -30.00     6800.00
04402             -26.00     6800.00
04403             -24.00     6600.00
04404             -24.00     6200.00
04405             -26.00     6200.00
04406             -26.00     6000.00
04407             -22.00     5800.00
04408             -24.00     5800.00
04409             -22.00     5400.00
04410             -18.00     5200.00
04411             -10.00     5200.00
04412             -16.00     5000.00
04413             -20.00     4600.00
04414             -24.00     4600.00
04415             -16.00     4400.00
04416             -14.00     4200.00
04417             -10.00     4000.00
04418             -10.00     3800.00
04419             -14.00     3600.00
04420             -12.00     3400.00
04421             -14.00     3400.00
04422             -12.00     3000.00
04423             -10.00     2800.00
04424              -6.00     2600.00
04425              -8.00     2600.00
04426             -10.00     2400.00
04427             -10.00     2000.00
04428              -8.00     2000.00
04429             -10.00     1800.00
04430              -8.00     1400.00
04431              -2.00     1200.00
04432              -4.00     1000.00
04433             -10.00      800.00
04434              -8.00      600.00
04435              -2.00      400.00
04436              -2.00      200.00
04437              -6.00        0.00
04438               0.00        0.00
04439              18.00     -200.00
04440              26.00     -400.00
04441               0.00     -600.00
04442             -10.00    -1000.00
04443               2.00    -1000.00
04444              10.00    -1200.00
04445               0.00    -1400.00
04446              30.00    -1600.00
04447             158.00    -1800.00
04448             186.00    -2200.00
04449            -198.00    -2600.00
04450            -254.00    -2600.00
04451               8.00    -2800.00
04452             104.00    -2800.00
04453            -112.00    -2800.00
04454             150.00    -3000.00
04455             104.00    -3600.00
04456            -198.00    -3200.00
04457             160.00    -3800.00
04458              18.00    -4000.00
04459             -46.00    -3800.00
04460              40.00    -4200.00
04461             -48.00    -4600.00
04462             118.00    -4400.00
04463             -30.00    -4800.00
04464             -48.00    -5200.00
04465              30.00    -5000.00
04466              -8.00    -5400.00
04467              66.00    -5800.00
04468             -34.00    -5400.00
04469              22.00    -6200.00
04470              48.00    -6000.00
04471             -10.00    -6000.00
04472              22.00    -6600.00
04473               8.00    -6600.00
04474              30.00    -6800.00
04475               8.00    -7000.00
04476              38.00    -7000.00
04477               8.00    -7200.00
04478              -2.00    -7600.00
04479              42.00    -7600.00
04480               8.00    -7600.00
04481              38.00    -7800.00
04482              24.00    -7800.00
04483              10.00    -8200.00
04484              40.00    -8200.00
04485              22.00    -8600.00
04486              12.00    -8600.00
04487              34.00    -8600.00
04488              40.00    -8800.00
04489              22.00    -9000.00
04490              32.00    -9000.00
04491              30.00    -9200.00
04492              32.00    -9200.00
04493              34.00    -9400.00
04494              36.00    -9400.00
04495              40.00    -9600.00
04496              40.00    -9800.00
04497              32.00   -10000.00
04498              38.00   -10000.00
04499              40.00   -10200.00
04500              38.00   -10200.00
04501              54.00   -10400.00
04502              54.00   -10400.00
04503              46.00   -10600.00
04504              50.00   -10400.00
04505              46.00   -10800.00
04506              52.00   -10600.00
04507              56.00   -10800.00
04508              58.00   -11000.00
04509              64.00   -11000.00
04510              62.00   -11200.00
04511              62.00   -11400.00
04512              64.00   -11400.00
04513              64.00   -11400.00
04514              70.00   -11400.00
04515              78.00   -11600.00
04516              78.00   -11600.00
04517              74.00   -11600.00
04518              78.00   -11600.00
04519              80.00   -11800.00
04520              82.00   -11800.00
04521              88.00   -11800.00
04522              90.00   -11800.00
04523              96.00   -11800.00
04524              94.00   -11800.00
04525              94.00   -11800.00
04526              98.00   -11800.00
04527             104.00   -11800.00
04528             106.00   -12000.00
04529             110.00   -11800.00
04530             112.00   -12000.00
04531             112.00   -12000.00
04532             114.00   -12000.00
04533             120.00   -11800.00
04534             126.00   -11800.00
04535             128.00   -11800.00
04536             128.00   -12000.00
04537             132.00   -12000.00
04538             130.00   -11800.00
04539             134.00   -11800.00
04540             138.00   -11800.00
04541             142.00   -11800.00
04542             140.00   -11800.00
04543             138.00   -11800.00
04544             136.00   -11600.00
04545             136.00   -11800.00
04546             134.00   -11800.00
04547             134.00   -11600.00
04548             136.00   -11400.00
04549             130.00   -11600.00
04550             126.00   -11400.00
04551             120.00   -11400.00
04552             118.00   -11400.00
04553             114.00   -11400.00
04554             118.00   -11200.00
04555             110.00   -11200.00
04556             110.00   -11000.00
04557             100.00   -11000.00
04558              98.00   -10800.00
04559              94.00   -10800.00
04560              92.00   -10600.00
04561              88.00   -10600.00
04562              88.00   -10600.00
04563              80.00   -10400.00
04564              78.00   -10400.00
04565              72.00   -10200.00
04566              72.00   -10200.00
04567              70.00   -10000.00
04568              66.00    -9800.00
04569              62.00    -9800.00
04570              58.00    -9600.00
04571              56.00    -9600.00
04572              54.00    -9400.00
04573              54.00    -9400.00
04574              50.00    -9400.00
04575              50.00    -9200.00
04576              46.00    -9000.00
04577              42.00    -8800.00
04578              40.00    -8600.00
04579              40.00    -8600.00
04580              40.00    -8400.00
04581              38.00    -8400.00
04582              36.00    -8000.00
04583              34.00    -8200.00
04584              30.00    -7800.00
04585              30.00    -7800.00
04586              30.00    -7600.00
04587              30.00    -7400.00
04588              26.00    -7400.00
04589              26.00    -7000.00
04590              24.00    -7200.00
04591              22.00    -6800.00
04592              22.00    -6600.00
04593              22.00    -6400.00
04594              22.00    -6200.00
04595              20.00    -6200.00
04596              18.00    -6000.00
04597              16.00    -5800.00
04598              14.00    -5800.00
04599              14.00    -5400.00
04600              14.00    -5200.00
04601              16.00    -5000.00
04602              14.00    -5000.00
04603              14.00    -4600.00
04604              10.00    -4400.00
04605              10.00    -4400.00
04606              10.00    -4000.00
04607              12.00    -4000.00
04608              10.00    -3800.00
04609               8.00    -3600.00
04610               6.00    -3400.00
04611               8.00    -3400.00
04612               6.00    -3000.00
04613               4.00    -2800.00
04614               8.00    -2600.00
04615               6.00    -2400.00
04616               2.00    -2200.00
04617               2.00    -2200.00
04618               2.00    -2000.00
04619               2.00    -1800.00
04620               2.00    -1400.00
04621               2.00    -1200.00
04622               2.00    -1000.00
04623               2.00    -1000.00
04624               0.00     -800.00
04625              -2.00     -400.00
04626               0.00     -200.00
04627              -2.00     -200.00
04628               0.00      200.00
04629               0.00      200.00
04630               6.00      400.00
04631              24.00      600.00
04632              14.00      800.00
04633              -8.00     1000.00
04634              -8.00     1200.00
04635               8.00     1400.00
04636               8.00     1400.00
04637              36.00     1800.00
04638             200.00     2000.00
04639             168.00     2600.00
04640            -254.00     2600.00
04641            -254.00     2600.00
04642              24.00     2800.00
04643               6.00     2800.00
04644             166.00     3400.00
04645             208.00     3400.00
04646            -254.00     3000.00
04647             118.00     3800.00
04648             242.00     3800.00
04649            -248.00     3600.00
04650              70.00     4600.00
04651             -88.00     4200.00
04652              48.00     4600.00
04653             144.00     5200.00
04654            -252.00     4400.00
04655              70.00     5400.00
04656              14.00     5600.00
04657             -54.00     5200.00
04658              32.00     6200.00
04659             -86.00     6000.00
04660              58.00     6000.00
04661             -32.00     6600.00
04662             -32.00     6600.00
04663             -34.00     6600.00
04664             -16.00     7000.00
04665             -12.00     6800.00
04666             -24.00     7000.00
04667              18.00     7600.00
04668             -96.00     7400.00
04669               6.00     7800.00
04670             -10.00     7800.00
04671             -38.00     7800.00
04672               0.00     8400.00
04673             -56.00     8400.00
04674             -14.00     8400.00
04675             -18.00     8800.00
04676             -50.00     8800.00
04677             -40.00     8800.00
04678              -6.00     9000.00
04679             -50.00     9000.00
04680             -22.00     9200.00
04681             -32.00     9400.00
04682             -50.00     9400.00
04683             -30.00     9800.00
04684             -42.00     9800.00
04685             -38.00     9800.00
04686             -34.00    10000.00
04687             -42.00    10000.00
04688             -52.00    10200.00
04689             -40.00    10400.00
04690             -60.00    10600.00
04691             -42.00    10600.00
04692             -36.00    10800.00
04693             -56.00    10800.00
04694             -56.00    10800.00
04695             -58.00    10800.00
04696             -64.00    11000.00
04697             -56.00    11000.00
04698             -58.00    11000.00
04699             -64.00    11200.00
04700             -58.00    11400.00
04701             -72.00    11400.00
04702             -72.00    11400.00
04703             -70.00    11600.00
04704             -74.00    11600.00
04705             -74.00    11600.00
04706             -72.00    11600.00
04707             -80.00    11800.00
04708             -86.00    11800.00
04709             -88.00    11800.00
04710             -90.00    11800.00
04711             -88.00    12200.00
04712             -90.00    12000.00
04713             -94.00    12000.00
04714             -94.00    12000.00
04715            -102.00    12000.00
04716            -104.00    12200.00
04717            -104.00    12200.00
04718            -108.00    12200.00
04719            -110.00    12200.00
04720            -110.00    12200.00
04721            -118.00    12400.00
04722            -120.00    12400.00
04723            -120.00    12400.00
04724            -122.00    12400.00
04725            -126.00    12200.00
04726            -128.00    12400.00
04727            -130.00    12200.00
04728            -134.00    12200.00
04729            -140.00    12400.00
04730            -144.00    12200.00
04731            -142.00    12200.00
04732            -138.00    12200.00
04733            -144.00    12200.00
04734            -144.00    12200.00
04735            -144.00    12000.00
04736            -142.00    11800.00
04737            -146.00    11800.00
04738            -142.00    11800.00
04739            -134.00    12000.00
04740            -134.00    11800.00
04741            -134.00    11800.00
04742            -130.00    11600.00
04743            -128.00    11600.00
04744            -122.00    11600.00
04745            -118.00    11400.00
04746            -114.00    11400.00
04747            -112.00    11400.00
04748            -110.00    11400.00
04749            -110.00    11400.00
04750            -102.00    11200.00
04751             -98.00    11000.00
04752             -94.00    11000.00
04753             -90.00    11000.00
04754             -88.00    10600.00
04755             -88.00    10800.00
04756             -86.00    10600.00
04757             -82.00    10400.00
04758             -74.00    10400.00
04759             -74.00    10200.00
04760             -70.00    10000.00
04761             -70.00    10200.00
04762             -70.00     9800.00
04763             -64.00     9800.00
04764             -62.00     9600.00
04765             -58.00     9400.00
04766             -56.00     9400.00
04767             -54.00     9400.00
04768             -54.00     9200.00
04769             -54.00     9000.00
04770             -50.00     9000.00
04771             -48.00     8800.00
04772             -46.00     8600.00
04773             -42.00     8400.00
04774             -42.00     8400.00
04775             -44.00     8200.00
04776             -42.00     8000.00
04777             -38.00     7800.00
04778             -34.00     7800.00
04779             -34.00     7600.00
04780             -32.00     7400.00
04781             -32.00     7400.00
04782             -32.00     7200.00
04783             -30.00     7000.00
04784             -28.00     6800.00
04785             -26.00     6600.00
04786             -26.00     6600.00
04787             -26.00     6400.00
04788             -26.00     6200.00
04789             -24.00     6000.00
04790             -22.00     5800.00
04791             -22.00     5600.00
04792             -22.00     5400.00
04793             -22.00     5000.00
04794             -18.00     5200.00
04795             -18.00     5000.00
04796             -18.00     4600.00
04797             -16.00     4400.00
04798             -16.00     4200.00
04799             -16.00     4200.00
04800             -14.00     4000.00
04801             -14.00     3800.00
04802             -14.00     3600.00
04803             -16.00     3400.00
04804             -10.00     3400.00
04805             -10.00     3000.00
04806              -8.00     2800.00
04807             -10.00     2600.00
04808             -14.00     2600.00
04809             -10.00     2200.00
04810             -10.00     2000.00
04811              -8.00     2000.00
04812              -6.00     1600.00
04813              -6.00     1400.00
04814              -8.00     1200.00
04815              -8.00     1000.00
04816              -8.00      800.00
04817              -6.00      600.00
04818              -2.00      400.00
04819              -2.00      200.00
04820               0.00      200.00
04821               0.00        0.00
04822              16.00     -400.00
04823              22.00     -400.00
04824              -2.00     -800.00
04825              -8.00    -1000.00
04826               2.00    -1000.00
04827              10.00    -1200.00
04828               4.00    -1400.00
04829              34.00    -1400.00
04830             168.00    -1800.00
04831             166.00    -2200.00
04832            -228.00    -2600.00
04833            -254.00    -2600.00
04834              34.00    -2800.00
04835              88.00    -3000.00
04836            -114.00    -2800.00
04837             176.00    -3000.00
04838              64.00    -3600.00
04839            -178.00    -3000.00
04840             176.00    -3800.00
04841              -4.00    -4200.00
04842             -32.00    -3800.00
04843              30.00    -4200.00
04844             -40.00    -4600.00
04845             118.00    -4400.00
04846             -48.00    -4800.00
04847             -36.00    -5200.00
04848              24.00    -5000.00
04849              -2.00    -5400.00
04850              62.00    -5400.00
04851             -46.00    -5400.00
04852              34.00    -6200.00
04853              42.00    -6000.00
04854             -10.00    -6200.00
04855              18.00    -6600.00
04856               8.00    -6400.00
04857              26.00    -6800.00
04858               6.00    -6800.00
04859              38.00    -7400.00
04860               2.00    -7400.00
04861               0.00    -7400.00
04862              42.00    -7600.00
04863              10.00    -7600.00
04864              38.00    -7800.00
04865              18.00    -7800.00
04866              14.00    -8200.00
04867              40.00    -8400.00
04868              18.00    -8400.00
04869              12.00    -8600.00
04870              38.00    -8600.00
04871              40.00    -9000.00
04872              22.00    -9000.00
04873              32.00    -9000.00
04874              30.00    -9200.00
04875              32.00    -9200.00
04876              38.00    -9400.00
04877              34.00    -9600.00
04878              40.00    -9800.00
04879              40.00    -9800.00
04880              38.00   -10000.00
04881              44.00   -10000.00
04882              40.00   -10000.00
04883              38.00   -10200.00
04884              56.00   -10400.00
04885              54.00   -10400.00
04886              48.00   -10600.00
04887              48.00   -10600.00
04888              48.00   -10800.00
04889              54.00   -10800.00
04890              56.00   -11000.00
04891              58.00   -11000.00
04892              64.00   -11200.00
04893              62.00   -11200.00
04894              62.00   -11400.00
04895              62.00   -11400.00
04896              70.00   -11400.00
04897              70.00   -11400.00
04898              76.00   -11600.00
04899              76.00   -11600.00
04900              74.00   -11600.00
04901              74.00   -11800.00
04902              80.00   -11800.00
04903              80.00   -11800.00
04904              88.00   -11800.00
04905              90.00   -11800.00
04906              90.00   -11800.00
04907              90.00   -11800.00
04908              94.00   -11800.00
04909              98.00   -11800.00
04910             104.00   -11800.00
04911             104.00   -12000.00
04912             110.00   -12000.00
04913             112.00   -12000.00
04914             112.00   -12000.00
04915             116.00   -12000.00
04916             120.00   -11800.00
04917             126.00   -12200.00
04918             128.00   -11800.00
04919             128.00   -11800.00
04920             130.00   -12000.00
04921             134.00   -11800.00
04922             132.00   -11800.00
04923             136.00   -11800.00
04924             142.00   -11800.00
04925             142.00   -11800.00
04926             138.00   -11800.00
04927             136.00   -11600.00
04928             138.00   -11800.00
04929             134.00   -11600.00
04930             134.00   -11600.00
04931             134.00   -11800.00
04932             130.00   -11400.00
04933             126.00   -11600.00
04934             120.00   -11400.00
04935             118.00   -11400.00
04936             114.00   -11200.00
04937             114.00   -11400.00
04938             110.00   -11000.00
04939             108.00   -11000.00
04940             102.00   -11000.00
04941              98.00   -10800.00
04942              94.00   -10800.00
04943              94.00   -10600.00
04944              90.00   -10400.00
04945              86.00   -10400.00
04946              82.00   -10400.00
04947              78.00   -10400.00
04948              74.00   -10200.00
04949              72.00   -10000.00
04950              70.00   -10000.00
04951              66.00   -10000.00
04952              62.00    -9800.00
04953              62.00    -9600.00
04954              56.00    -9600.00
04955              52.00    -9400.00
04956              54.00    -9400.00
04957              50.00    -9200.00
04958              48.00    -9200.00
04959              48.00    -9000.00
04960              42.00    -9000.00
04961              42.00    -8600.00
04962              38.00    -8600.00
04963              40.00    -8400.00
04964              38.00    -8200.00
04965              34.00    -8200.00
04966              32.00    -8000.00
04967              30.00    -7800.00
04968              32.00    -7600.00
04969              30.00    -7800.00
04970              24.00    -7400.00
04971              22.00    -7400.00
04972              24.00    -7000.00
04973              22.00    -7000.00
04974              22.00    -6800.00
04975              22.00    -6600.00
04976              18.00    -6600.00
04977              18.00    -6200.00
04978              18.00    -6000.00
04979              16.00    -6000.00
04980              16.00    -5800.00
04981              14.00    -5400.00
04982              12.00    -5400.00
04983              16.00    -5200.00
04984              14.00    -5000.00
04985              10.00    -5000.00
04986              10.00    -4600.00
04987              12.00    -4600.00
04988              10.00    -4200.00
04989               8.00    -4000.00
04990               8.00    -3800.00
04991              10.00    -3800.00
04992               8.00    -3600.00
04993               6.00    -3400.00
04994               4.00    -3400.00
04995               6.00    -3000.00
04996               4.00    -2800.00
04997               8.00    -2600.00
04998               4.00    -2400.00
04999               2.00    -2200.00
05000               2.00    -2000.00
