Unit:(mV)
                     CH1         CH2
Frequency              ? 261.200 kHz
00001              26.00    -6000.00
00002              24.00    -5800.00
00003              24.00    -5600.00
00004              24.00    -5400.00
00005              22.00    -5200.00
00006              18.00    -5200.00
00007              22.00    -5000.00
00008              22.00    -4600.00
00009              18.00    -4400.00
00010              16.00    -4400.00
00011              14.00    -4000.00
00012              14.00    -4000.00
00013              14.00    -3800.00
00014              14.00    -3600.00
00015              14.00    -3600.00
00016              14.00    -3200.00
00017              10.00    -3000.00
00018              10.00    -3000.00
00019               8.00    -2800.00
00020               8.00    -2600.00
00021               8.00    -2600.00
00022               8.00    -2200.00
00023               6.00    -2000.00
00024               6.00    -1800.00
00025               6.00    -1800.00
00026               4.00    -1400.00
00027               4.00    -1200.00
00028               4.00    -1200.00
00029               0.00    -1000.00
00030               0.00     -600.00
00031               0.00     -600.00
00032              -2.00     -400.00
00033               0.00     -200.00
00034               2.00        0.00
00035               2.00      200.00
00036               2.00      400.00
00037              18.00      600.00
00038              18.00      800.00
00039              -2.00     1000.00
00040             -10.00     1000.00
00041               0.00     1200.00
00042               6.00     1400.00
00043              10.00     1800.00
00044             118.00     1800.00
00045             246.00     2400.00
00046            -128.00     2200.00
00047            -254.00     2600.00
00048            -118.00     2600.00
00049              48.00     2800.00
00050              56.00     2800.00
00051             246.00     3600.00
00052            -254.00     3000.00
00053            -176.00     3600.00
00054             246.00     4000.00
00055            -160.00     3400.00
00056             -88.00     4400.00
00057              34.00     4400.00
00058             -98.00     3800.00
00059             218.00     5000.00
00060            -174.00     4600.00
00061            -104.00     4800.00
00062             128.00     5400.00
00063            -114.00     4600.00
00064              34.00     5400.00
00065             -66.00     5800.00
00066             -16.00     5200.00
00067              42.00     6200.00
00068             -82.00     6000.00
00069             -14.00     6200.00
00070             -48.00     6800.00
00071             -12.00     6600.00
00072             -34.00     6800.00
00073               6.00     7200.00
00074             -64.00     7000.00
00075             -62.00     7400.00
00076              22.00     7600.00
00077             -70.00     7400.00
00078              -6.00     7600.00
00079             -50.00     7800.00
00080             -46.00     8000.00
00081             -10.00     8400.00
00082             -62.00     8400.00
00083             -54.00     8400.00
00084             -20.00     8800.00
00085             -48.00     8600.00
00086             -56.00     8800.00
00087             -26.00     9000.00
00088             -62.00     9200.00
00089             -44.00     9200.00
00090             -50.00     9200.00
00091             -50.00     9400.00
00092             -40.00     9600.00
00093             -54.00     9800.00
00094             -58.00     9800.00
00095             -58.00     9800.00
00096             -66.00    10000.00
00097             -64.00    10000.00
00098             -38.00    10200.00
00099             -62.00    10200.00
00100             -70.00    10400.00
00101             -68.00    10600.00
00102             -78.00    10600.00
00103             -66.00    10600.00
00104             -64.00    10800.00
00105             -70.00    10800.00
00106             -66.00    11000.00
00107             -78.00    11000.00
00108             -86.00    11000.00
00109             -82.00    11000.00
00110             -82.00    11200.00
00111             -74.00    11000.00
00112             -80.00    11200.00
00113             -96.00    11200.00
00114             -96.00    11400.00
00115             -90.00    11600.00
00116             -90.00    11400.00
00117             -96.00    11400.00
00118            -102.00    11400.00
00119            -104.00    11600.00
00120            -102.00    11800.00
00121            -106.00    11600.00
00122            -108.00    11600.00
00123            -106.00    11800.00
00124            -112.00    11800.00
00125            -114.00    11600.00
00126            -118.00    11600.00
00127            -126.00    11800.00
00128            -128.00    11600.00
00129            -128.00    11800.00
00130            -130.00    11600.00
00131            -134.00    11800.00
00132            -134.00    11600.00
00133            -136.00    11800.00
00134            -138.00    11800.00
00135            -144.00    11600.00
00136            -150.00    11600.00
00137            -144.00    11600.00
00138            -144.00    11600.00
00139            -146.00    11600.00
00140            -146.00    11600.00
00141            -148.00    11600.00
00142            -152.00    11400.00
00143            -152.00    11600.00
00144            -146.00    11400.00
00145            -140.00    11400.00
00146            -138.00    11200.00
00147            -142.00    11400.00
00148            -140.00    11400.00
00149            -138.00    11200.00
00150            -134.00    11000.00
00151            -128.00    11200.00
00152            -122.00    11000.00
00153            -120.00    11000.00
00154            -120.00    11000.00
00155            -120.00    10800.00
00156            -116.00    10800.00
00157            -112.00    10600.00
00158            -104.00    10600.00
00159            -102.00    10600.00
00160            -102.00    10400.00
00161             -98.00    10200.00
00162             -98.00    10200.00
00163             -90.00    10000.00
00164             -88.00    10000.00
00165             -80.00     9800.00
00166             -78.00     9800.00
00167             -78.00     9600.00
00168             -80.00     9400.00
00169             -78.00     9400.00
00170             -78.00     9200.00
00171             -70.00     9200.00
00172             -66.00     9200.00
00173             -62.00     9000.00
00174             -64.00     9000.00
00175             -62.00     8800.00
00176             -60.00     8600.00
00177             -58.00     8400.00
00178             -54.00     8400.00
00179             -56.00     8200.00
00180             -50.00     8000.00
00181             -48.00     7800.00
00182             -50.00     7800.00
00183             -50.00     7600.00
00184             -48.00     7400.00
00185             -42.00     7400.00
00186             -40.00     7400.00
00187             -40.00     7000.00
00188             -38.00     7000.00
00189             -40.00     6800.00
00190             -34.00     6600.00
00191             -42.00     6400.00
00192             -38.00     6200.00
00193             -32.00     6200.00
00194             -32.00     6000.00
00195             -34.00     5800.00
00196             -32.00     5600.00
00197             -30.00     5400.00
00198             -26.00     5000.00
00199             -32.00     5200.00
00200             -26.00     5000.00
00201             -26.00     4600.00
00202             -26.00     4600.00
00203             -28.00     4400.00
00204             -18.00     4200.00
00205             -16.00     3800.00
00206             -22.00     3800.00
00207             -24.00     3600.00
00208             -24.00     3400.00
00209             -18.00     3400.00
00210             -18.00     3000.00
00211             -18.00     2800.00
00212             -14.00     2800.00
00213             -10.00     2600.00
00214             -10.00     2400.00
00215             -14.00     2200.00
00216             -18.00     2000.00
00217             -18.00     1800.00
00218             -16.00     1400.00
00219             -10.00     1400.00
00220              -2.00     1200.00
00221               0.00     1000.00
00222              -6.00     1000.00
00223             -12.00      600.00
00224             -14.00      400.00
00225             -12.00      200.00
00226              -2.00      200.00
00227               6.00        0.00
00228              16.00     -200.00
00229              24.00     -200.00
00230               0.00     -600.00
00231             -14.00     -800.00
00232              -2.00    -1000.00
00233              14.00    -1000.00
00234              10.00    -1400.00
00235              24.00    -1400.00
00236             114.00    -1600.00
00237             222.00    -2000.00
00238             -80.00    -2400.00
00239            -254.00    -2200.00
00240             -94.00    -2600.00
00241             122.00    -2600.00
00242             -62.00    -2800.00
00243              94.00    -2600.00
00244             186.00    -3400.00
00245            -216.00    -3400.00
00246             104.00    -3400.00
00247             112.00    -4000.00
00248             -90.00    -3600.00
00249              54.00    -4000.00
00250             -36.00    -4400.00
00251              96.00    -4000.00
00252              32.00    -4600.00
00253             -80.00    -5200.00
00254              40.00    -4600.00
00255               0.00    -5000.00
00256              66.00    -5400.00
00257               8.00    -5000.00
00258             -16.00    -5600.00
00259              72.00    -5800.00
00260               0.00    -5800.00
00261              18.00    -6200.00
00262              18.00    -6200.00
00263              24.00    -6400.00
00264              30.00    -6600.00
00265              38.00    -6600.00
00266              22.00    -7000.00
00267              -8.00    -7000.00
00268              54.00    -7200.00
00269              28.00    -7400.00
00270              32.00    -7600.00
00271              42.00    -7600.00
00272              12.00    -7800.00
00273              54.00    -7800.00
00274              34.00    -8000.00
00275              16.00    -8400.00
00276              38.00    -8400.00
00277              48.00    -8400.00
00278              32.00    -8600.00
00279              46.00    -8600.00
00280              42.00    -9000.00
00281              40.00    -9000.00
00282              50.00    -9000.00
00283              42.00    -9200.00
00284              48.00    -9200.00
00285              50.00    -9400.00
00286              48.00    -9400.00
00287              52.00    -9400.00
00288              54.00    -9800.00
00289              48.00    -9800.00
00290              64.00   -10000.00
00291              66.00   -10000.00
00292              56.00   -10000.00
00293              62.00   -10200.00
00294              58.00   -10200.00
00295              64.00   -10200.00
00296              68.00   -10400.00
00297              70.00   -10400.00
00298              74.00   -10600.00
00299              74.00   -10600.00
00300              72.00   -10800.00
00301              74.00   -10800.00
00302              80.00   -10800.00
00303              80.00   -10800.00
00304              86.00   -10800.00
00305              88.00   -11000.00
00306              82.00   -11000.00
00307              88.00   -11400.00
00308              88.00   -11200.00
00309              90.00   -11400.00
00310              98.00   -11200.00
00311             102.00   -11400.00
00312             104.00   -11400.00
00313             102.00   -11400.00
00314             100.00   -11400.00
00315             104.00   -11400.00
00316             108.00   -11400.00
00317             112.00   -11400.00
00318             118.00   -11400.00
00319             120.00   -11400.00
00320             118.00   -11400.00
00321             122.00   -11400.00
00322             122.00   -11400.00
00323             128.00   -11400.00
00324             130.00   -11400.00
00325             130.00   -11400.00
00326             136.00   -11400.00
00327             134.00   -11400.00
00328             134.00   -11600.00
00329             138.00   -11400.00
00330             144.00   -11400.00
00331             142.00   -11400.00
00332             142.00   -11400.00
00333             142.00   -11400.00
00334             138.00   -11000.00
00335             136.00   -11000.00
00336             136.00   -11000.00
00337             138.00   -11000.00
00338             136.00   -11000.00
00339             134.00   -11000.00
00340             128.00   -10800.00
00341             128.00   -10800.00
00342             120.00   -10800.00
00343             120.00   -10400.00
00344             118.00   -10600.00
00345             118.00   -10400.00
00346             112.00   -10600.00
00347             106.00   -10400.00
00348             102.00   -10400.00
00349             102.00   -10200.00
00350              96.00   -10200.00
00351              96.00   -10000.00
00352              92.00   -10000.00
00353              90.00   -10000.00
00354              84.00    -9800.00
00355              80.00    -9600.00
00356              82.00    -9600.00
00357              80.00    -9200.00
00358              78.00    -9400.00
00359              72.00    -9200.00
00360              70.00    -9000.00
00361              64.00    -9000.00
00362              64.00    -9000.00
00363              64.00    -8800.00
00364              62.00    -8600.00
00365              60.00    -8600.00
00366              56.00    -8400.00
00367              54.00    -8400.00
00368              52.00    -8200.00
00369              50.00    -8200.00
00370              50.00    -7800.00
00371              48.00    -7800.00
00372              46.00    -7600.00
00373              42.00    -7400.00
00374              40.00    -7400.00
00375              38.00    -7000.00
00376              40.00    -7200.00
00377              38.00    -7000.00
00378              38.00    -6800.00
00379              34.00    -6600.00
00380              32.00    -6600.00
00381              32.00    -6400.00
00382              30.00    -6200.00
00383              26.00    -6000.00
00384              30.00    -5800.00
00385              28.00    -5800.00
00386              24.00    -5600.00
00387              24.00    -5400.00
00388              18.00    -5200.00
00389              22.00    -5000.00
00390              22.00    -5000.00
00391              22.00    -4600.00
00392              22.00    -4600.00
00393              16.00    -4400.00
00394              16.00    -4000.00
00395              14.00    -4000.00
00396              14.00    -3800.00
00397              16.00    -3600.00
00398              14.00    -3400.00
00399              14.00    -3400.00
00400              10.00    -3200.00
00401               8.00    -2800.00
00402               8.00    -2800.00
00403               8.00    -2600.00
00404              10.00    -2400.00
00405               8.00    -2200.00
00406               8.00    -2000.00
00407               2.00    -1800.00
00408               6.00    -1800.00
00409               2.00    -1400.00
00410               2.00    -1400.00
00411               6.00    -1200.00
00412               4.00    -1000.00
00413               0.00     -600.00
00414              -2.00     -400.00
00415               0.00     -200.00
00416               0.00        0.00
00417               0.00        0.00
00418               2.00      400.00
00419               2.00      400.00
00420              22.00      600.00
00421              16.00      600.00
00422              -6.00     1000.00
00423             -10.00     1000.00
00424               6.00     1400.00
00425               8.00     1400.00
00426              16.00     1800.00
00427             146.00     2000.00
00428             226.00     2400.00
00429            -202.00     2200.00
00430            -254.00     2600.00
00431             -64.00     2600.00
00432              30.00     2800.00
00433             108.00     3000.00
00434             246.00     3600.00
00435            -254.00     3000.00
00436             -48.00     3800.00
00437             246.00     3800.00
00438            -230.00     3400.00
00439             -22.00     4600.00
00440             -10.00     4200.00
00441             -48.00     4200.00
00442             206.00     5200.00
00443            -232.00     4600.00
00444             -32.00     4800.00
00445              98.00     5600.00
00446            -110.00     4600.00
00447              48.00     5800.00
00448             -88.00     5800.00
00449              16.00     5600.00
00450              16.00     6400.00
00451             -78.00     6200.00
00452             -10.00     6200.00
00453             -46.00     6600.00
00454              -8.00     6600.00
00455             -34.00     6800.00
00456              10.00     7200.00
00457             -82.00     7000.00
00458             -40.00     7400.00
00459              10.00     7600.00
00460             -72.00     7400.00
00461               2.00     7800.00
00462             -62.00     8000.00
00463             -32.00     8000.00
00464             -18.00     8400.00
00465             -64.00     8400.00
00466             -50.00     8400.00
00467             -20.00     8800.00
00468             -50.00     8600.00
00469             -46.00     8800.00
00470             -32.00     9000.00
00471             -68.00     9000.00
00472             -38.00     9200.00
00473             -54.00     9400.00
00474             -50.00     9400.00
00475             -44.00     9800.00
00476             -50.00     9800.00
00477             -62.00     9800.00
00478             -56.00    10000.00
00479             -70.00    10000.00
00480             -58.00    10000.00
00481             -46.00    10200.00
00482             -66.00    10000.00
00483             -64.00    10400.00
00484             -66.00    10600.00
00485             -76.00    10600.00
00486             -70.00    10600.00
00487             -72.00    10600.00
00488             -72.00    10800.00
00489             -68.00    11000.00
00490             -78.00    11000.00
00491             -78.00    11000.00
00492             -80.00    11000.00
00493             -90.00    11000.00
00494             -82.00    11200.00
00495             -80.00    11400.00
00496             -88.00    11400.00
00497             -90.00    11400.00
00498             -90.00    11600.00
00499             -98.00    11600.00
00500             -98.00    11400.00
00501             -98.00    11600.00
00502            -102.00    11600.00
00503             -98.00    11600.00
00504            -106.00    11600.00
00505            -110.00    11600.00
00506            -110.00    11600.00
00507            -114.00    11600.00
00508            -114.00    11800.00
00509            -114.00    11800.00
00510            -122.00    11800.00
00511            -126.00    11800.00
00512            -128.00    11800.00
00513            -130.00    11800.00
00514            -130.00    11800.00
00515            -132.00    11800.00
00516            -136.00    11800.00
00517            -138.00    11600.00
00518            -144.00    11600.00
00519            -144.00    11600.00
00520            -144.00    11600.00
00521            -146.00    11600.00
00522            -150.00    11600.00
00523            -146.00    11600.00
00524            -150.00    11600.00
00525            -150.00    11400.00
00526            -146.00    11400.00
00527            -144.00    11400.00
00528            -142.00    11400.00
00529            -144.00    11400.00
00530            -142.00    11400.00
00531            -138.00    11000.00
00532            -136.00    11200.00
00533            -134.00    11000.00
00534            -128.00    11000.00
00535            -126.00    11000.00
00536            -122.00    10800.00
00537            -120.00    10800.00
00538            -118.00    10600.00
00539            -112.00    10600.00
00540            -110.00    10600.00
00541            -106.00    10600.00
00542            -100.00    10400.00
00543            -102.00    10400.00
00544             -98.00    10200.00
00545             -96.00    10000.00
00546             -94.00    10000.00
00547             -88.00     9800.00
00548             -84.00    10000.00
00549             -80.00     9800.00
00550             -80.00     9800.00
00551             -80.00     9400.00
00552             -80.00     9400.00
00553             -74.00     9200.00
00554             -68.00     9200.00
00555             -66.00     9000.00
00556             -64.00     9000.00
00557             -64.00     9000.00
00558             -64.00     8800.00
00559             -58.00     8600.00
00560             -62.00     8400.00
00561             -58.00     8400.00
00562             -48.00     8200.00
00563             -46.00     8000.00
00564             -58.00     7800.00
00565             -50.00     7800.00
00566             -48.00     7600.00
00567             -46.00     7400.00
00568             -42.00     7400.00
00569             -42.00     7200.00
00570             -34.00     7000.00
00571             -32.00     6800.00
00572             -44.00     6800.00
00573             -42.00     6600.00
00574             -42.00     6600.00
00575             -32.00     6200.00
00576             -24.00     6200.00
00577             -26.00     5800.00
00578             -40.00     5800.00
00579             -38.00     5600.00
00580             -26.00     5400.00
00581             -16.00     5200.00
00582             -26.00     5000.00
00583             -30.00     4800.00
00584             -26.00     4600.00
00585             -24.00     4400.00
00586             -26.00     4400.00
00587             -26.00     4200.00
00588             -16.00     4000.00
00589             -14.00     3800.00
00590             -18.00     3600.00
00591             -22.00     3400.00
00592             -18.00     3400.00
00593             -16.00     3000.00
00594             -18.00     2800.00
00595             -16.00     2600.00
00596             -14.00     2600.00
00597             -16.00     2400.00
00598             -16.00     2200.00
00599             -12.00     2000.00
00600              -8.00     1800.00
00601             -10.00     1400.00
00602             -10.00     1200.00
00603             -12.00     1200.00
00604             -14.00     1000.00
00605             -10.00      800.00
00606              -6.00      600.00
00607              -6.00      600.00
00608              -4.00      200.00
00609              -4.00        0.00
00610              -2.00     -200.00
00611               8.00     -200.00
00612              22.00     -400.00
00613               2.00     -600.00
00614              -2.00     -600.00
00615               2.00    -1000.00
00616              10.00    -1000.00
00617               6.00    -1200.00
00618              26.00    -1400.00
00619             132.00    -1600.00
00620             206.00    -2000.00
00621            -136.00    -2200.00
00622            -254.00    -2400.00
00623             -38.00    -2600.00
00624             106.00    -2600.00
00625             -88.00    -2800.00
00626             144.00    -2600.00
00627             128.00    -3400.00
00628            -210.00    -3000.00
00629             158.00    -3600.00
00630              62.00    -3800.00
00631             -74.00    -3600.00
00632              54.00    -3800.00
00633             -36.00    -4200.00
00634             118.00    -4000.00
00635               0.00    -4600.00
00636             -64.00    -5000.00
00637              40.00    -4600.00
00638              -6.00    -5200.00
00639              72.00    -5400.00
00640             -10.00    -5200.00
00641               6.00    -5800.00
00642              72.00    -5800.00
00643              -2.00    -5800.00
00644              22.00    -6400.00
00645              10.00    -6200.00
00646              24.00    -6400.00
00647              28.00    -6600.00
00648              44.00    -6600.00
00649              22.00    -7000.00
00650              -2.00    -7200.00
00651              54.00    -7400.00
00652              18.00    -7400.00
00653              38.00    -7600.00
00654              38.00    -7600.00
00655              18.00    -7800.00
00656              54.00    -7800.00
00657              28.00    -8200.00
00658              16.00    -8200.00
00659              40.00    -8400.00
00660              46.00    -8600.00
00661              34.00    -8600.00
00662              46.00    -8800.00
00663              38.00    -9000.00
00664              42.00    -9000.00
00665              50.00    -9000.00
00666              40.00    -9200.00
00667              48.00    -9200.00
00668              50.00    -9400.00
00669              48.00    -9400.00
00670              54.00    -9400.00
00671              50.00    -9800.00
00672              48.00    -9800.00
00673              62.00    -9800.00
00674              60.00   -10000.00
00675              54.00   -10200.00
00676              62.00   -10200.00
00677              58.00   -10200.00
00678              66.00   -10400.00
00679              70.00   -10400.00
00680              70.00   -10600.00
00681              72.00   -10600.00
00682              72.00   -10600.00
00683              70.00   -10600.00
00684              78.00   -10800.00
00685              80.00   -10800.00
00686              82.00   -11000.00
00687              88.00   -11000.00
00688              86.00   -11000.00
00689              82.00   -11200.00
00690              86.00   -11200.00
00691              90.00   -11000.00
00692              96.00   -11200.00
00693             102.00   -11400.00
00694              98.00   -11400.00
00695             102.00   -11400.00
00696              98.00   -11400.00
00697             102.00   -11400.00
00698             108.00   -11400.00
00699             112.00   -11600.00
00700             114.00   -11400.00
00701             118.00   -11400.00
00702             118.00   -11600.00
00703             118.00   -11600.00
00704             122.00   -11400.00
00705             126.00   -11400.00
00706             130.00   -11400.00
00707             130.00   -11400.00
00708             134.00   -11400.00
00709             136.00   -11400.00
00710             136.00   -11400.00
00711             138.00   -11400.00
00712             142.00   -11400.00
00713             144.00   -11400.00
00714             144.00   -11400.00
00715             142.00   -11200.00
00716             142.00   -11400.00
00717             138.00   -11200.00
00718             136.00   -11200.00
00719             134.00   -11000.00
00720             138.00   -11000.00
00721             136.00   -11000.00
00722             130.00   -11000.00
00723             128.00   -10800.00
00724             126.00   -10800.00
00725             120.00   -10800.00
00726             120.00   -10400.00
00727             118.00   -10600.00
00728             118.00   -10600.00
00729             114.00   -10400.00
00730             106.00   -10400.00
00731             102.00   -10400.00
00732              98.00   -10200.00
00733              96.00   -10200.00
00734              96.00   -10200.00
00735              92.00   -10000.00
00736              88.00   -10000.00
00737              84.00    -9800.00
00738              82.00    -9800.00
00739              80.00    -9800.00
00740              78.00    -9400.00
00741              78.00    -9400.00
00742              72.00    -9200.00
00743              70.00    -9000.00
00744              66.00    -9000.00
00745              64.00    -9000.00
00746              62.00    -9000.00
00747              62.00    -8600.00
00748              56.00    -8600.00
00749              56.00    -8400.00
00750              54.00    -8400.00
00751              50.00    -8200.00
00752              50.00    -8000.00
00753              48.00    -8000.00
00754              46.00    -7800.00
00755              44.00    -7800.00
00756              46.00    -7600.00
00757              42.00    -7400.00
00758              38.00    -7400.00
00759              36.00    -7000.00
00760              34.00    -7000.00
00761              38.00    -6800.00
00762              38.00    -6600.00
00763              32.00    -6600.00
00764              32.00    -6400.00
00765              30.00    -6200.00
00766              30.00    -5800.00
00767              30.00    -6000.00
00768              26.00    -5800.00
00769              26.00    -5400.00
00770              24.00    -5400.00
00771              18.00    -5200.00
00772              22.00    -5000.00
00773              22.00    -5000.00
00774              22.00    -4600.00
00775              20.00    -4400.00
00776              18.00    -4400.00
00777              16.00    -4000.00
00778              16.00    -3800.00
00779              14.00    -3800.00
00780              14.00    -3600.00
00781              12.00    -3400.00
00782              10.00    -3400.00
00783               8.00    -3000.00
00784               8.00    -2800.00
00785              12.00    -2600.00
00786              10.00    -2600.00
00787              10.00    -2400.00
00788               6.00    -2200.00
00789               2.00    -2000.00
00790               4.00    -1800.00
00791               6.00    -1600.00
00792               2.00    -1400.00
00793               2.00    -1200.00
00794               2.00    -1200.00
00795               0.00     -800.00
00796              -2.00     -600.00
00797               0.00     -400.00
00798               0.00     -400.00
00799               0.00     -200.00
00800               0.00        0.00
00801               0.00      400.00
00802               0.00      600.00
00803              22.00      600.00
00804              12.00      800.00
00805              -4.00     1200.00
00806              -6.00     1200.00
00807               6.00     1400.00
00808               6.00     1600.00
00809              24.00     1800.00
00810             178.00     2000.00
00811             192.00     2400.00
00812            -254.00     2400.00
00813            -254.00     2600.00
00814             -16.00     2600.00
00815               8.00     2800.00
00816             170.00     3000.00
00817             230.00     3400.00
00818            -254.00     3000.00
00819              80.00     3800.00
00820             246.00     3800.00
00821            -254.00     3600.00
00822              34.00     4600.00
00823             -56.00     4200.00
00824               8.00     4200.00
00825             170.00     5200.00
00826            -254.00     4400.00
00827              36.00     5200.00
00828              54.00     5400.00
00829             -96.00     4800.00
00830              46.00     6000.00
00831            -100.00     5600.00
00832              46.00     5600.00
00833             -10.00     6200.00
00834             -64.00     6200.00
00835             -16.00     6200.00
00836             -42.00     6800.00
00837             -10.00     6600.00
00838             -32.00     6800.00
00839               8.00     7200.00
00840             -94.00     7000.00
00841             -16.00     7400.00
00842              -2.00     7400.00
00843             -62.00     7400.00
00844               0.00     7800.00
00845             -70.00     7800.00
00846             -24.00     7800.00
00847             -28.00     8200.00
00848             -64.00     8400.00
00849             -42.00     8400.00
00850             -22.00     8800.00
00851             -56.00     8600.00
00852             -38.00     9000.00
00853             -38.00     9000.00
00854             -66.00     9000.00
00855             -36.00     9200.00
00856             -58.00     9400.00
00857             -48.00     9400.00
00858             -46.00     9600.00
00859             -50.00     9600.00
00860             -62.00     9800.00
00861             -58.00    10000.00
00862             -72.00    10000.00
00863             -56.00    10200.00
00864             -48.00    10200.00
00865             -70.00    10200.00
00866             -64.00    10400.00
00867             -70.00    10600.00
00868             -74.00    10600.00
00869             -70.00    10600.00
00870             -72.00    10600.00
00871             -74.00    10800.00
00872             -70.00    10800.00
00873             -80.00    10800.00
00874             -80.00    11000.00
00875             -80.00    11000.00
00876             -88.00    11200.00
00877             -80.00    11000.00
00878             -84.00    11200.00
00879             -90.00    11400.00
00880             -94.00    11400.00
00881             -94.00    11400.00
00882             -98.00    11400.00
00883             -96.00    11600.00
00884             -96.00    11600.00
00885            -100.00    11600.00
00886            -104.00    11600.00
00887            -110.00    11600.00
00888            -112.00    11600.00
00889            -112.00    11600.00
00890            -112.00    11600.00
00891            -114.00    11800.00
00892            -116.00    11800.00
00893            -122.00    11800.00
00894            -126.00    11800.00
00895            -128.00    11800.00
00896            -130.00    11600.00
00897            -128.00    11800.00
00898            -134.00    11800.00
00899            -136.00    11600.00
00900            -140.00    11800.00
00901            -146.00    11800.00
00902            -144.00    11600.00
00903            -146.00    11800.00
00904            -144.00    11600.00
00905            -144.00    11600.00
00906            -146.00    11600.00
00907            -150.00    11600.00
00908            -150.00    11400.00
00909            -146.00    11400.00
00910            -144.00    11400.00
00911            -142.00    11400.00
00912            -138.00    11400.00
00913            -138.00    11400.00
00914            -142.00    11200.00
00915            -136.00    11000.00
00916            -130.00    11000.00
00917            -130.00    11000.00
00918            -122.00    11000.00
00919            -122.00    10800.00
00920            -120.00    10800.00
00921            -118.00    10800.00
00922            -116.00    10800.00
00923            -110.00    10600.00
00924             -98.00    10600.00
00925            -102.00    10400.00
00926            -102.00    10200.00
00927             -98.00    10200.00
00928             -94.00    10200.00
00929             -88.00    10000.00
00930             -90.00    10000.00
00931             -86.00     9800.00
00932             -78.00     9800.00
00933             -80.00     9600.00
00934             -86.00     9400.00
00935             -78.00     9400.00
00936             -70.00     9200.00
00937             -66.00     9200.00
00938             -66.00     9000.00
00939             -66.00     9000.00
00940             -62.00     8800.00
00941             -64.00     8800.00
00942             -64.00     8600.00
00943             -58.00     8400.00
00944             -56.00     8400.00
00945             -50.00     8200.00
00946             -52.00     7800.00
00947             -50.00     7800.00
00948             -42.00     7800.00
00949             -48.00     7400.00
00950             -48.00     7400.00
00951             -42.00     7400.00
00952             -40.00     7400.00
00953             -40.00     7000.00
00954             -38.00     7000.00
00955             -38.00     6600.00
00956             -32.00     6600.00
00957             -38.00     6400.00
00958             -34.00     6200.00
00959             -32.00     6200.00
00960             -30.00     6000.00
00961             -32.00     5800.00
00962             -26.00     5800.00
00963             -26.00     5400.00
00964             -26.00     5200.00
00965             -26.00     5000.00
00966             -26.00     4600.00
00967             -24.00     4600.00
00968             -24.00     4400.00
00969             -24.00     4400.00
00970             -22.00     4000.00
00971             -18.00     3800.00
00972             -18.00     3800.00
00973             -18.00     3800.00
00974             -18.00     3400.00
00975             -18.00     3200.00
00976             -18.00     3000.00
00977             -16.00     3000.00
00978             -10.00     2600.00
00979             -14.00     2600.00
00980             -16.00     2200.00
00981             -16.00     2000.00
00982             -14.00     2000.00
00983             -12.00     1800.00
00984              -8.00     1600.00
00985              -8.00     1400.00
00986              -8.00     1000.00
00987             -10.00     1000.00
00988             -10.00      800.00
00989              -8.00      600.00
00990              -6.00      400.00
00991              -2.00      200.00
00992               0.00      200.00
00993               2.00     -200.00
00994              16.00     -200.00
00995              16.00     -400.00
00996              -6.00     -600.00
00997              -8.00     -800.00
00998               4.00    -1000.00
00999              12.00    -1200.00
01000               6.00    -1400.00
01001              32.00    -1400.00
01002             158.00    -1800.00
01003             174.00    -2000.00
01004            -194.00    -2200.00
01005            -254.00    -2400.00
01006              14.00    -2600.00
01007              88.00    -2800.00
01008             -86.00    -2600.00
01009             190.00    -3000.00
01010              54.00    -3400.00
01011            -184.00    -3000.00
01012             192.00    -3400.00
01013              12.00    -3800.00
01014             -48.00    -3800.00
01015              38.00    -4000.00
01016             -26.00    -4400.00
01017             122.00    -4200.00
01018             -34.00    -4600.00
01019             -42.00    -5000.00
01020              42.00    -4600.00
01021               4.00    -5200.00
01022              72.00    -5400.00
01023             -30.00    -5200.00
01024              24.00    -6000.00
01025              62.00    -5800.00
01026              -6.00    -5800.00
01027              30.00    -6200.00
01028              14.00    -6200.00
01029              26.00    -6400.00
01030              24.00    -6800.00
01031              42.00    -6600.00
01032              10.00    -7000.00
01033               8.00    -7000.00
01034              56.00    -7200.00
01035              18.00    -7400.00
01036              46.00    -7600.00
01037              30.00    -7600.00
01038              18.00    -7800.00
01039              54.00    -8000.00
01040              24.00    -8000.00
01041              22.00    -8400.00
01042              48.00    -8400.00
01043              42.00    -8400.00
01044              34.00    -8600.00
01045              46.00    -8800.00
01046              34.00    -8800.00
01047              42.00    -9000.00
01048              50.00    -9200.00
01049              46.00    -9200.00
01050              48.00    -9200.00
01051              48.00    -9400.00
01052              48.00    -9400.00
01053              54.00    -9600.00
01054              48.00    -9800.00
01055              54.00    -9800.00
01056              64.00   -10000.00
01057              60.00   -10200.00
01058              54.00   -10000.00
01059              62.00   -10200.00
01060              62.00   -10400.00
01061              64.00   -10200.00
01062              68.00   -10400.00
01063              66.00   -10600.00
01064              76.00   -10400.00
01065              72.00   -10600.00
01066              70.00   -10800.00
01067              74.00   -10600.00
01068              80.00   -10800.00
01069              80.00   -10800.00
01070              90.00   -11000.00
01071              88.00   -11000.00
01072              84.00   -11000.00
01073              88.00   -11200.00
01074              86.00   -11200.00
01075              94.00   -11400.00
01076              98.00   -11400.00
01077             100.00   -11400.00
01078             104.00   -11400.00
01079              98.00   -11400.00
01080             102.00   -11400.00
01081             112.00   -11600.00
01082             114.00   -11400.00
01083             114.00   -11400.00
01084             118.00   -11400.00
01085             114.00   -11600.00
01086             118.00   -11400.00
01087             120.00   -11400.00
01088             126.00   -11400.00
01089             136.00   -11400.00
01090             134.00   -11600.00
01091             128.00   -11400.00
01092             136.00   -11600.00
01093             140.00   -11400.00
01094             142.00   -11400.00
01095             144.00   -11400.00
01096             142.00   -11400.00
01097             142.00   -11400.00
01098             142.00   -11400.00
01099             144.00   -11200.00
01100             144.00   -11000.00
01101             142.00   -11000.00
01102             142.00   -11000.00
01103             140.00   -11000.00
01104             134.00   -10800.00
01105             128.00   -11000.00
01106             128.00   -10800.00
01107             128.00   -10800.00
01108             122.00   -10800.00
01109             122.00   -10800.00
01110             118.00   -10800.00
01111             114.00   -10400.00
01112             106.00   -10600.00
01113             102.00   -10400.00
01114             104.00   -10400.00
01115             102.00   -10200.00
01116              96.00   -10200.00
01117              94.00   -10200.00
01118              94.00   -10000.00
01119              86.00   -10000.00
01120              86.00    -9800.00
01121              82.00    -9600.00
01122              80.00    -9600.00
01123              78.00    -9400.00
01124              74.00    -9400.00
01125              70.00    -9200.00
01126              66.00    -9200.00
01127              64.00    -9000.00
01128              64.00    -8800.00
01129              62.00    -8800.00
01130              64.00    -8600.00
01131              58.00    -8600.00
01132              48.00    -8400.00
01133              48.00    -8200.00
01134              48.00    -8200.00
01135              50.00    -8200.00
01136              50.00    -8000.00
01137              46.00    -7800.00
01138              40.00    -7600.00
01139              42.00    -7600.00
01140              38.00    -7400.00
01141              38.00    -7400.00
01142              40.00    -7000.00
01143              38.00    -7000.00
01144              34.00    -6800.00
01145              32.00    -6600.00
01146              32.00    -6600.00
01147              30.00    -6200.00
01148              30.00    -6000.00
01149              30.00    -6000.00
01150              28.00    -5800.00
01151              24.00    -5800.00
01152              26.00    -5400.00
01153              24.00    -5400.00
01154              24.00    -5200.00
01155              22.00    -5000.00
01156              22.00    -4800.00
01157              22.00    -4600.00
01158              22.00    -4400.00
01159              18.00    -4200.00
01160              16.00    -4000.00
01161              16.00    -3800.00
01162              16.00    -3800.00
01163              14.00    -3600.00
01164              14.00    -3200.00
01165              14.00    -3200.00
01166              10.00    -3000.00
01167              10.00    -2800.00
01168               8.00    -2600.00
01169               6.00    -2600.00
01170               6.00    -2200.00
01171               6.00    -2200.00
01172               6.00    -2000.00
01173               2.00    -1800.00
01174               4.00    -1800.00
01175               2.00    -1400.00
01176               6.00    -1200.00
01177               0.00    -1000.00
01178               2.00     -800.00
01179               2.00     -600.00
01180               0.00     -400.00
01181               0.00     -200.00
01182              -2.00        0.00
01183              -2.00      200.00
01184               0.00      200.00
01185               6.00      400.00
01186              24.00      600.00
01187              10.00     1000.00
01188             -10.00     1000.00
01189              -8.00     1200.00
01190               6.00     1400.00
01191               0.00     1600.00
01192              34.00     1800.00
01193             206.00     2000.00
01194             136.00     2400.00
01195            -254.00     2400.00
01196            -254.00     2600.00
01197              20.00     2600.00
01198              -8.00     2600.00
01199             234.00     3400.00
01200             134.00     3400.00
01201            -254.00     3200.00
01202             192.00     3800.00
01203             208.00     3600.00
01204            -254.00     3800.00
01205              70.00     4600.00
01206             -96.00     3800.00
01207              74.00     4400.00
01208             112.00     5200.00
01209            -254.00     4200.00
01210              94.00     5400.00
01211               6.00     5400.00
01212             -70.00     5000.00
01213              32.00     6000.00
01214             -98.00     5600.00
01215              62.00     6000.00
01216             -36.00     6400.00
01217             -48.00     6000.00
01218             -24.00     6400.00
01219             -34.00     6800.00
01220             -14.00     6600.00
01221             -26.00     7000.00
01222               0.00     7000.00
01223             -98.00     7000.00
01224               4.00     7400.00
01225             -22.00     7400.00
01226             -54.00     7600.00
01227              -4.00     7800.00
01228             -74.00     7800.00
01229             -16.00     8000.00
01230             -32.00     8400.00
01231             -66.00     8400.00
01232             -38.00     8400.00
01233             -26.00     8800.00
01234             -58.00     8800.00
01235             -32.00     9000.00
01236             -46.00     9000.00
01237             -64.00     9200.00
01238             -38.00     9200.00
01239             -62.00     9400.00
01240             -48.00     9400.00
01241             -48.00     9600.00
01242             -56.00     9800.00
01243             -62.00     9800.00
01244             -58.00     9800.00
01245             -70.00     9800.00
01246             -50.00    10000.00
01247             -50.00    10200.00
01248             -74.00    10200.00
01249             -64.00    10400.00
01250             -70.00    10600.00
01251             -74.00    10600.00
01252             -66.00    10600.00
01253             -72.00    10800.00
01254             -72.00    10800.00
01255             -70.00    10800.00
01256             -82.00    11000.00
01257             -80.00    11000.00
01258             -80.00    11000.00
01259             -88.00    11200.00
01260             -82.00    11000.00
01261             -86.00    11200.00
01262             -90.00    11400.00
01263             -96.00    11400.00
01264             -94.00    11400.00
01265             -98.00    11600.00
01266             -96.00    11600.00
01267             -96.00    11600.00
01268             -98.00    11600.00
01269            -104.00    11600.00
01270            -112.00    11600.00
01271            -114.00    11600.00
01272            -112.00    11600.00
01273            -114.00    11800.00
01274            -116.00    11800.00
01275            -118.00    11800.00
01276            -122.00    11600.00
01277            -126.00    11600.00
01278            -128.00    11800.00
01279            -130.00    11800.00
01280            -130.00    11800.00
01281            -136.00    11800.00
01282            -134.00    11800.00
01283            -138.00    11600.00
01284            -146.00    11600.00
01285            -142.00    11600.00
01286            -144.00    11800.00
01287            -144.00    11600.00
01288            -144.00    11600.00
01289            -146.00    11600.00
01290            -150.00    11600.00
01291            -148.00    11400.00
01292            -146.00    11400.00
01293            -144.00    11400.00
01294            -138.00    11400.00
01295            -142.00    11400.00
01296            -138.00    11200.00
01297            -138.00    11400.00
01298            -134.00    11200.00
01299            -132.00    11000.00
01300            -126.00    11000.00
01301            -122.00    10800.00
01302            -122.00    11000.00
01303            -122.00    10800.00
01304            -118.00    10800.00
01305            -112.00    10800.00
01306            -110.00    10600.00
01307            -104.00    10400.00
01308             -98.00    10400.00
01309            -100.00    10400.00
01310             -98.00    10200.00
01311             -96.00    10200.00
01312             -90.00    10000.00
01313             -86.00     9800.00
01314             -82.00     9800.00
01315             -80.00     9800.00
01316             -82.00     9400.00
01317             -80.00     9400.00
01318             -78.00     9400.00
01319             -72.00     9200.00
01320             -70.00     9200.00
01321             -66.00     9000.00
01322             -66.00     9000.00
01323             -64.00     9000.00
01324             -64.00     8800.00
01325             -62.00     8400.00
01326             -58.00     8400.00
01327             -54.00     8400.00
01328             -52.00     8200.00
01329             -50.00     7800.00
01330             -50.00     7800.00
01331             -50.00     7600.00
01332             -48.00     7600.00
01333             -46.00     7400.00
01334             -40.00     7400.00
01335             -42.00     7000.00
01336             -42.00     7000.00
01337             -40.00     6800.00
01338             -42.00     6800.00
01339             -38.00     6600.00
01340             -34.00     6200.00
01341             -32.00     6200.00
01342             -32.00     6000.00
01343             -30.00     6000.00
01344             -32.00     5600.00
01345             -30.00     5400.00
01346             -26.00     5200.00
01347             -26.00     5200.00
01348             -26.00     5000.00
01349             -26.00     5000.00
01350             -26.00     4800.00
01351             -26.00     4600.00
01352             -24.00     4400.00
01353             -18.00     4200.00
01354             -18.00     3800.00
01355             -18.00     3800.00
01356             -18.00     3600.00
01357             -18.00     3400.00
01358             -20.00     3200.00
01359             -16.00     3000.00
01360             -16.00     3000.00
01361             -14.00     2800.00
01362             -16.00     2600.00
01363             -14.00     2200.00
01364             -14.00     2400.00
01365             -10.00     1800.00
01366             -12.00     1800.00
01367             -10.00     1400.00
01368             -10.00     1200.00
01369             -10.00     1200.00
01370             -10.00     1000.00
01371             -10.00      800.00
01372              -6.00      600.00
01373              -6.00      400.00
01374              -2.00      200.00
01375              -2.00      200.00
01376               2.00     -200.00
01377              18.00     -400.00
01378              18.00     -400.00
01379              -8.00     -800.00
01380              -8.00    -1000.00
01381               6.00    -1000.00
01382              10.00    -1200.00
01383               6.00    -1400.00
01384              42.00    -1400.00
01385             182.00    -1800.00
01386             136.00    -2200.00
01387            -242.00    -2400.00
01388            -254.00    -2600.00
01389              56.00    -2600.00
01390              54.00    -2800.00
01391             -78.00    -2600.00
01392             220.00    -3000.00
01393             -24.00    -3400.00
01394            -130.00    -3000.00
01395             208.00    -3800.00
01396             -34.00    -3800.00
01397             -26.00    -3600.00
01398              20.00    -4200.00
01399             -10.00    -4400.00
01400             122.00    -4200.00
01401             -56.00    -4800.00
01402             -20.00    -5000.00
01403              30.00    -4600.00
01404               8.00    -5400.00
01405              66.00    -5200.00
01406             -40.00    -5200.00
01407              42.00    -6000.00
01408              48.00    -5800.00
01409              -2.00    -5800.00
01410              30.00    -6200.00
01411              10.00    -6200.00
01412              26.00    -6600.00
01413              22.00    -6800.00
01414              46.00    -6800.00
01415               4.00    -7000.00
01416              22.00    -7000.00
01417              54.00    -7400.00
01418              18.00    -7400.00
01419              46.00    -7600.00
01420              22.00    -7600.00
01421              26.00    -8000.00
01422              56.00    -8000.00
01423              22.00    -8200.00
01424              24.00    -8200.00
01425              50.00    -8200.00
01426              40.00    -8600.00
01427              32.00    -8400.00
01428              42.00    -8800.00
01429              40.00    -8800.00
01430              48.00    -9000.00
01431              50.00    -9000.00
01432              38.00    -9200.00
01433              48.00    -9400.00
01434              48.00    -9400.00
01435              54.00    -9400.00
01436              56.00    -9400.00
01437              48.00    -9600.00
01438              50.00   -10000.00
01439              66.00    -9800.00
01440              64.00   -10000.00
01441              54.00   -10200.00
01442              54.00   -10200.00
01443              58.00   -10200.00
01444              80.00   -10200.00
01445              74.00   -10400.00
01446              64.00   -10600.00
01447              64.00   -10600.00
01448              76.00   -10800.00
01449              78.00   -10800.00
01450              72.00   -10800.00
01451              80.00   -11000.00
01452              88.00   -10800.00
01453              86.00   -11000.00
01454              74.00   -11000.00
01455              74.00   -11000.00
01456              94.00   -11000.00
01457              98.00   -11400.00
01458              98.00   -11400.00
01459              96.00   -11400.00
01460              96.00   -11400.00
01461              94.00   -11400.00
01462             102.00   -11400.00
01463             112.00   -11400.00
01464             120.00   -11400.00
01465             114.00   -11400.00
01466             104.00   -11400.00
01467             114.00   -11600.00
01468             120.00   -11400.00
01469             118.00   -11600.00
01470             122.00   -11400.00
01471             128.00   -11400.00
01472             134.00   -11400.00
01473             130.00   -11400.00
01474             130.00   -11400.00
01475             138.00   -11400.00
01476             140.00   -11400.00
01477             142.00   -11400.00
01478             144.00   -11400.00
01479             142.00   -11400.00
01480             144.00   -11400.00
01481             144.00   -11200.00
01482             142.00   -11200.00
01483             136.00   -11000.00
01484             138.00   -11200.00
01485             142.00   -11200.00
01486             142.00   -11000.00
01487             134.00   -11000.00
01488             130.00   -11000.00
01489             128.00   -10800.00
01490             122.00   -10800.00
01491             120.00   -10800.00
01492             120.00   -10600.00
01493             122.00   -10400.00
01494             118.00   -10600.00
01495             110.00   -10400.00
01496             102.00   -10600.00
01497             102.00   -10400.00
01498              98.00   -10200.00
01499              96.00   -10200.00
01500              96.00   -10000.00
01501              94.00    -9800.00
01502              86.00   -10000.00
01503              80.00    -9800.00
01504              78.00    -9800.00
01505              80.00    -9600.00
01506              78.00    -9400.00
01507              74.00    -9200.00
01508              70.00    -9400.00
01509              64.00    -9200.00
01510              62.00    -9000.00
01511              60.00    -9000.00
01512              62.00    -8600.00
01513              62.00    -8800.00
01514              58.00    -8600.00
01515              54.00    -8400.00
01516              50.00    -8200.00
01517              50.00    -8200.00
01518              48.00    -7800.00
01519              46.00    -7800.00
01520              46.00    -7800.00
01521              46.00    -7600.00
01522              40.00    -7600.00
01523              38.00    -7400.00
01524              36.00    -7000.00
01525              38.00    -7000.00
01526              38.00    -6800.00
01527              38.00    -6600.00
01528              32.00    -6600.00
01529              30.00    -6600.00
01530              26.00    -6400.00
01531              26.00    -6000.00
01532              26.00    -6000.00
01533              26.00    -5800.00
01534              26.00    -5600.00
01535              26.00    -5400.00
01536              22.00    -5400.00
01537              22.00    -5200.00
01538              22.00    -5000.00
01539              22.00    -4600.00
01540              18.00    -4800.00
01541              16.00    -4400.00
01542              16.00    -4000.00
01543              16.00    -4200.00
01544              16.00    -3800.00
01545              16.00    -3600.00
01546              16.00    -3600.00
01547              14.00    -3400.00
01548               8.00    -3200.00
01549              10.00    -3000.00
01550               8.00    -2800.00
01551              10.00    -2600.00
01552              10.00    -2600.00
01553              10.00    -2200.00
01554               6.00    -2200.00
01555               4.00    -1800.00
01556               2.00    -1800.00
01557               6.00    -1400.00
01558               6.00    -1400.00
01559               6.00    -1200.00
01560               2.00    -1000.00
01561               2.00     -800.00
01562              -2.00     -600.00
01563              -2.00     -400.00
01564              -2.00     -200.00
01565               0.00     -200.00
01566              -2.00      200.00
01567               0.00      200.00
01568               8.00      400.00
01569              24.00      600.00
01570               6.00      800.00
01571             -10.00     1000.00
01572              -2.00     1200.00
01573               8.00     1400.00
01574               2.00     1400.00
01575              48.00     1800.00
01576             230.00     2200.00
01577              72.00     2400.00
01578            -254.00     2400.00
01579            -254.00     2600.00
01580              44.00     2600.00
01581             -14.00     2600.00
01582             246.00     3400.00
01583              16.00     3200.00
01584            -254.00     3000.00
01585             246.00     4200.00
01586             106.00     3600.00
01587            -246.00     3800.00
01588              88.00     4600.00
01589            -122.00     3800.00
01590             134.00     4600.00
01591              38.00     5000.00
01592            -254.00     4200.00
01593             128.00     5600.00
01594             -46.00     5000.00
01595             -38.00     5000.00
01596              10.00     6000.00
01597             -90.00     5400.00
01598              72.00     5800.00
01599             -58.00     6400.00
01600             -40.00     6000.00
01601             -34.00     6400.00
01602             -26.00     6800.00
01603             -18.00     6600.00
01604             -16.00     7000.00
01605             -14.00     7200.00
01606             -96.00     7000.00
01607              16.00     7600.00
01608             -40.00     7400.00
01609             -38.00     7600.00
01610             -12.00     8000.00
01611             -72.00     7800.00
01612              -8.00     8200.00
01613             -42.00     8400.00
01614             -62.00     8200.00
01615             -32.00     8600.00
01616             -26.00     8800.00
01617             -58.00     8800.00
01618             -26.00     9000.00
01619             -50.00     9000.00
01620             -56.00     9200.00
01621             -40.00     9400.00
01622             -58.00     9400.00
01623             -42.00     9400.00
01624             -48.00     9600.00
01625             -56.00     9800.00
01626             -60.00     9800.00
01627             -56.00    10000.00
01628             -70.00     9800.00
01629             -48.00    10200.00
01630             -56.00    10200.00
01631             -72.00    10200.00
01632             -64.00    10600.00
01633             -74.00    10600.00
01634             -72.00    10600.00
01635             -66.00    10600.00
01636             -72.00    10600.00
01637             -70.00    10800.00
01638             -70.00    11000.00
01639             -86.00    11000.00
01640             -78.00    11000.00
01641             -88.00    11000.00
01642             -86.00    11200.00
01643             -80.00    11000.00
01644             -86.00    11000.00
01645             -94.00    11400.00
01646             -96.00    11400.00
01647             -96.00    11400.00
01648             -98.00    11400.00
01649             -96.00    11400.00
01650             -98.00    11600.00
01651             -98.00    11600.00
01652            -106.00    11400.00
01653            -112.00    11600.00
01654            -112.00    11800.00
01655            -112.00    11600.00
01656            -114.00    11600.00
01657            -114.00    11800.00
01658            -118.00    11800.00
01659            -122.00    11800.00
01660            -128.00    11800.00
01661            -130.00    11800.00
01662            -128.00    11600.00
01663            -130.00    11800.00
01664            -134.00    11800.00
01665            -136.00    11800.00
01666            -142.00    11800.00
01667            -146.00    11800.00
01668            -146.00    11600.00
01669            -144.00    11600.00
01670            -144.00    11600.00
01671            -146.00    11800.00
01672            -146.00    11600.00
01673            -148.00    11400.00
01674            -150.00    11400.00
01675            -150.00    11600.00
01676            -142.00    11600.00
01677            -138.00    11400.00
01678            -138.00    11400.00
01679            -136.00    11400.00
01680            -136.00    11400.00
01681            -134.00    11200.00
01682            -130.00    11000.00
01683            -126.00    11000.00
01684            -122.00    11000.00
01685            -118.00    10800.00
01686            -120.00    10800.00
01687            -114.00    10800.00
01688            -112.00    10600.00
01689            -106.00    10600.00
01690            -104.00    10400.00
01691             -96.00    10400.00
01692             -98.00    10200.00
01693             -98.00    10200.00
01694             -98.00    10000.00
01695             -94.00     9800.00
01696             -86.00     9800.00
01697             -82.00     9800.00
01698             -80.00     9800.00
01699             -80.00     9600.00
01700             -80.00     9400.00
01701             -78.00     9400.00
01702             -74.00     9200.00
01703             -68.00     9000.00
01704             -66.00     9000.00
01705             -64.00     8800.00
01706             -66.00     8800.00
01707             -64.00     8800.00
01708             -62.00     8400.00
01709             -56.00     8400.00
01710             -54.00     8200.00
01711             -54.00     8200.00
01712             -54.00     7800.00
01713             -50.00     7800.00
01714             -50.00     7600.00
01715             -48.00     7600.00
01716             -46.00     7400.00
01717             -42.00     7400.00
01718             -44.00     7000.00
01719             -42.00     7000.00
01720             -40.00     6800.00
01721             -38.00     6600.00
01722             -36.00     6600.00
01723             -34.00     6400.00
01724             -34.00     6200.00
01725             -34.00     6000.00
01726             -34.00     5800.00
01727             -32.00     5800.00
01728             -32.00     5400.00
01729             -26.00     5200.00
01730             -26.00     5200.00
01731             -24.00     5000.00
01732             -26.00     4800.00
01733             -24.00     4600.00
01734             -26.00     4400.00
01735             -22.00     4200.00
01736             -22.00     4200.00
01737             -18.00     4000.00
01738             -16.00     3800.00
01739             -18.00     3600.00
01740             -18.00     3400.00
01741             -18.00     3000.00
01742             -16.00     3000.00
01743             -16.00     2800.00
01744             -16.00     2600.00
01745             -14.00     2400.00
01746             -16.00     2200.00
01747             -14.00     2200.00
01748             -10.00     2000.00
01749             -10.00     1800.00
01750             -10.00     1400.00
01751              -8.00     1200.00
01752              -8.00     1000.00
01753             -10.00     1000.00
01754             -10.00      800.00
01755              -8.00      600.00
01756              -6.00      400.00
01757              -2.00      200.00
01758               0.00        0.00
01759               2.00     -200.00
01760              24.00     -400.00
01761              10.00     -400.00
01762              -8.00    -1000.00
01763              -6.00    -1000.00
01764               8.00    -1200.00
01765               8.00    -1200.00
01766               8.00    -1400.00
01767              56.00    -1600.00
01768             204.00    -1800.00
01769              86.00    -2200.00
01770            -254.00    -2400.00
01771            -222.00    -2600.00
01772              88.00    -2600.00
01773              18.00    -2800.00
01774             -46.00    -2600.00
01775             238.00    -3000.00
01776             -96.00    -3400.00
01777             -74.00    -3000.00
01778             200.00    -3800.00
01779             -70.00    -3800.00
01780               2.00    -3800.00
01781               0.00    -4400.00
01782              16.00    -4400.00
01783             108.00    -4200.00
01784             -78.00    -5000.00
01785               2.00    -5000.00
01786              22.00    -4800.00
01787              24.00    -5400.00
01788              56.00    -5200.00
01789             -40.00    -5400.00
01790              58.00    -5800.00
01791              34.00    -5800.00
01792               2.00    -6000.00
01793              30.00    -6200.00
01794              12.00    -6200.00
01795              30.00    -6600.00
01796              26.00    -6600.00
01797              46.00    -6800.00
01798              -6.00    -7400.00
01799              30.00    -7200.00
01800              48.00    -7400.00
01801              20.00    -7400.00
01802              50.00    -7600.00
01803              18.00    -7800.00
01804              32.00    -8000.00
01805              50.00    -7800.00
01806              16.00    -8200.00
01807              32.00    -8400.00
01808              54.00    -8400.00
01809              36.00    -8600.00
01810              38.00    -8600.00
01811              42.00    -8800.00
01812              36.00    -9000.00
01813              48.00    -9000.00
01814              52.00    -9200.00
01815              54.00    -9200.00
01816              54.00    -9400.00
01817              48.00    -9400.00
01818              48.00    -9600.00
01819              56.00    -9600.00
01820              50.00    -9800.00
01821              56.00    -9800.00
01822              64.00   -10000.00
01823              54.00   -10000.00
01824              58.00   -10200.00
01825              64.00   -10200.00
01826              68.00   -10400.00
01827              70.00   -10400.00
01828              64.00   -10400.00
01829              66.00   -10600.00
01830              72.00   -10600.00
01831              72.00   -10800.00
01832              78.00   -10800.00
01833              78.00   -10800.00
01834              80.00   -10800.00
01835              78.00   -11000.00
01836              86.00   -11000.00
01837              82.00   -11000.00
01838              86.00   -11200.00
01839              86.00   -11000.00
01840              90.00   -11200.00
01841              96.00   -11400.00
01842              98.00   -11400.00
01843              98.00   -11400.00
01844             100.00   -11400.00
01845              98.00   -11400.00
01846             104.00   -11400.00
01847             110.00   -11400.00
01848             114.00   -11400.00
01849             116.00   -11600.00
01850             118.00   -11400.00
01851             118.00   -11600.00
01852             118.00   -11400.00
01853             124.00   -11400.00
01854             130.00   -11400.00
01855             134.00   -11600.00
01856             142.00   -11400.00
01857             122.00   -11400.00
01858             126.00   -11400.00
01859             136.00   -11400.00
01860             144.00   -11400.00
01861             126.00   -11400.00
01862             136.00   -11400.00
01863             174.00   -11200.00
01864             158.00   -11400.00
01865             150.00   -11000.00
01866             120.00   -11200.00
01867             158.00   -11400.00
01868             130.00   -11000.00
01869             122.00   -11000.00
01870             104.00   -11000.00
01871             152.00   -11000.00
01872             140.00   -10800.00
01873             118.00   -10800.00
01874             130.00   -10800.00
01875             120.00   -10400.00
01876             142.00   -10600.00
01877              86.00   -10400.00
01878             112.00   -10400.00
01879             112.00   -10200.00
01880             102.00   -10200.00
01881              86.00   -10200.00
01882              86.00   -10000.00
01883             114.00   -10200.00
01884              94.00   -10000.00
01885              86.00    -9800.00
01886              82.00    -9800.00
01887             100.00    -9600.00
01888              78.00    -9400.00
01889              54.00    -9400.00
01890              66.00    -9400.00
01891              74.00    -9400.00
01892              70.00    -9200.00
01893              58.00    -9000.00
01894              66.00    -9000.00
01895              78.00    -8800.00
01896              62.00    -8600.00
01897              50.00    -8600.00
01898              50.00    -8200.00
01899              54.00    -8400.00
01900              46.00    -8200.00
01901              40.00    -8200.00
01902              46.00    -7800.00
01903              48.00    -7800.00
01904              48.00    -7400.00
01905              40.00    -7400.00
01906              42.00    -7400.00
01907              40.00    -7200.00
01908              34.00    -7000.00
01909              32.00    -6800.00
01910              30.00    -6600.00
01911              36.00    -6600.00
01912              26.00    -6400.00
01913              30.00    -6200.00
01914              30.00    -6200.00
01915              30.00    -6000.00
01916              24.00    -5800.00
01917              22.00    -5600.00
01918              24.00    -5400.00
01919              22.00    -5400.00
01920              22.00    -5200.00
01921              18.00    -5000.00
01922              22.00    -4600.00
01923              20.00    -4600.00
01924              18.00    -4400.00
01925              16.00    -4200.00
01926              16.00    -4000.00
01927              16.00    -3800.00
01928              14.00    -3600.00
01929              14.00    -3600.00
01930              14.00    -3400.00
01931              10.00    -3200.00
01932              10.00    -3000.00
01933               8.00    -2800.00
01934               8.00    -2600.00
01935              10.00    -2600.00
01936              14.00    -2200.00
01937               6.00    -2000.00
01938               6.00    -1800.00
01939               6.00    -1800.00
01940               6.00    -1400.00
01941               4.00    -1400.00
01942               6.00    -1200.00
01943               2.00    -1000.00
01944               2.00    -1000.00
01945               0.00     -600.00
01946               0.00     -400.00
01947               0.00     -200.00
01948               0.00        0.00
01949               0.00      200.00
01950               0.00      400.00
01951              14.00      600.00
01952              22.00      600.00
01953               0.00      800.00
01954             -10.00     1200.00
01955              -2.00     1200.00
01956               8.00     1400.00
01957               6.00     1400.00
01958              70.00     1800.00
01959             246.00     2200.00
01960               0.00     2400.00
01961            -254.00     2600.00
01962            -216.00     2600.00
01963              56.00     2800.00
01964              -2.00     2800.00
01965             246.00     3400.00
01966            -106.00     3200.00
01967            -254.00     3400.00
01968             246.00     4200.00
01969              -2.00     3400.00
01970            -192.00     4000.00
01971              82.00     4400.00
01972            -136.00     3800.00
01973             184.00     4800.00
01974             -46.00     4800.00
01975            -214.00     4400.00
01976             144.00     5600.00
01977             -78.00     5000.00
01978              -6.00     5200.00
01979             -24.00     6000.00
01980             -64.00     5400.00
01981              72.00     6200.00
01982             -74.00     6200.00
01983             -26.00     6200.00
01984             -42.00     6600.00
01985             -22.00     6600.00
01986             -30.00     6600.00
01987               0.00     7000.00
01988             -26.00     7000.00
01989             -90.00     7000.00
01990              24.00     7600.00
01991             -58.00     7400.00
01992             -24.00     7600.00
01993             -24.00     8200.00
01994             -62.00     7800.00
01995              -8.00     8200.00
01996             -50.00     8200.00
01997             -62.00     8200.00
01998             -32.00     8600.00
01999             -32.00     8800.00
02000             -50.00     8800.00
02001             -24.00     9000.00
02002             -64.00     9000.00
02003             -58.00     9200.00
02004             -38.00     9400.00
02005             -50.00     9400.00
02006             -38.00     9400.00
02007             -52.00     9600.00
02008             -62.00     9800.00
02009             -62.00     9800.00
02010             -58.00    10000.00
02011             -66.00    10000.00
02012             -42.00    10200.00
02013             -56.00    10000.00
02014             -66.00    10200.00
02015             -62.00    10400.00
02016             -76.00    10600.00
02017             -72.00    10600.00
02018             -64.00    10800.00
02019             -70.00    10600.00
02020             -72.00    11000.00
02021             -74.00    11000.00
02022             -86.00    11000.00
02023             -80.00    11000.00
02024             -86.00    11000.00
02025             -86.00    11000.00
02026             -80.00    11200.00
02027             -86.00    11400.00
02028             -94.00    11400.00
02029             -96.00    11400.00
02030             -96.00    11600.00
02031             -98.00    11400.00
02032             -96.00    11600.00
02033            -104.00    11600.00
02034             -98.00    11600.00
02035            -106.00    11600.00
02036            -112.00    11600.00
02037            -114.00    11600.00
02038            -118.00    11600.00
02039            -116.00    11800.00
02040            -114.00    11800.00
02041            -120.00    11600.00
02042            -124.00    11800.00
02043            -128.00    11800.00
02044            -134.00    11600.00
02045            -132.00    11800.00
02046            -130.00    11800.00
02047            -136.00    11600.00
02048            -138.00    11600.00
02049            -142.00    11600.00
02050            -150.00    11600.00
02051            -146.00    11600.00
02052            -144.00    11600.00
02053            -144.00    11600.00
02054            -144.00    11600.00
02055            -146.00    11600.00
02056            -152.00    11400.00
02057            -152.00    11400.00
02058            -144.00    11400.00
02059            -142.00    11200.00
02060            -142.00    11400.00
02061            -142.00    11400.00
02062            -138.00    11400.00
02063            -138.00    11400.00
02064            -134.00    11000.00
02065            -128.00    11000.00
02066            -124.00    11000.00
02067            -122.00    11000.00
02068            -120.00    11000.00
02069            -118.00    10800.00
02070            -114.00    10800.00
02071            -112.00    10600.00
02072            -106.00    10600.00
02073            -102.00    10400.00
02074            -102.00    10200.00
02075             -96.00    10200.00
02076             -96.00    10200.00
02077             -92.00    10000.00
02078             -90.00    10000.00
02079             -86.00     9800.00
02080             -80.00     9800.00
02081             -82.00     9800.00
02082             -80.00     9600.00
02083             -78.00     9400.00
02084             -74.00     9200.00
02085             -72.00     9200.00
02086             -66.00     9200.00
02087             -64.00     9000.00
02088             -64.00     8800.00
02089             -64.00     8800.00
02090             -64.00     8600.00
02091             -62.00     8400.00
02092             -56.00     8200.00
02093             -54.00     8200.00
02094             -54.00     8200.00
02095             -54.00     8000.00
02096             -52.00     7800.00
02097             -50.00     7600.00
02098             -48.00     7400.00
02099             -44.00     7400.00
02100             -42.00     7200.00
02101             -42.00     7000.00
02102             -42.00     7000.00
02103             -42.00     6800.00
02104             -40.00     6600.00
02105             -38.00     6400.00
02106             -36.00     6200.00
02107             -34.00     6200.00
02108             -32.00     6000.00
02109             -34.00     5800.00
02110             -32.00     5600.00
02111             -32.00     5400.00
02112             -26.00     5200.00
02113             -26.00     5000.00
02114             -26.00     5000.00
02115             -30.00     4600.00
02116             -26.00     4600.00
02117             -26.00     4600.00
02118             -22.00     4200.00
02119             -18.00     4200.00
02120             -20.00     3800.00
02121             -20.00     3800.00
02122             -18.00     3600.00
02123             -16.00     3400.00
02124             -18.00     3000.00
02125             -18.00     2800.00
02126             -16.00     2800.00
02127             -14.00     2600.00
02128             -14.00     2400.00
02129             -16.00     2200.00
02130             -14.00     2000.00
02131             -10.00     2000.00
02132              -6.00     1800.00
02133              -6.00     1400.00
02134             -10.00     1200.00
02135             -14.00     1200.00
02136             -16.00     1000.00
02137             -10.00      600.00
02138               0.00      600.00
02139               2.00      400.00
02140               2.00      200.00
02141               0.00      200.00
02142               0.00     -200.00
02143              16.00     -400.00
02144              10.00     -400.00
02145              -2.00    -1000.00
02146               0.00    -1000.00
02147              16.00    -1000.00
02148               8.00    -1200.00
02149              10.00    -1400.00
02150              70.00    -1600.00
02151             214.00    -1800.00
02152              28.00    -2200.00
02153            -254.00    -2400.00
02154            -174.00    -2600.00
02155             114.00    -2800.00
02156             -22.00    -2800.00
02157             -10.00    -2800.00
02158             234.00    -3400.00
02159            -160.00    -3200.00
02160               0.00    -3400.00
02161             186.00    -4000.00
02162             -86.00    -3800.00
02163              24.00    -4000.00
02164             -22.00    -4400.00
02165              48.00    -4200.00
02166              86.00    -4000.00
02167             -82.00    -5000.00
02168              18.00    -5000.00
02169              14.00    -5000.00
02170              40.00    -5400.00
02171              34.00    -5200.00
02172             -38.00    -5600.00
02173              70.00    -6000.00
02174              22.00    -5800.00
02175               8.00    -6200.00
02176              22.00    -6400.00
02177              14.00    -6200.00
02178              26.00    -6800.00
02179              28.00    -6800.00
02180              40.00    -6800.00
02181              -2.00    -7000.00
02182              42.00    -7200.00
02183              40.00    -7400.00
02184              22.00    -7600.00
02185              48.00    -7600.00
02186              14.00    -7800.00
02187              40.00    -8000.00
02188              44.00    -8000.00
02189              16.00    -8400.00
02190              32.00    -8200.00
02191              54.00    -8400.00
02192              36.00    -8400.00
02193              42.00    -8600.00
02194              42.00    -8600.00
02195              38.00    -9000.00
02196              48.00    -9000.00
02197              46.00    -9000.00
02198              50.00    -9200.00
02199              54.00    -9400.00
02200              48.00    -9400.00
02201              48.00    -9600.00
02202              56.00    -9800.00
02203              50.00    -9800.00
02204              62.00    -9800.00
02205              70.00   -10000.00
02206              62.00   -10200.00
02207              62.00   -10000.00
02208              60.00   -10200.00
02209              62.00   -10400.00
02210              68.00   -10400.00
02211              66.00   -10200.00
02212              72.00   -10600.00
02213              72.00   -10800.00
02214              74.00   -10400.00
02215              72.00   -10800.00
02216              78.00   -10800.00
02217              80.00   -10800.00
02218              82.00   -11000.00
02219              88.00   -11000.00
02220              86.00   -11000.00
02221              84.00   -11000.00
02222              86.00   -11400.00
02223              86.00   -11400.00
02224              96.00   -11200.00
02225             102.00   -11400.00
02226             104.00   -11400.00
02227             102.00   -11400.00
02228             100.00   -11400.00
02229             104.00   -11400.00
02230             108.00   -11400.00
02231             110.00   -11400.00
02232             114.00   -11400.00
02233             118.00   -11400.00
02234             116.00   -11600.00
02235             118.00   -11400.00
02236             122.00   -11600.00
02237             128.00   -11400.00
02238             134.00   -11600.00
02239             132.00   -11400.00
02240             130.00   -11600.00
02241             136.00   -11400.00
02242             136.00   -11400.00
02243             138.00   -11400.00
02244             142.00   -11400.00
02245             144.00   -11400.00
02246             144.00   -11400.00
02247             142.00   -11200.00
02248             142.00   -11200.00
02249             140.00   -11200.00
02250             136.00   -11200.00
02251             140.00   -11000.00
02252             136.00   -11000.00
02253             134.00   -11000.00
02254             128.00   -11000.00
02255             130.00   -11000.00
02256             122.00   -10800.00
02257             126.00   -10800.00
02258             118.00   -10400.00
02259             118.00   -10400.00
02260             112.00   -10600.00
02261             110.00   -10400.00
02262             104.00   -10400.00
02263             102.00   -10200.00
02264              98.00   -10200.00
02265              98.00   -10200.00
02266              94.00   -10200.00
02267              88.00   -10000.00
02268              82.00   -10000.00
02269              82.00    -9800.00
02270              80.00    -9600.00
02271              80.00    -9400.00
02272              80.00    -9400.00
02273              74.00    -9400.00
02274              70.00    -9200.00
02275              64.00    -9200.00
02276              62.00    -9000.00
02277              62.00    -9000.00
02278              64.00    -8600.00
02279              58.00    -8600.00
02280              54.00    -8600.00
02281              50.00    -8400.00
02282              50.00    -8200.00
02283              50.00    -8200.00
02284              52.00    -8200.00
02285              48.00    -7800.00
02286              48.00    -7800.00
02287              42.00    -7600.00
02288              40.00    -7600.00
02289              36.00    -7400.00
02290              36.00    -7000.00
02291              36.00    -7000.00
02292              38.00    -6800.00
02293              34.00    -6800.00
02294              32.00    -6600.00
02295              30.00    -6400.00
02296              26.00    -6200.00
02297              28.00    -6200.00
02298              24.00    -6000.00
02299              24.00    -5800.00
02300              24.00    -5600.00
02301              22.00    -5400.00
02302              22.00    -5200.00
02303              22.00    -5200.00
02304              22.00    -5000.00
02305              22.00    -4600.00
02306              18.00    -4600.00
02307              16.00    -4400.00
02308              16.00    -4200.00
02309              14.00    -4000.00
02310              14.00    -3800.00
02311              12.00    -3600.00
02312              14.00    -3600.00
02313              14.00    -3400.00
02314              12.00    -3200.00
02315              10.00    -3000.00
02316              10.00    -2800.00
02317               8.00    -2600.00
02318               8.00    -2400.00
02319               8.00    -2200.00
02320               8.00    -2200.00
02321               6.00    -1800.00
02322               4.00    -1800.00
02323               6.00    -1400.00
02324               4.00    -1200.00
02325               6.00    -1000.00
02326               2.00    -1000.00
02327               2.00    -1000.00
02328               2.00     -400.00
02329               0.00     -400.00
02330               0.00     -200.00
02331               0.00        0.00
02332               0.00      200.00
02333               0.00      200.00
02334              16.00      600.00
02335              22.00      600.00
02336               0.00     1000.00
02337              -8.00     1000.00
02338               0.00     1200.00
02339               8.00     1200.00
02340               6.00     1600.00
02341              96.00     1800.00
02342             246.00     2200.00
02343             -78.00     2400.00
02344            -254.00     2400.00
02345            -156.00     2600.00
02346              54.00     2800.00
02347              26.00     2800.00
02348             246.00     3400.00
02349            -230.00     3000.00
02350            -254.00     3400.00
02351             246.00     4000.00
02352            -104.00     3400.00
02353            -130.00     4200.00
02354              58.00     4600.00
02355            -118.00     3800.00
02356             208.00     5000.00
02357            -126.00     4600.00
02358            -152.00     4600.00
02359             142.00     5800.00
02360            -106.00     5000.00
02361              22.00     5400.00
02362             -48.00     6000.00
02363             -38.00     5400.00
02364              54.00     6200.00
02365             -86.00     6200.00
02366             -18.00     6000.00
02367             -46.00     6600.00
02368             -12.00     6600.00
02369             -32.00     6600.00
02370               2.00     7000.00
02371             -50.00     7000.00
02372             -74.00     7000.00
02373              26.00     7600.00
02374             -64.00     7400.00
02375             -10.00     7600.00
02376             -40.00     8000.00
02377             -54.00     7800.00
02378             -10.00     8200.00
02379             -58.00     8400.00
02380             -56.00     8400.00
02381             -24.00     8800.00
02382             -42.00     8800.00
02383             -54.00     8800.00
02384             -24.00     9000.00
02385             -62.00     9000.00
02386             -46.00     9200.00
02387             -46.00     9200.00
02388             -56.00     9200.00
02389             -42.00     9400.00
02390             -50.00     9800.00
02391             -56.00     9800.00
02392             -58.00     9800.00
02393             -62.00    10000.00
02394             -66.00    10000.00
02395             -42.00    10200.00
02396             -62.00    10200.00
02397             -66.00    10400.00
02398             -62.00    10600.00
02399             -74.00    10600.00
02400             -72.00    10600.00
02401             -70.00    10800.00
02402             -74.00    10800.00
02403             -68.00    10800.00
02404             -74.00    11000.00
02405             -80.00    10800.00
02406             -76.00    11000.00
02407             -86.00    11000.00
02408             -84.00    11200.00
02409             -80.00    11200.00
02410             -88.00    11400.00
02411             -94.00    11400.00
02412             -96.00    11400.00
02413             -98.00    11400.00
02414             -98.00    11600.00
02415             -96.00    11600.00
02416            -100.00    11600.00
02417            -100.00    11600.00
02418            -106.00    11600.00
02419            -114.00    11800.00
02420            -112.00    11800.00
02421            -114.00    11600.00
02422            -114.00    11600.00
02423            -114.00    11800.00
02424            -122.00    11600.00
02425            -126.00    11800.00
02426            -128.00    11600.00
02427            -130.00    11800.00
02428            -130.00    11600.00
02429            -132.00    11800.00
02430            -136.00    11600.00
02431            -138.00    11600.00
02432            -144.00    11600.00
02433            -146.00    11600.00
02434            -146.00    11800.00
02435            -146.00    11600.00
02436            -146.00    11600.00
02437            -146.00    11600.00
02438            -150.00    11600.00
02439            -152.00    11400.00
02440            -150.00    11600.00
02441            -144.00    11600.00
02442            -142.00    11400.00
02443            -142.00    11400.00
02444            -144.00    11200.00
02445            -138.00    11400.00
02446            -136.00    11200.00
02447            -132.00    11200.00
02448            -130.00    11000.00
02449            -128.00    11000.00
02450            -122.00    11000.00
02451            -118.00    10800.00
02452            -118.00    10800.00
02453            -112.00    10600.00
02454            -112.00    10600.00
02455            -108.00    10600.00
02456            -106.00    10600.00
02457             -98.00    10200.00
02458             -96.00    10200.00
02459             -94.00    10200.00
02460             -92.00    10200.00
02461             -88.00    10000.00
02462             -86.00     9800.00
02463             -82.00     9800.00
02464             -84.00     9800.00
02465             -78.00     9600.00
02466             -74.00     9400.00
02467             -72.00     9400.00
02468             -70.00     9200.00
02469             -70.00     9000.00
02470             -66.00     9000.00
02471             -64.00     9000.00
02472             -64.00     8600.00
02473             -58.00     8800.00
02474             -58.00     8400.00
02475             -56.00     8200.00
02476             -54.00     8400.00
02477             -50.00     8200.00
02478             -54.00     7800.00
02479             -50.00     7800.00
02480             -50.00     7600.00
02481             -46.00     7600.00
02482             -42.00     7400.00
02483             -42.00     7000.00
02484             -46.00     7000.00
02485             -38.00     6800.00
02486             -42.00     6800.00
02487             -40.00     6600.00
02488             -40.00     6600.00
02489             -32.00     6200.00
02490             -32.00     6200.00
02491             -32.00     6000.00
02492             -34.00     5800.00
02493             -30.00     5600.00
02494             -32.00     5400.00
02495             -28.00     5200.00
02496             -28.00     5000.00
02497             -24.00     5000.00
02498             -26.00     4600.00
02499             -26.00     4600.00
02500             -28.00     4400.00
02501             -22.00     4200.00
02502             -18.00     4000.00
02503             -20.00     3800.00
02504             -18.00     3800.00
02505             -16.00     3600.00
02506             -16.00     3400.00
02507             -24.00     3000.00
02508             -22.00     2800.00
02509             -12.00     2800.00
02510             -10.00     2600.00
02511             -18.00     2200.00
02512             -12.00     2400.00
02513             -12.00     2000.00
02514             -10.00     1800.00
02515             -10.00     1600.00
02516             -10.00     1400.00
02517              -2.00     1400.00
02518              -2.00     1000.00
02519             -10.00     1000.00
02520             -14.00      600.00
02521             -12.00      400.00
02522              -2.00      400.00
02523               8.00      200.00
02524               2.00     -200.00
02525               2.00     -200.00
02526              16.00     -400.00
02527              10.00     -600.00
02528               0.00     -800.00
02529               0.00    -1000.00
02530               6.00    -1200.00
02531               8.00    -1400.00
02532              16.00    -1400.00
02533              90.00    -1400.00
02534             216.00    -2000.00
02535             -30.00    -2400.00
02536            -254.00    -2600.00
02537            -126.00    -2600.00
02538             120.00    -2600.00
02539             -50.00    -2600.00
02540              50.00    -2800.00
02541             212.00    -3400.00
02542            -200.00    -3400.00
02543              66.00    -3200.00
02544             138.00    -4000.00
02545             -96.00    -3800.00
02546              48.00    -3800.00
02547             -32.00    -4400.00
02548              76.00    -4000.00
02549              54.00    -4600.00
02550             -86.00    -5000.00
02551              32.00    -4600.00
02552               4.00    -5000.00
02553              58.00    -5400.00
02554              22.00    -5200.00
02555             -30.00    -5800.00
02556              68.00    -5800.00
02557               2.00    -5800.00
02558              14.00    -6200.00
02559              22.00    -6200.00
02560              24.00    -6200.00
02561              32.00    -6800.00
02562              32.00    -6800.00
02563              26.00    -6800.00
02564             -14.00    -7200.00
02565              46.00    -7000.00
02566              34.00    -7400.00
02567              34.00    -7400.00
02568              50.00    -7600.00
02569              10.00    -7800.00
02570              40.00    -7800.00
02571              34.00    -8000.00
02572              14.00    -8200.00
02573              38.00    -8400.00
02574              56.00    -8400.00
02575              38.00    -8600.00
02576              40.00    -8600.00
02577              38.00    -9000.00
02578              34.00    -8800.00
02579              50.00    -9000.00
02580              48.00    -9000.00
02581              52.00    -9200.00
02582              54.00    -9200.00
02583              50.00    -9400.00
02584              48.00    -9600.00
02585              50.00    -9600.00
02586              48.00    -9800.00
02587              62.00   -10000.00
02588              68.00   -10000.00
02589              56.00   -10000.00
02590              62.00   -10200.00
02591              58.00   -10200.00
02592              58.00   -10200.00
02593              66.00   -10400.00
02594              70.00   -10400.00
02595              76.00   -10600.00
02596              76.00   -10800.00
02597              70.00   -10800.00
02598              72.00   -10600.00
02599              78.00   -10800.00
02600              78.00   -11000.00
02601              86.00   -11000.00
02602              88.00   -11200.00
02603              86.00   -11200.00
02604              86.00   -11000.00
02605              88.00   -11200.00
02606              90.00   -11400.00
02607              94.00   -11400.00
02608              98.00   -11400.00
02609             102.00   -11400.00
02610             102.00   -11400.00
02611             100.00   -11400.00
02612             106.00   -11400.00
02613             110.00   -11400.00
02614             114.00   -11400.00
02615             112.00   -11600.00
02616             118.00   -11400.00
02617             120.00   -11600.00
02618             120.00   -11400.00
02619             124.00   -11600.00
02620             126.00   -11400.00
02621             128.00   -11600.00
02622             130.00   -11400.00
02623             134.00   -11400.00
02624             136.00   -11400.00
02625             136.00   -11400.00
02626             138.00   -11400.00
02627             144.00   -11200.00
02628             142.00   -11400.00
02629             140.00   -11400.00
02630             138.00   -11200.00
02631             138.00   -11400.00
02632             140.00   -11000.00
02633             142.00   -11000.00
02634             138.00   -11200.00
02635             136.00   -11000.00
02636             130.00   -10800.00
02637             126.00   -10800.00
02638             128.00   -10800.00
02639             122.00   -10800.00
02640             122.00   -10600.00
02641             118.00   -10800.00
02642             118.00   -10400.00
02643             112.00   -10600.00
02644             106.00   -10200.00
02645             104.00   -10400.00
02646             104.00   -10200.00
02647             100.00   -10200.00
02648              98.00   -10200.00
02649              94.00   -10000.00
02650              88.00   -10000.00
02651              86.00    -9800.00
02652              82.00    -9800.00
02653              82.00    -9400.00
02654              80.00    -9400.00
02655              78.00    -9400.00
02656              72.00    -9400.00
02657              68.00    -9200.00
02658              66.00    -9200.00
02659              64.00    -9000.00
02660              64.00    -8600.00
02661              62.00    -8800.00
02662              62.00    -8600.00
02663              56.00    -8400.00
02664              50.00    -8400.00
02665              52.00    -8200.00
02666              48.00    -8200.00
02667              50.00    -8000.00
02668              48.00    -7800.00
02669              46.00    -7800.00
02670              42.00    -7600.00
02671              40.00    -7400.00
02672              38.00    -7400.00
02673              38.00    -7400.00
02674              34.00    -6800.00
02675              36.00    -6800.00
02676              32.00    -6600.00
02677              32.00    -6600.00
02678              32.00    -6400.00
02679              30.00    -6200.00
02680              30.00    -6200.00
02681              26.00    -6000.00
02682              26.00    -5800.00
02683              26.00    -5600.00
02684              22.00    -5400.00
02685              18.00    -5200.00
02686              22.00    -5200.00
02687              18.00    -5000.00
02688              20.00    -4600.00
02689              18.00    -4600.00
02690              16.00    -4200.00
02691              16.00    -4200.00
02692              14.00    -4000.00
02693              14.00    -3800.00
02694              16.00    -3600.00
02695              10.00    -3400.00
02696              10.00    -3400.00
02697               8.00    -3000.00
02698               8.00    -3000.00
02699               8.00    -2800.00
02700              10.00    -2400.00
02701               8.00    -2400.00
02702               8.00    -2000.00
02703               8.00    -2000.00
02704               6.00    -1800.00
02705               6.00    -1400.00
02706               6.00    -1400.00
02707               4.00    -1400.00
02708               2.00    -1000.00
02709              -2.00    -1000.00
02710               2.00     -800.00
02711               2.00     -400.00
02712               0.00     -200.00
02713               0.00     -200.00
02714               0.00      200.00
02715               0.00      200.00
02716               2.00      400.00
02717              16.00      600.00
02718              20.00      800.00
02719              -2.00     1000.00
02720              -8.00     1000.00
02721               2.00     1400.00
02722               8.00     1400.00
02723              14.00     1800.00
02724             122.00     2000.00
02725             244.00     2400.00
02726            -158.00     2400.00
02727            -254.00     2600.00
02728            -102.00     2600.00
02729              42.00     2800.00
02730              72.00     3000.00
02731             246.00     3600.00
02732            -254.00     3000.00
02733            -136.00     3600.00
02734             246.00     4200.00
02735            -186.00     3400.00
02736             -64.00     4400.00
02737              18.00     4200.00
02738             -86.00     4000.00
02739             214.00     5200.00
02740            -198.00     4400.00
02741             -80.00     4600.00
02742             120.00     5600.00
02743            -116.00     4800.00
02744              38.00     5600.00
02745             -74.00     5800.00
02746              -8.00     5400.00
02747              34.00     6200.00
02748             -82.00     6200.00
02749             -16.00     6200.00
02750             -48.00     6800.00
02751             -10.00     6600.00
02752             -38.00     6600.00
02753               6.00     7000.00
02754             -70.00     7000.00
02755             -56.00     7400.00
02756              20.00     7600.00
02757             -72.00     7600.00
02758              -4.00     7800.00
02759             -56.00     7800.00
02760             -44.00     7800.00
02761             -14.00     8400.00
02762             -62.00     8400.00
02763             -54.00     8200.00
02764             -24.00     8800.00
02765             -46.00     8800.00
02766             -48.00     9000.00
02767             -30.00     9000.00
02768             -66.00     9000.00
02769             -40.00     9000.00
02770             -56.00     9400.00
02771             -54.00     9400.00
02772             -42.00     9600.00
02773             -52.00     9600.00
02774             -58.00     9800.00
02775             -60.00     9800.00
02776             -64.00    10000.00
02777             -56.00    10000.00
02778             -48.00    10200.00
02779             -70.00    10200.00
02780             -66.00    10200.00
02781             -64.00    10400.00
02782             -74.00    10600.00
02783             -74.00    10600.00
02784             -72.00    10800.00
02785             -66.00    10800.00
02786             -66.00    10800.00
02787             -82.00    11000.00
02788             -82.00    11000.00
02789             -78.00    11200.00
02790             -86.00    11000.00
02791             -86.00    11200.00
02792             -80.00    11200.00
02793             -86.00    11400.00
02794             -94.00    11400.00
02795             -96.00    11400.00
02796            -102.00    11400.00
02797             -96.00    11400.00
02798             -96.00    11600.00
02799            -102.00    11600.00
02800             -98.00    11600.00
02801            -106.00    11600.00
02802            -114.00    11600.00
02803            -118.00    11600.00
02804            -118.00    11800.00
02805            -114.00    11600.00
02806            -116.00    11800.00
02807            -126.00    11800.00
02808            -126.00    11800.00
02809            -128.00    11600.00
02810            -134.00    11600.00
02811            -136.00    11600.00
02812            -134.00    11600.00
02813            -136.00    11800.00
02814            -138.00    11600.00
02815            -144.00    11600.00
02816            -146.00    11600.00
02817            -144.00    11800.00
02818            -150.00    11600.00
02819            -146.00    11600.00
02820            -146.00    11600.00
02821            -148.00    11600.00
02822            -152.00    11600.00
02823            -150.00    11600.00
02824            -146.00    11400.00
02825            -142.00    11400.00
02826            -142.00    11200.00
02827            -138.00    11400.00
02828            -138.00    11400.00
02829            -138.00    11000.00
02830            -132.00    11200.00
02831            -128.00    11000.00
02832            -122.00    11000.00
02833            -120.00    11000.00
02834            -120.00    11000.00
02835            -120.00    10800.00
02836            -114.00    10800.00
02837            -112.00    10600.00
02838            -102.00    10400.00
02839            -102.00    10600.00
02840            -102.00    10400.00
02841             -98.00    10200.00
02842             -96.00    10200.00
02843             -90.00    10000.00
02844             -86.00    10000.00
02845             -80.00     9800.00
02846             -78.00     9800.00
02847             -80.00     9800.00
02848             -80.00     9600.00
02849             -78.00     9400.00
02850             -74.00     9200.00
02851             -66.00     9200.00
02852             -64.00     9000.00
02853             -62.00     9000.00
02854             -64.00     8800.00
02855             -66.00     8600.00
02856             -62.00     8600.00
02857             -58.00     8600.00
02858             -50.00     8400.00
02859             -50.00     8200.00
02860             -48.00     8000.00
02861             -52.00     8000.00
02862             -50.00     7800.00
02863             -48.00     7600.00
02864             -46.00     7400.00
02865             -40.00     7400.00
02866             -40.00     7000.00
02867             -42.00     7000.00
02868             -40.00     6800.00
02869             -42.00     6600.00
02870             -38.00     6600.00
02871             -38.00     6400.00
02872             -34.00     6200.00
02873             -32.00     6200.00
02874             -32.00     6000.00
02875             -34.00     5800.00
02876             -32.00     5600.00
02877             -32.00     5400.00
02878             -26.00     5200.00
02879             -26.00     5000.00
02880             -26.00     5000.00
02881             -26.00     4600.00
02882             -26.00     4600.00
02883             -26.00     4400.00
02884             -24.00     4200.00
02885             -22.00     4000.00
02886             -18.00     3800.00
02887             -22.00     3600.00
02888             -18.00     3400.00
02889             -18.00     3400.00
02890             -18.00     3000.00
02891             -18.00     2800.00
02892             -16.00     2600.00
02893             -14.00     2600.00
02894             -14.00     2400.00
02895             -14.00     2000.00
02896             -14.00     2000.00
02897             -12.00     1800.00
02898             -10.00     1600.00
02899              -8.00     1400.00
02900             -10.00     1200.00
02901             -10.00     1000.00
02902              -8.00     1000.00
02903              -8.00      600.00
02904              -6.00      400.00
02905              -2.00      400.00
02906               0.00      200.00
02907               2.00        0.00
02908               8.00     -200.00
02909              22.00     -400.00
02910               2.00     -600.00
02911              -8.00     -600.00
02912              -2.00    -1000.00
02913              14.00    -1200.00
02914               8.00    -1200.00
02915              22.00    -1400.00
02916             118.00    -1600.00
02917             214.00    -1800.00
02918             -98.00    -2600.00
02919            -254.00    -2400.00
02920             -74.00    -2600.00
02921             120.00    -2800.00
02922             -74.00    -2600.00
02923             104.00    -2800.00
02924             166.00    -3400.00
02925            -216.00    -3400.00
02926             126.00    -3400.00
02927              96.00    -4000.00
02928             -88.00    -3800.00
02929              52.00    -3800.00
02930             -40.00    -4200.00
02931             104.00    -4000.00
02932              22.00    -4400.00
02933             -74.00    -5000.00
02934              40.00    -4600.00
02935              -4.00    -5000.00
02936              66.00    -5400.00
02937              -2.00    -5200.00
02938             -10.00    -5800.00
02939              70.00    -6000.00
02940               0.00    -5800.00
02941              22.00    -6400.00
02942              16.00    -6200.00
02943              22.00    -6200.00
02944              24.00    -6800.00
02945              38.00    -6600.00
02946              24.00    -6800.00
02947              -6.00    -7000.00
02948              50.00    -7400.00
02949              24.00    -7400.00
02950              34.00    -7600.00
02951              40.00    -7600.00
02952              14.00    -7800.00
02953              50.00    -8000.00
02954              30.00    -8200.00
02955              16.00    -8400.00
02956              42.00    -8400.00
02957              48.00    -8600.00
02958              34.00    -8600.00
02959              40.00    -8800.00
02960              38.00    -9000.00
02961              38.00    -9000.00
02962              48.00    -9000.00
02963              42.00    -9200.00
02964              50.00    -9400.00
02965              50.00    -9400.00
02966              48.00    -9400.00
02967              50.00    -9400.00
02968              54.00    -9800.00
02969              48.00    -9800.00
02970              64.00   -10000.00
02971              64.00   -10000.00
02972              54.00   -10200.00
02973              62.00   -10200.00
02974              62.00   -10200.00
02975              62.00   -10200.00
02976              70.00   -10400.00
02977              70.00   -10600.00
02978              72.00   -10600.00
02979              74.00   -10600.00
02980              72.00   -10800.00
02981              78.00   -10800.00
02982              78.00   -10800.00
02983              78.00   -11000.00
02984              86.00   -11000.00
02985              88.00   -11000.00
02986              82.00   -11000.00
02987              86.00   -11200.00
02988              88.00   -11200.00
02989              90.00   -11400.00
02990              98.00   -11200.00
02991              96.00   -11200.00
02992             102.00   -11400.00
02993             104.00   -11400.00
02994             100.00   -11400.00
02995             106.00   -11400.00
02996             110.00   -11400.00
02997             112.00   -11600.00
02998             118.00   -11600.00
02999             116.00   -11400.00
03000             116.00   -11600.00
03001             122.00   -11400.00
03002             122.00   -11400.00
03003             134.00   -11400.00
03004             130.00   -11600.00
03005             128.00   -11400.00
03006             130.00   -11400.00
03007             136.00   -11400.00
03008             136.00   -11400.00
03009             144.00   -11400.00
03010             144.00   -11400.00
03011             146.00   -11200.00
03012             142.00   -11400.00
03013             138.00   -11200.00
03014             138.00   -11400.00
03015             138.00   -11400.00
03016             138.00   -11200.00
03017             140.00   -11000.00
03018             136.00   -11000.00
03019             132.00   -11000.00
03020             126.00   -11000.00
03021             126.00   -10800.00
03022             120.00   -10800.00
03023             122.00   -10800.00
03024             120.00   -10400.00
03025             118.00   -10400.00
03026             112.00   -10600.00
03027             106.00   -10200.00
03028             102.00   -10400.00
03029             102.00   -10200.00
03030             102.00   -10200.00
03031              96.00   -10200.00
03032              90.00   -10000.00
03033              86.00   -10000.00
03034              82.00    -9800.00
03035              82.00    -9800.00
03036              84.00    -9600.00
03037              82.00    -9400.00
03038              78.00    -9400.00
03039              70.00    -9400.00
03040              66.00    -9200.00
03041              64.00    -9000.00
03042              64.00    -9000.00
03043              64.00    -8800.00
03044              64.00    -8600.00
03045              62.00    -8400.00
03046              54.00    -8600.00
03047              50.00    -8400.00
03048              50.00    -8200.00
03049              50.00    -8200.00
03050              50.00    -7800.00
03051              48.00    -7800.00
03052              44.00    -7600.00
03053              40.00    -7600.00
03054              38.00    -7400.00
03055              38.00    -7400.00
03056              38.00    -7000.00
03057              38.00    -7000.00
03058              38.00    -6800.00
03059              34.00    -6600.00
03060              32.00    -6600.00
03061              30.00    -6200.00
03062              30.00    -6200.00
03063              28.00    -6000.00
03064              30.00    -6000.00
03065              24.00    -5800.00
03066              26.00    -5600.00
03067              22.00    -5400.00
03068              20.00    -5200.00
03069              18.00    -5000.00
03070              18.00    -5000.00
03071              16.00    -4600.00
03072              18.00    -4400.00
03073              16.00    -4200.00
03074              16.00    -4000.00
03075              14.00    -4000.00
03076              10.00    -3800.00
03077              14.00    -3600.00
03078              16.00    -3400.00
03079              14.00    -3200.00
03080              14.00    -3000.00
03081              10.00    -3000.00
03082               6.00    -2600.00
03083               2.00    -2400.00
03084               6.00    -2400.00
03085               8.00    -2200.00
03086               6.00    -2000.00
03087               4.00    -1800.00
03088               6.00    -1600.00
03089               4.00    -1400.00
03090               0.00    -1400.00
03091               2.00    -1000.00
03092               0.00    -1000.00
03093               0.00     -600.00
03094               0.00     -400.00
03095               0.00     -200.00
03096               0.00     -200.00
03097              -2.00      200.00
03098               0.00      200.00
03099               4.00      400.00
03100              20.00      600.00
03101              14.00      800.00
03102              -6.00     1000.00
03103              -8.00     1200.00
03104               2.00     1400.00
03105               6.00     1200.00
03106              18.00     1800.00
03107             158.00     2200.00
03108             218.00     2400.00
03109            -226.00     2400.00
03110            -254.00     2600.00
03111             -48.00     2600.00
03112              18.00     2800.00
03113             128.00     3000.00
03114             246.00     3400.00
03115            -254.00     3000.00
03116              -6.00     3800.00
03117             246.00     3800.00
03118            -246.00     3400.00
03119              -2.00     4400.00
03120             -26.00     4200.00
03121             -32.00     4200.00
03122             194.00     5400.00
03123            -244.00     4400.00
03124              -8.00     5000.00
03125              86.00     5400.00
03126            -110.00     4600.00
03127              48.00     5800.00
03128             -96.00     5800.00
03129              24.00     5600.00
03130               6.00     6200.00
03131             -74.00     6000.00
03132             -16.00     6200.00
03133             -48.00     6600.00
03134              -8.00     6600.00
03135             -36.00     6800.00
03136               8.00     7200.00
03137             -86.00     6800.00
03138             -32.00     7400.00
03139               8.00     7600.00
03140             -70.00     7400.00
03141               0.00     7800.00
03142             -64.00     7800.00
03143             -32.00     7800.00
03144             -20.00     8400.00
03145             -64.00     8400.00
03146             -48.00     8400.00
03147             -22.00     8800.00
03148             -54.00     8600.00
03149             -46.00     9000.00
03150             -34.00     9000.00
03151             -72.00     9000.00
03152             -38.00     9200.00
03153             -56.00     9200.00
03154             -52.00     9400.00
03155             -42.00     9400.00
03156             -50.00     9800.00
03157             -58.00     9800.00
03158             -58.00    10000.00
03159             -66.00     9800.00
03160             -58.00    10000.00
03161             -48.00    10200.00
03162             -70.00    10200.00
03163             -64.00    10400.00
03164             -66.00    10600.00
03165             -74.00    10600.00
03166             -66.00    10600.00
03167             -66.00    10600.00
03168             -72.00    10800.00
03169             -72.00    11000.00
03170             -80.00    11000.00
03171             -80.00    11000.00
03172             -84.00    11000.00
03173             -88.00    11200.00
03174             -82.00    11200.00
03175             -80.00    11400.00
03176             -88.00    11400.00
03177             -94.00    11400.00
03178             -96.00    11400.00
03179             -98.00    11600.00
03180             -96.00    11600.00
03181             -98.00    11400.00
03182             -98.00    11400.00
03183            -104.00    11600.00
03184            -112.00    11800.00
03185            -112.00    11600.00
03186            -108.00    11600.00
03187            -114.00    11600.00
03188            -114.00    11600.00
03189            -118.00    11800.00
03190            -124.00    11600.00
03191            -124.00    11600.00
03192            -128.00    11600.00
03193            -130.00    11800.00
03194            -130.00    11600.00
03195            -132.00    11800.00
03196            -136.00    11800.00
03197            -140.00    11800.00
03198            -144.00    11600.00
03199            -144.00    11800.00
03200            -144.00    11600.00
03201            -144.00    11600.00
03202            -146.00    11600.00
03203            -146.00    11600.00
03204            -148.00    11600.00
03205            -150.00    11400.00
03206            -150.00    11400.00
03207            -144.00    11400.00
03208            -142.00    11400.00
03209            -138.00    11400.00
03210            -138.00    11200.00
03211            -138.00    11200.00
03212            -138.00    11000.00
03213            -134.00    11000.00
03214            -130.00    11000.00
03215            -122.00    11000.00
03216            -120.00    10800.00
03217            -120.00    10800.00
03218            -120.00    10600.00
03219            -118.00    10600.00
03220            -110.00    10600.00
03221            -106.00    10600.00
03222             -98.00    10400.00
03223             -96.00    10200.00
03224             -96.00    10400.00
03225             -96.00    10200.00
03226             -96.00    10200.00
03227             -88.00    10000.00
03228             -82.00     9800.00
03229             -80.00     9800.00
03230             -80.00     9800.00
03231             -78.00     9600.00
03232             -74.00     9400.00
03233             -74.00     9200.00
03234             -72.00     9000.00
03235             -64.00     9000.00
03236             -64.00     9000.00
03237             -62.00     9000.00
03238             -62.00     8600.00
03239             -58.00     8400.00
03240             -62.00     8400.00
03241             -56.00     8200.00
03242             -52.00     8200.00
03243             -48.00     8200.00
03244             -50.00     7800.00
03245             -48.00     7800.00
03246             -50.00     7600.00
03247             -46.00     7400.00
03248             -42.00     7400.00
03249             -42.00     7400.00
03250             -40.00     7000.00
03251             -38.00     7000.00
03252             -40.00     6800.00
03253             -38.00     6600.00
03254             -38.00     6400.00
03255             -34.00     6200.00
03256             -32.00     6200.00
03257             -30.00     6000.00
03258             -32.00     5800.00
03259             -30.00     5400.00
03260             -32.00     5400.00
03261             -30.00     5200.00
03262             -28.00     5000.00
03263             -28.00     4800.00
03264             -26.00     4800.00
03265             -26.00     4400.00
03266             -26.00     4400.00
03267             -24.00     4200.00
03268             -22.00     3800.00
03269             -18.00     3800.00
03270             -22.00     3600.00
03271             -18.00     3400.00
03272             -18.00     3200.00
03273             -18.00     3000.00
03274             -16.00     2800.00
03275             -16.00     2800.00
03276             -16.00     2600.00
03277             -16.00     2600.00
03278             -16.00     2000.00
03279             -16.00     2000.00
03280             -14.00     1800.00
03281             -10.00     1600.00
03282             -10.00     1400.00
03283              -8.00     1200.00
03284             -12.00     1000.00
03285             -10.00      800.00
03286             -10.00      800.00
03287              -8.00      400.00
03288              -2.00      200.00
03289               0.00      200.00
03290               0.00     -200.00
03291              10.00     -200.00
03292              22.00     -400.00
03293              -2.00     -600.00
03294             -10.00     -800.00
03295               6.00    -1000.00
03296              14.00    -1200.00
03297               8.00    -1200.00
03298              26.00    -1600.00
03299             138.00    -1600.00
03300             198.00    -2000.00
03301            -160.00    -2200.00
03302            -254.00    -2400.00
03303             -20.00    -2600.00
03304             104.00    -2600.00
03305             -90.00    -2800.00
03306             158.00    -3000.00
03307             102.00    -3400.00
03308            -202.00    -3200.00
03309             174.00    -3400.00
03310              44.00    -4000.00
03311             -68.00    -3600.00
03312              46.00    -3800.00
03313             -38.00    -4400.00
03314             118.00    -4200.00
03315             -14.00    -4600.00
03316             -54.00    -5000.00
03317              48.00    -4600.00
03318               0.00    -5400.00
03319              72.00    -5400.00
03320             -24.00    -5200.00
03321               8.00    -6000.00
03322              66.00    -5800.00
03323              -4.00    -5800.00
03324              26.00    -6200.00
03325              14.00    -6200.00
03326              24.00    -6400.00
03327              22.00    -6800.00
03328              40.00    -6600.00
03329              16.00    -7000.00
03330               2.00    -7000.00
03331              56.00    -7400.00
03332              16.00    -7600.00
03333              38.00    -7600.00
03334              32.00    -7600.00
03335              16.00    -7800.00
03336              54.00    -7800.00
03337              26.00    -8200.00
03338              16.00    -8200.00
03339              42.00    -8200.00
03340              46.00    -8600.00
03341              34.00    -8600.00
03342              44.00    -8600.00
03343              38.00    -9000.00
03344              40.00    -9000.00
03345              48.00    -9000.00
03346              42.00    -9200.00
03347              50.00    -9200.00
03348              48.00    -9400.00
03349              46.00    -9400.00
03350              52.00    -9600.00
03351              54.00    -9800.00
03352              54.00    -9800.00
03353              66.00    -9800.00
03354              64.00   -10000.00
03355              54.00   -10200.00
03356              58.00   -10000.00
03357              58.00   -10200.00
03358              66.00   -10400.00
03359              70.00   -10200.00
03360              70.00   -10600.00
03361              72.00   -10400.00
03362              70.00   -10600.00
03363              70.00   -10800.00
03364              78.00   -10800.00
03365              82.00   -10800.00
03366              84.00   -10800.00
03367              80.00   -11000.00
03368              86.00   -11000.00
03369              86.00   -11000.00
03370              90.00   -11000.00
03371              88.00   -11200.00
03372              96.00   -11200.00
03373             100.00   -11200.00
03374             104.00   -11000.00
03375             102.00   -11400.00
03376              98.00   -11400.00
03377             102.00   -11400.00
03378             110.00   -11400.00
03379             120.00   -11400.00
03380             112.00   -11600.00
03381             112.00   -11400.00
03382             112.00   -11400.00
03383             126.00   -11400.00
03384             128.00   -11600.00
03385             122.00   -11600.00
03386             126.00   -11400.00
03387             130.00   -11600.00
03388             134.00   -11400.00
03389             138.00   -11400.00
03390             138.00   -11400.00
03391             142.00   -11400.00
03392             136.00   -11400.00
03393             130.00   -11400.00
03394             144.00   -11400.00
03395             152.00   -11400.00
03396             146.00   -11400.00
03397             142.00   -11400.00
03398             136.00   -11200.00
03399             138.00   -11000.00
03400             134.00   -11000.00
03401             128.00   -11200.00
03402             134.00   -11000.00
03403             136.00   -10800.00
03404             128.00   -10800.00
03405             118.00   -10800.00
03406             118.00   -10600.00
03407             112.00   -10400.00
03408             112.00   -10400.00
03409             114.00   -10400.00
03410             112.00   -10400.00
03411             108.00   -10400.00
03412              96.00   -10200.00
03413              94.00   -10000.00
03414              96.00   -10200.00
03415              94.00   -10000.00
03416              88.00    -9800.00
03417              86.00    -9800.00
03418              82.00    -9800.00
03419              82.00    -9400.00
03420              74.00    -9600.00
03421              72.00    -9400.00
03422              72.00    -9200.00
03423              70.00    -9200.00
03424              66.00    -9200.00
03425              68.00    -9000.00
03426              64.00    -9000.00
03427              62.00    -8600.00
03428              56.00    -8600.00
03429              52.00    -8600.00
03430              50.00    -8200.00
03431              50.00    -8200.00
03432              54.00    -8200.00
03433              52.00    -7800.00
03434              48.00    -7800.00
03435              40.00    -7600.00
03436              40.00    -7600.00
03437              40.00    -7400.00
03438              40.00    -7400.00
03439              40.00    -7000.00
03440              38.00    -6800.00
03441              34.00    -6800.00
03442              32.00    -6600.00
03443              32.00    -6600.00
03444              30.00    -6200.00
03445              32.00    -6000.00
03446              28.00    -6200.00
03447              28.00    -5800.00
03448              24.00    -5800.00
03449              22.00    -5400.00
03450              22.00    -5400.00
03451              20.00    -5200.00
03452              22.00    -5000.00
03453              24.00    -5000.00
03454              22.00    -4600.00
03455              16.00    -4400.00
03456              16.00    -4400.00
03457              14.00    -4000.00
03458              14.00    -4000.00
03459              14.00    -3800.00
03460              16.00    -3600.00
03461              14.00    -3400.00
03462              10.00    -3400.00
03463               8.00    -3000.00
03464               6.00    -2800.00
03465               8.00    -2800.00
03466              10.00    -2600.00
03467               8.00    -2200.00
03468               6.00    -2000.00
03469               2.00    -2000.00
03470               2.00    -1800.00
03471               4.00    -1600.00
03472               2.00    -1400.00
03473               2.00    -1200.00
03474               4.00    -1000.00
03475               2.00    -1000.00
03476               0.00     -600.00
03477              -2.00     -400.00
03478              -2.00     -200.00
03479              -2.00     -200.00
03480               0.00      200.00
03481               0.00      400.00
03482               2.00      600.00
03483              22.00      800.00
03484              10.00      800.00
03485              -6.00     1000.00
03486              -8.00     1200.00
03487               2.00     1200.00
03488               6.00     1400.00
03489              28.00     1800.00
03490             188.00     2000.00
03491             176.00     2400.00
03492            -254.00     2400.00
03493            -254.00     2600.00
03494              -4.00     2800.00
03495               2.00     2600.00
03496             194.00     3200.00
03497             198.00     3400.00
03498            -254.00     3000.00
03499             120.00     3800.00
03500             246.00     3800.00
03501            -254.00     3600.00
03502              48.00     4600.00
03503             -72.00     4000.00
03504              32.00     4200.00
03505             150.00     5200.00
03506            -254.00     4200.00
03507              56.00     5400.00
03508              34.00     5400.00
03509             -90.00     5000.00
03510              42.00     6000.00
03511            -102.00     5600.00
03512              50.00     5800.00
03513             -22.00     6400.00
03514             -62.00     6200.00
03515             -18.00     6400.00
03516             -40.00     7000.00
03517             -10.00     6600.00
03518             -30.00     6800.00
03519               4.00     7000.00
03520             -98.00     7000.00
03521             -10.00     7400.00
03522             -10.00     7400.00
03523             -62.00     7600.00
03524               0.00     7800.00
03525             -72.00     7800.00
03526             -18.00     8200.00
03527             -32.00     8400.00
03528             -64.00     8400.00
03529             -42.00     8400.00
03530             -22.00     8800.00
03531             -58.00     8600.00
03532             -38.00     9000.00
03533             -40.00     9000.00
03534             -66.00     9000.00
03535             -34.00     9200.00
03536             -56.00     9200.00
03537             -48.00     9400.00
03538             -46.00     9600.00
03539             -54.00     9800.00
03540             -62.00     9800.00
03541             -58.00    10000.00
03542             -70.00    10000.00
03543             -54.00    10000.00
03544             -48.00    10200.00
03545             -72.00    10200.00
03546             -64.00    10600.00
03547             -66.00    10600.00
03548             -74.00    10600.00
03549             -66.00    10600.00
03550             -70.00    10800.00
03551             -74.00    10800.00
03552             -70.00    10800.00
03553             -82.00    10800.00
03554             -80.00    11000.00
03555             -82.00    11000.00
03556             -90.00    11000.00
03557             -80.00    11000.00
03558             -80.00    11200.00
03559             -90.00    11400.00
03560             -94.00    11400.00
03561             -96.00    11400.00
03562             -98.00    11400.00
03563             -96.00    11400.00
03564             -98.00    11600.00
03565             -96.00    11600.00
03566            -102.00    11600.00
03567            -112.00    11600.00
03568            -114.00    11600.00
03569            -112.00    11800.00
03570            -112.00    11800.00
03571            -110.00    11600.00
03572            -118.00    11800.00
03573            -122.00    11600.00
03574            -128.00    11800.00
03575            -130.00    11800.00
03576            -130.00    11800.00
03577            -128.00    11800.00
03578            -130.00    11800.00
03579            -136.00    11600.00
03580            -140.00    11600.00
03581            -144.00    11600.00
03582            -146.00    11600.00
03583            -142.00    11600.00
03584            -144.00    11600.00
03585            -144.00    11600.00
03586            -148.00    11600.00
03587            -152.00    11400.00
03588            -150.00    11400.00
03589            -146.00    11400.00
03590            -144.00    11400.00
03591            -144.00    11400.00
03592            -142.00    11400.00
03593            -142.00    11400.00
03594            -138.00    11000.00
03595            -136.00    11200.00
03596            -130.00    11000.00
03597            -128.00    11000.00
03598            -126.00    11000.00
03599            -122.00    10800.00
03600            -120.00    11000.00
03601            -118.00    10600.00
03602            -112.00    10600.00
03603            -110.00    10600.00
03604            -106.00    10400.00
03605            -102.00    10200.00
03606            -102.00    10400.00
03607            -100.00    10200.00
03608             -94.00    10200.00
03609             -90.00    10000.00
03610             -88.00    10000.00
03611             -86.00     9800.00
03612             -82.00     9800.00
03613             -78.00     9800.00
03614             -80.00     9400.00
03615             -78.00     9400.00
03616             -72.00     9200.00
03617             -70.00     9200.00
03618             -66.00     9000.00
03619             -66.00     9000.00
03620             -64.00     8600.00
03621             -64.00     8600.00
03622             -62.00     8600.00
03623             -58.00     8400.00
03624             -54.00     8400.00
03625             -52.00     8000.00
03626             -54.00     8000.00
03627             -50.00     7800.00
03628             -48.00     7600.00
03629             -48.00     7600.00
03630             -46.00     7400.00
03631             -40.00     7400.00
03632             -42.00     7000.00
03633             -42.00     7000.00
03634             -38.00     6800.00
03635             -40.00     6600.00
03636             -38.00     6600.00
03637             -38.00     6400.00
03638             -32.00     6200.00
03639             -34.00     6200.00
03640             -34.00     5800.00
03641             -32.00     5800.00
03642             -32.00     5400.00
03643             -30.00     5200.00
03644             -26.00     5200.00
03645             -24.00     5000.00
03646             -26.00     5000.00
03647             -26.00     4600.00
03648             -26.00     4600.00
03649             -26.00     4200.00
03650             -24.00     4000.00
03651             -22.00     4000.00
03652             -22.00     3800.00
03653             -20.00     3600.00
03654             -18.00     3400.00
03655             -20.00     3400.00
03656             -18.00     3000.00
03657             -16.00     2800.00
03658             -16.00     2600.00
03659             -16.00     2600.00
03660             -14.00     2400.00
03661             -16.00     2000.00
03662             -14.00     2000.00
03663             -10.00     1800.00
03664             -10.00     1400.00
03665             -10.00     1400.00
03666             -10.00     1000.00
03667             -10.00     1000.00
03668             -10.00      800.00
03669             -10.00      600.00
03670              -8.00      400.00
03671              -4.00      200.00
03672              -2.00        0.00
03673              -2.00     -200.00
03674              16.00     -200.00
03675              18.00     -400.00
03676              -4.00     -600.00
03677              -8.00     -800.00
03678               2.00    -1200.00
03679              14.00    -1200.00
03680               4.00    -1400.00
03681              36.00    -1400.00
03682             166.00    -1800.00
03683             160.00    -2200.00
03684            -216.00    -2600.00
03685            -254.00    -2600.00
03686              26.00    -2600.00
03687              78.00    -2800.00
03688             -84.00    -2600.00
03689             204.00    -3000.00
03690              24.00    -3600.00
03691            -168.00    -3000.00
03692             202.00    -3600.00
03693              -6.00    -3800.00
03694             -40.00    -3800.00
03695              32.00    -4200.00
03696             -20.00    -4200.00
03697             122.00    -4000.00
03698             -42.00    -4600.00
03699             -34.00    -5000.00
03700              40.00    -4600.00
03701               6.00    -5400.00
03702              72.00    -5200.00
03703             -34.00    -5200.00
03704              30.00    -6000.00
03705              56.00    -5800.00
03706              -6.00    -6000.00
03707              30.00    -6200.00
03708              14.00    -6200.00
03709              30.00    -6600.00
03710              24.00    -6800.00
03711              46.00    -6800.00
03712               8.00    -7000.00
03713              10.00    -7200.00
03714              54.00    -7400.00
03715              16.00    -7400.00
03716              46.00    -7600.00
03717              28.00    -7600.00
03718              20.00    -8000.00
03719              56.00    -7800.00
03720              24.00    -8200.00
03721              26.00    -8400.00
03722              48.00    -8400.00
03723              40.00    -8600.00
03724              32.00    -8600.00
03725              42.00    -8600.00
03726              38.00    -9000.00
03727              48.00    -9000.00
03728              48.00    -9200.00
03729              40.00    -9200.00
03730              50.00    -9400.00
03731              46.00    -9400.00
03732              44.00    -9400.00
03733              56.00    -9600.00
03734              52.00    -9800.00
03735              56.00    -9800.00
03736              64.00    -9800.00
03737              54.00   -10000.00
03738              54.00   -10200.00
03739              62.00   -10200.00
03740              62.00   -10400.00
03741              68.00   -10400.00
03742              68.00   -10600.00
03743              66.00   -10600.00
03744              72.00   -10400.00
03745              72.00   -10800.00
03746              74.00   -10800.00
03747              74.00   -10800.00
03748              76.00   -10800.00
03749              80.00   -11000.00
03750              86.00   -11000.00
03751              86.00   -11000.00
03752              86.00   -11000.00
03753              88.00   -11000.00
03754              90.00   -11200.00
03755              96.00   -11200.00
03756             102.00   -11400.00
03757             102.00   -11400.00
03758             102.00   -11400.00
03759              98.00   -11400.00
03760             102.00   -11400.00
03761             106.00   -11400.00
03762             114.00   -11400.00
03763             118.00   -11400.00
03764             118.00   -11400.00
03765             118.00   -11400.00
03766             118.00   -11400.00
03767             120.00   -11400.00
03768             128.00   -11400.00
03769             130.00   -11400.00
03770             134.00   -11400.00
03771             134.00   -11600.00
03772             134.00   -11400.00
03773             138.00   -11400.00
03774             142.00   -11400.00
03775             144.00   -11400.00
03776             144.00   -11400.00
03777             142.00   -11400.00
03778             142.00   -11400.00
03779             142.00   -11200.00
03780             140.00   -11400.00
03781             138.00   -11200.00
03782             136.00   -11000.00
03783             136.00   -11000.00
03784             132.00   -11000.00
03785             128.00   -11000.00
03786             128.00   -10800.00
03787             126.00   -10800.00
03788             120.00   -10800.00
03789             118.00   -10600.00
03790             118.00   -10600.00
03791             112.00   -10600.00
03792             110.00   -10400.00
03793             104.00   -10400.00
03794             104.00   -10400.00
03795              98.00   -10200.00
03796              96.00   -10200.00
03797              94.00   -10200.00
03798              90.00   -10000.00
03799              88.00   -10000.00
03800              82.00    -9800.00
03801              80.00    -9800.00
03802              78.00    -9600.00
03803              74.00    -9400.00
03804              72.00    -9400.00
03805              70.00    -9400.00
03806              66.00    -9200.00
03807              64.00    -9000.00
03808              64.00    -9000.00
03809              62.00    -8600.00
03810              58.00    -8600.00
03811              58.00    -8600.00
03812              54.00    -8400.00
03813              52.00    -8400.00
03814              48.00    -8200.00
03815              48.00    -8200.00
03816              48.00    -7800.00
03817              46.00    -7800.00
03818              44.00    -7600.00
03819              42.00    -7600.00
03820              38.00    -7400.00
03821              38.00    -7400.00
03822              38.00    -7000.00
03823              38.00    -7000.00
03824              34.00    -6800.00
03825              32.00    -6600.00
03826              32.00    -6600.00
03827              30.00    -6200.00
03828              30.00    -6000.00
03829              32.00    -6000.00
03830              26.00    -5800.00
03831              26.00    -5600.00
03832              24.00    -5400.00
03833              22.00    -5400.00
03834              22.00    -5200.00
03835              22.00    -5000.00
03836              22.00    -5000.00
03837              22.00    -4600.00
03838              18.00    -4400.00
03839              18.00    -4200.00
03840              14.00    -4000.00
03841              16.00    -4000.00
03842              14.00    -3600.00
03843              16.00    -3800.00
03844              14.00    -3400.00
03845              14.00    -3200.00
03846               8.00    -3000.00
03847               6.00    -2800.00
03848               6.00    -2800.00
03849              10.00    -2600.00
03850              10.00    -2400.00
03851               2.00    -2000.00
03852               2.00    -2000.00
03853               8.00    -1800.00
03854               6.00    -1600.00
03855              -4.00    -1400.00
03856               6.00    -1200.00
03857               6.00    -1000.00
03858               0.00    -1000.00
03859              -2.00     -600.00
03860              -2.00     -400.00
03861              -2.00     -200.00
03862              -6.00     -200.00
03863               2.00      200.00
03864               8.00      200.00
03865               6.00      600.00
03866              18.00      600.00
03867               2.00      800.00
03868             -10.00     1000.00
03869              -4.00     1200.00
03870               8.00     1400.00
03871               6.00     1600.00
03872              42.00     1800.00
03873             216.00     2000.00
03874             112.00     2400.00
03875            -254.00     2400.00
03876            -254.00     2600.00
03877              34.00     2800.00
03878             -16.00     2800.00
03879             246.00     3400.00
03880              90.00     3400.00
03881            -254.00     3000.00
03882             238.00     4200.00
03883             172.00     3800.00
03884            -254.00     3600.00
03885              74.00     4600.00
03886            -108.00     3800.00
03887             102.00     4400.00
03888              88.00     5000.00
03889            -254.00     4400.00
03890             108.00     5400.00
03891             -16.00     5200.00
03892             -58.00     5000.00
03893              26.00     6000.00
03894             -96.00     5400.00
03895              70.00     5800.00
03896             -44.00     6600.00
03897             -48.00     6000.00
03898             -30.00     6400.00
03899             -32.00     6600.00
03900             -14.00     6600.00
03901             -22.00     7000.00
03902              -4.00     7000.00
03903             -98.00     7000.00
03904              14.00     7400.00
03905             -28.00     7600.00
03906             -46.00     7600.00
03907              -8.00     7800.00
03908             -74.00     7800.00
03909             -14.00     8000.00
03910             -38.00     8400.00
03911             -62.00     8400.00
03912             -34.00     8400.00
03913             -26.00     8800.00
03914             -58.00     8600.00
03915             -32.00     9000.00
03916             -46.00     9000.00
03917             -62.00     9000.00
03918             -32.00     9200.00
03919             -62.00     9200.00
03920             -48.00     9400.00
03921             -50.00     9600.00
03922             -58.00     9800.00
03923             -58.00     9800.00
03924             -58.00    10000.00
03925             -70.00     9800.00
03926             -48.00    10000.00
03927             -54.00    10200.00
03928             -74.00    10200.00
03929             -62.00    10400.00
03930             -72.00    10600.00
03931             -72.00    10400.00
03932             -66.00    10600.00
03933             -74.00    10600.00
03934             -72.00    10800.00
03935             -72.00    10800.00
03936             -82.00    11000.00
03937             -78.00    11000.00
03938             -82.00    11000.00
03939             -88.00    11000.00
03940             -80.00    11000.00
03941             -82.00    11200.00
03942             -90.00    11400.00
03943             -96.00    11400.00
03944             -96.00    11400.00
03945            -100.00    11400.00
03946             -94.00    11400.00
03947             -98.00    11600.00
03948             -98.00    11600.00
03949            -104.00    11600.00
03950            -112.00    11600.00
03951            -110.00    11800.00
03952            -112.00    11600.00
03953            -112.00    11800.00
03954            -114.00    11800.00
03955            -120.00    11600.00
03956            -122.00    11800.00
03957            -128.00    11800.00
03958            -130.00    11800.00
03959            -130.00    11800.00
03960            -130.00    11600.00
03961            -130.00    11600.00
03962            -136.00    11800.00
03963            -138.00    11600.00
03964            -144.00    11800.00
03965            -144.00    11600.00
03966            -146.00    11600.00
03967            -144.00    11400.00
03968            -144.00    11600.00
03969            -146.00    11600.00
03970            -152.00    11600.00
03971            -152.00    11400.00
03972            -146.00    11400.00
03973            -142.00    11400.00
03974            -138.00    11400.00
03975            -138.00    11400.00
03976            -140.00    11400.00
03977            -142.00    11400.00
03978            -138.00    11200.00
03979            -130.00    11000.00
03980            -126.00    11000.00
03981            -122.00    11000.00
03982            -122.00    11000.00
03983            -122.00    11000.00
03984            -116.00    10600.00
03985            -114.00    10800.00
03986            -112.00    10600.00
03987            -104.00    10600.00
03988            -102.00    10400.00
03989            -100.00    10400.00
03990             -98.00    10200.00
03991             -96.00    10200.00
03992             -92.00    10000.00
03993             -88.00    10000.00
03994             -82.00     9800.00
03995             -80.00     9800.00
03996             -80.00     9600.00
03997             -80.00     9600.00
03998             -78.00     9200.00
03999             -74.00     9200.00
04000             -66.00     9000.00
04001             -66.00     9000.00
04002             -66.00     9000.00
04003             -64.00     8600.00
04004             -64.00     8600.00
04005             -60.00     8600.00
04006             -56.00     8200.00
04007             -50.00     8200.00
04008             -52.00     8000.00
04009             -50.00     8000.00
04010             -54.00     7800.00
04011             -48.00     7600.00
04012             -48.00     7600.00
04013             -42.00     7400.00
04014             -38.00     7200.00
04015             -42.00     7000.00
04016             -44.00     7000.00
04017             -40.00     6800.00
04018             -38.00     6600.00
04019             -38.00     6600.00
04020             -36.00     6400.00
04021             -32.00     6200.00
04022             -32.00     6200.00
04023             -32.00     5800.00
04024             -34.00     5600.00
04025             -30.00     5400.00
04026             -26.00     5400.00
04027             -22.00     5000.00
04028             -22.00     5000.00
04029             -26.00     4600.00
04030             -32.00     4800.00
04031             -32.00     4400.00
04032             -26.00     4200.00
04033             -18.00     4200.00
04034             -10.00     4000.00
04035             -14.00     3800.00
04036             -18.00     3600.00
04037             -24.00     3400.00
04038             -26.00     3400.00
04039             -18.00     2800.00
04040             -14.00     3000.00
04041             -10.00     2600.00
04042             -10.00     2400.00
04043             -16.00     2200.00
04044             -20.00     2000.00
04045             -16.00     1800.00
04046             -14.00     1600.00
04047             -10.00     1400.00
04048              -8.00     1200.00
04049              -2.00     1200.00
04050              -8.00     1000.00
04051             -10.00      600.00
04052             -14.00      600.00
04053             -10.00      400.00
04054              -6.00      200.00
04055               2.00        0.00
04056               8.00        0.00
04057              22.00     -400.00
04058              10.00     -400.00
04059             -10.00     -600.00
04060             -10.00    -1000.00
04061               8.00    -1200.00
04062              14.00    -1200.00
04063               8.00    -1200.00
04064              50.00    -1400.00
04065             186.00    -1800.00
04066             114.00    -2200.00
04067            -254.00    -2200.00
04068            -248.00    -2600.00
04069              70.00    -2600.00
04070              48.00    -2800.00
04071             -62.00    -2800.00
04072             232.00    -3000.00
04073             -56.00    -3400.00
04074            -114.00    -3000.00
04075             208.00    -3800.00
04076             -46.00    -3800.00
04077             -10.00    -3800.00
04078              16.00    -4200.00
04079               2.00    -4400.00
04080             118.00    -4000.00
04081             -66.00    -4800.00
04082             -14.00    -4800.00
04083              30.00    -4800.00
04084              16.00    -5400.00
04085              64.00    -5200.00
04086             -42.00    -5400.00
04087              48.00    -6000.00
04088              42.00    -5800.00
04089               0.00    -6000.00
04090              30.00    -6200.00
04091              12.00    -6200.00
04092              32.00    -6600.00
04093              28.00    -6800.00
04094              48.00    -6800.00
04095               0.00    -7000.00
04096              22.00    -7200.00
04097              48.00    -7200.00
04098              18.00    -7400.00
04099              48.00    -7600.00
04100              24.00    -7600.00
04101              30.00    -7800.00
04102              54.00    -7800.00
04103              18.00    -8200.00
04104              22.00    -8400.00
04105              54.00    -8400.00
04106              40.00    -8600.00
04107              32.00    -8600.00
04108              40.00    -8600.00
04109              38.00    -9000.00
04110              44.00    -9000.00
04111              48.00    -9200.00
04112              46.00    -9200.00
04113              56.00    -9400.00
04114              50.00    -9400.00
04115              46.00    -9400.00
04116              50.00    -9600.00
04117              48.00    -9800.00
04118              54.00    -9800.00
04119              66.00    -9800.00
04120              56.00   -10000.00
04121              58.00   -10000.00
04122              62.00   -10200.00
04123              58.00   -10200.00
04124              64.00   -10200.00
04125              64.00   -10600.00
04126              72.00   -10400.00
04127              74.00   -10600.00
04128              72.00   -10600.00
04129              72.00   -10800.00
04130              72.00   -10800.00
04131              74.00   -10800.00
04132              80.00   -10800.00
04133              88.00   -11000.00
04134              86.00   -11000.00
04135              82.00   -11000.00
04136              90.00   -11000.00
04137              90.00   -11000.00
04138              96.00   -11200.00
04139              94.00   -11400.00
04140              96.00   -11400.00
04141             102.00   -11400.00
04142             102.00   -11400.00
04143             104.00   -11400.00
04144             110.00   -11400.00
04145             114.00   -11400.00
04146             116.00   -11400.00
04147             118.00   -11400.00
04148             118.00   -11600.00
04149             120.00   -11400.00
04150             122.00   -11400.00
04151             128.00   -11400.00
04152             134.00   -11400.00
04153             130.00   -11400.00
04154             134.00   -11400.00
04155             134.00   -11400.00
04156             136.00   -11400.00
04157             136.00   -11400.00
04158             144.00   -11400.00
04159             146.00   -11400.00
04160             144.00   -11400.00
04161             142.00   -11400.00
04162             142.00   -11400.00
04163             138.00   -11000.00
04164             136.00   -11000.00
04165             138.00   -11000.00
04166             142.00   -11000.00
04167             136.00   -11000.00
04168             128.00   -11000.00
04169             126.00   -10800.00
04170             122.00   -10800.00
04171             122.00   -10800.00
04172             120.00   -10600.00
04173             118.00   -10600.00
04174             112.00   -10400.00
04175             108.00   -10400.00
04176             102.00   -10400.00
04177             100.00   -10200.00
04178             100.00   -10200.00
04179             102.00   -10200.00
04180             100.00   -10000.00
04181              94.00   -10000.00
04182              80.00    -9800.00
04183              80.00    -9800.00
04184              78.00    -9600.00
04185              78.00    -9600.00
04186              74.00    -9400.00
04187              74.00    -9400.00
04188              70.00    -9200.00
04189              66.00    -9200.00
04190              64.00    -9000.00
04191              62.00    -9000.00
04192              62.00    -8600.00
04193              58.00    -8600.00
04194              56.00    -8600.00
04195              54.00    -8600.00
04196              50.00    -8200.00
04197              50.00    -8200.00
04198              46.00    -7800.00
04199              46.00    -7800.00
04200              48.00    -7600.00
04201              46.00    -7600.00
04202              40.00    -7400.00
04203              38.00    -7400.00
04204              38.00    -7200.00
04205              34.00    -7000.00
04206              32.00    -7000.00
04207              32.00    -6600.00
04208              34.00    -6600.00
04209              32.00    -6600.00
04210              32.00    -6200.00
04211              30.00    -6200.00
04212              30.00    -6000.00
04213              26.00    -5800.00
04214              24.00    -5600.00
04215              22.00    -5400.00
04216              22.00    -5200.00
04217              22.00    -5200.00
04218              20.00    -5000.00
04219              22.00    -4600.00
04220              22.00    -4600.00
04221              16.00    -4400.00
04222              16.00    -4000.00
04223              16.00    -4000.00
04224              16.00    -3800.00
04225              14.00    -3600.00
04226              14.00    -3600.00
04227              12.00    -3400.00
04228              14.00    -3200.00
04229              10.00    -3000.00
04230              10.00    -2800.00
04231              10.00    -2600.00
04232              10.00    -2200.00
04233               8.00    -2200.00
04234               8.00    -2000.00
04235               6.00    -1800.00
04236               2.00    -1800.00
04237               2.00    -1400.00
04238               2.00    -1400.00
04239               6.00    -1200.00
04240               2.00    -1000.00
04241               0.00     -600.00
04242               0.00     -600.00
04243              -2.00     -400.00
04244               0.00     -200.00
04245               0.00     -200.00
04246               0.00      200.00
04247               0.00      400.00
04248               8.00      600.00
04249              22.00      600.00
04250               0.00      600.00
04251             -10.00     1000.00
04252              -2.00     1200.00
04253               6.00     1400.00
04254               2.00     1600.00
04255              58.00     1800.00
04256             240.00     2000.00
04257              46.00     2400.00
04258            -254.00     2400.00
04259            -244.00     2800.00
04260              50.00     2600.00
04261             -10.00     2800.00
04262             246.00     3400.00
04263             -32.00     3400.00
04264            -254.00     3200.00
04265             246.00     4200.00
04266              64.00     3600.00
04267            -226.00     4200.00
04268              86.00     4600.00
04269            -130.00     3800.00
04270             158.00     4600.00
04271               6.00     5000.00
04272            -240.00     4400.00
04273             138.00     5400.00
04274             -58.00     5000.00
04275             -24.00     5200.00
04276               0.00     6200.00
04277             -80.00     5400.00
04278              74.00     6000.00
04279             -66.00     6400.00
04280             -32.00     6200.00
04281             -34.00     6600.00
04282             -24.00     6800.00
04283             -22.00     6600.00
04284             -14.00     7000.00
04285             -22.00     7200.00
04286             -94.00     7000.00
04287              22.00     7600.00
04288             -46.00     7600.00
04289             -32.00     7600.00
04290             -18.00     7800.00
04291             -70.00     7800.00
04292              -6.00     8200.00
04293             -48.00     8400.00
04294             -64.00     8200.00
04295             -30.00     8400.00
04296             -30.00     8800.00
04297             -58.00     8600.00
04298             -24.00     9000.00
04299             -52.00     9000.00
04300             -56.00     9000.00
04301             -38.00     9400.00
04302             -62.00     9400.00
04303             -44.00     9400.00
04304             -48.00     9400.00
04305             -58.00     9800.00
04306             -62.00     9800.00
04307             -62.00    10000.00
04308             -72.00    10000.00
04309             -48.00    10200.00
04310             -56.00    10200.00
04311             -70.00    10200.00
04312             -62.00    10400.00
04313             -74.00    10600.00
04314             -74.00    10600.00
04315             -66.00    10600.00
04316             -74.00    10800.00
04317             -70.00    11000.00
04318             -72.00    10800.00
04319             -82.00    11000.00
04320             -80.00    11000.00
04321             -86.00    11000.00
04322             -88.00    11000.00
04323             -82.00    11200.00
04324             -86.00    11200.00
04325             -90.00    11400.00
04326             -94.00    11400.00
04327             -98.00    11400.00
04328             -98.00    11400.00
04329             -96.00    11400.00
04330             -98.00    11600.00
04331             -98.00    11600.00
04332            -106.00    11600.00
04333            -112.00    11600.00
04334            -112.00    11600.00
04335            -114.00    11600.00
04336            -116.00    11800.00
04337            -116.00    11800.00
04338            -120.00    11600.00
04339            -122.00    11800.00
04340            -126.00    11800.00
04341            -130.00    11800.00
04342            -130.00    11800.00
04343            -130.00    11800.00
04344            -134.00    11600.00
04345            -138.00    11800.00
04346            -142.00    11800.00
04347            -146.00    11600.00
04348            -144.00    11600.00
04349            -144.00    11600.00
04350            -148.00    11600.00
04351            -144.00    11600.00
04352            -146.00    11600.00
04353            -150.00    11600.00
04354            -148.00    11600.00
04355            -146.00    11400.00
04356            -142.00    11400.00
04357            -144.00    11200.00
04358            -142.00    11400.00
04359            -138.00    11200.00
04360            -138.00    11400.00
04361            -134.00    11000.00
04362            -128.00    11000.00
04363            -124.00    11000.00
04364            -120.00    10800.00
04365            -120.00    11000.00
04366            -118.00    10800.00
04367            -118.00    10800.00
04368            -112.00    10800.00
04369            -108.00    10600.00
04370            -104.00    10400.00
04371            -102.00    10200.00
04372            -102.00    10200.00
04373            -102.00    10200.00
04374             -94.00    10000.00
04375             -90.00    10000.00
04376             -82.00     9800.00
04377             -82.00     9800.00
04378             -86.00     9800.00
04379             -82.00     9600.00
04380             -80.00     9400.00
04381             -74.00     9400.00
04382             -70.00     9200.00
04383             -66.00     9000.00
04384             -70.00     9000.00
04385             -66.00     8800.00
04386             -66.00     8800.00
04387             -62.00     8600.00
04388             -58.00     8400.00
04389             -56.00     8400.00
04390             -56.00     8200.00
04391             -54.00     8000.00
04392             -54.00     7800.00
04393             -54.00     7800.00
04394             -48.00     7800.00
04395             -46.00     7400.00
04396             -42.00     7400.00
04397             -42.00     7200.00
04398             -44.00     7000.00
04399             -40.00     7000.00
04400             -42.00     6800.00
04401             -40.00     6600.00
04402             -38.00     6600.00
04403             -34.00     6200.00
04404             -34.00     6200.00
04405             -32.00     6000.00
04406             -34.00     5800.00
04407             -32.00     5600.00
04408             -30.00     5400.00
04409             -24.00     5200.00
04410             -26.00     5000.00
04411             -24.00     5000.00
04412             -24.00     4800.00
04413             -26.00     4600.00
04414             -26.00     4400.00
04415             -26.00     4200.00
04416             -18.00     4000.00
04417             -14.00     3800.00
04418             -16.00     3600.00
04419             -22.00     3400.00
04420             -22.00     3400.00
04421             -20.00     3000.00
04422             -16.00     3000.00
04423             -14.00     2800.00
04424             -10.00     2600.00
04425              -8.00     2400.00
04426             -10.00     2200.00
04427             -18.00     2000.00
04428             -18.00     1800.00
04429             -16.00     1800.00
04430              -6.00     1400.00
04431               2.00     1200.00
04432              -6.00     1200.00
04433             -18.00     1000.00
04434             -16.00      600.00
04435              -2.00      600.00
04436               0.00      400.00
04437              -6.00      200.00
04438              -6.00        0.00
04439               6.00        0.00
04440              22.00     -400.00
04441               6.00     -600.00
04442             -10.00     -600.00
04443              -2.00     -800.00
04444              14.00    -1200.00
04445               8.00    -1200.00
04446               8.00    -1400.00
04447              64.00    -1400.00
04448             206.00    -1800.00
04449              62.00    -2200.00
04450            -254.00    -2600.00
04451            -202.00    -2600.00
04452             100.00    -2600.00
04453               6.00    -2800.00
04454             -26.00    -2600.00
04455             244.00    -3200.00
04456            -130.00    -3400.00
04457             -48.00    -3000.00
04458             194.00    -3800.00
04459             -78.00    -3600.00
04460              14.00    -3800.00
04461              -6.00    -4400.00
04462              36.00    -4400.00
04463             102.00    -4400.00
04464             -84.00    -5000.00
04465               6.00    -5000.00
04466              18.00    -4800.00
04467              30.00    -5400.00
04468              54.00    -5200.00
04469             -40.00    -5400.00
04470              64.00    -6000.00
04471              26.00    -5600.00
04472               2.00    -6200.00
04473              26.00    -6200.00
04474              18.00    -6200.00
04475              34.00    -6600.00
04476              32.00    -6600.00
04477              42.00    -6800.00
04478             -10.00    -7000.00
04479              30.00    -7200.00
04480              40.00    -7400.00
04481              22.00    -7600.00
04482              54.00    -7600.00
04483              22.00    -7800.00
04484              38.00    -8000.00
04485              42.00    -8000.00
04486              14.00    -8200.00
04487              30.00    -8200.00
04488              52.00    -8400.00
04489              40.00    -8600.00
04490              40.00    -8600.00
04491              42.00    -8800.00
04492              38.00    -9000.00
04493              46.00    -9000.00
04494              48.00    -9200.00
04495              46.00    -9200.00
04496              54.00    -9200.00
04497              50.00    -9400.00
04498              48.00    -9400.00
04499              54.00    -9600.00
04500              46.00    -9800.00
04501              56.00   -10000.00
04502              68.00    -9800.00
04503              58.00   -10200.00
04504              58.00   -10000.00
04505              62.00   -10200.00
04506              56.00   -10200.00
04507              64.00   -10400.00
04508              66.00   -10400.00
04509              72.00   -10600.00
04510              74.00   -10600.00
04511              72.00   -10800.00
04512              70.00   -10800.00
04513              76.00   -10800.00
04514              78.00   -10800.00
04515              80.00   -11000.00
04516              86.00   -11000.00
04517              84.00   -11000.00
04518              82.00   -11000.00
04519              88.00   -11200.00
04520              88.00   -11200.00
04521              96.00   -11400.00
04522              96.00   -11400.00
04523             102.00   -11400.00
04524             102.00   -11400.00
04525             100.00   -11400.00
04526             102.00   -11400.00
04527             110.00   -11400.00
04528             112.00   -11400.00
04529             114.00   -11400.00
04530             118.00   -11400.00
04531             120.00   -11600.00
04532             120.00   -11400.00
04533             124.00   -11400.00
04534             128.00   -11400.00
04535             130.00   -11400.00
04536             132.00   -11600.00
04537             134.00   -11400.00
04538             136.00   -11400.00
04539             136.00   -11400.00
04540             142.00   -11400.00
04541             144.00   -11400.00
04542             144.00   -11200.00
04543             142.00   -11400.00
04544             142.00   -11400.00
04545             142.00   -11000.00
04546             140.00   -11000.00
04547             142.00   -11000.00
04548             138.00   -11000.00
04549             136.00   -11000.00
04550             134.00   -11000.00
04551             128.00   -11000.00
04552             128.00   -10800.00
04553             124.00   -10800.00
04554             122.00   -10800.00
04555             120.00   -10600.00
04556             118.00   -10600.00
04557             112.00   -10400.00
04558             106.00   -10400.00
04559             102.00   -10200.00
04560             102.00   -10200.00
04561              98.00   -10200.00
04562              98.00   -10200.00
04563              94.00   -10200.00
04564              90.00   -10000.00
04565              82.00   -10000.00
04566              80.00    -9800.00
04567              80.00    -9600.00
04568              78.00    -9600.00
04569              80.00    -9400.00
04570              74.00    -9400.00
04571              70.00    -9200.00
04572              64.00    -9200.00
04573              62.00    -9000.00
04574              64.00    -9000.00
04575              62.00    -8800.00
04576              58.00    -8600.00
04577              58.00    -8600.00
04578              50.00    -8400.00
04579              50.00    -8200.00
04580              46.00    -8200.00
04581              48.00    -8200.00
04582              48.00    -7800.00
04583              46.00    -7600.00
04584              42.00    -7600.00
04585              40.00    -7600.00
04586              38.00    -7400.00
04587              38.00    -7400.00
04588              34.00    -6800.00
04589              38.00    -6800.00
04590              32.00    -6800.00
04591              32.00    -6600.00
04592              32.00    -6400.00
04593              30.00    -6200.00
04594              30.00    -6000.00
04595              30.00    -6000.00
04596              28.00    -5800.00
04597              26.00    -5600.00
04598              22.00    -5400.00
04599              20.00    -5200.00
04600              22.00    -5200.00
04601              18.00    -5000.00
04602              22.00    -4600.00
04603              20.00    -4400.00
04604              18.00    -4400.00
04605              18.00    -4400.00
04606              16.00    -4000.00
04607              16.00    -3800.00
04608              16.00    -3600.00
04609              14.00    -3400.00
04610              16.00    -3400.00
04611              14.00    -3200.00
04612               8.00    -3000.00
04613               8.00    -2800.00
04614              10.00    -2600.00
04615              10.00    -2600.00
04616               8.00    -2200.00
04617               6.00    -2000.00
04618               6.00    -1800.00
04619               6.00    -1800.00
04620               2.00    -1400.00
04621               6.00    -1400.00
04622               6.00    -1200.00
04623               2.00    -1000.00
04624               0.00     -800.00
04625               0.00     -600.00
04626               0.00     -400.00
04627               0.00     -200.00
04628               0.00        0.00
04629               2.00      200.00
04630               0.00      400.00
04631              10.00      400.00
04632              20.00      600.00
04633              -2.00      800.00
04634              -8.00     1000.00
04635               0.00     1200.00
04636               8.00     1200.00
04637               6.00     1600.00
04638              80.00     1800.00
04639             246.00     2400.00
04640             -32.00     2400.00
04641            -254.00     2400.00
04642            -190.00     2600.00
04643              54.00     2600.00
04644               6.00     2800.00
04645             246.00     3400.00
04646            -160.00     3000.00
04647            -254.00     3400.00
04648             246.00     4000.00
04649             -48.00     3400.00
04650            -172.00     4200.00
04651              74.00     4400.00
04652            -130.00     3800.00
04653             198.00     5000.00
04654             -80.00     4600.00
04655            -188.00     4400.00
04656             146.00     5800.00
04657             -92.00     4800.00
04658               8.00     5200.00
04659             -32.00     6000.00
04660             -56.00     5400.00
04661              64.00     6200.00
04662             -78.00     6200.00
04663             -22.00     6000.00
04664             -42.00     6600.00
04665             -18.00     6600.00
04666             -32.00     6600.00
04667              -2.00     7000.00
04668             -38.00     7000.00
04669             -82.00     7000.00
04670              26.00     7400.00
04671             -58.00     7400.00
04672             -18.00     7600.00
04673             -32.00     8200.00
04674             -62.00     7800.00
04675              -6.00     8200.00
04676             -56.00     8400.00
04677             -58.00     8400.00
04678             -28.00     8800.00
04679             -34.00     8800.00
04680             -50.00     8800.00
04681             -18.00     9000.00
04682             -58.00     9000.00
04683             -48.00     9200.00
04684             -42.00     9200.00
04685             -62.00     9400.00
04686             -46.00     9400.00
04687             -56.00     9600.00
04688             -58.00     9800.00
04689             -58.00     9800.00
04690             -58.00    10000.00
04691             -62.00    10000.00
04692             -34.00    10200.00
04693             -56.00    10000.00
04694             -66.00    10200.00
04695             -64.00    10400.00
04696             -80.00    10400.00
04697             -78.00    10600.00
04698             -74.00    10600.00
04699             -74.00    10600.00
04700             -70.00    10800.00
04701             -72.00    11000.00
04702             -78.00    10800.00
04703             -74.00    11000.00
04704             -86.00    11000.00
04705             -88.00    11000.00
04706             -86.00    11200.00
04707             -96.00    11200.00
04708             -96.00    11200.00
04709             -96.00    11400.00
04710             -96.00    11600.00
04711             -96.00    11400.00
04712             -90.00    11600.00
04713             -98.00    11600.00
04714            -102.00    11600.00
04715            -108.00    11600.00
04716            -114.00    11600.00
04717            -114.00    11600.00
04718            -116.00    11600.00
04719            -118.00    11600.00
04720            -114.00    11800.00
04721            -120.00    11600.00
04722            -122.00    11600.00
04723            -122.00    11800.00
04724            -128.00    11600.00
04725            -130.00    11800.00
04726            -134.00    11600.00
04727            -138.00    11600.00
04728            -144.00    11800.00
04729            -144.00    11800.00
04730            -146.00    11600.00
04731            -144.00    11800.00
04732            -142.00    11600.00
04733            -144.00    11600.00
04734            -144.00    11600.00
04735            -152.00    11600.00
04736            -154.00    11600.00
04737            -150.00    11400.00
04738            -146.00    11400.00
04739            -142.00    11400.00
04740            -138.00    11400.00
04741            -138.00    11400.00
04742            -136.00    11400.00
04743            -136.00    11200.00
04744            -134.00    11000.00
04745            -128.00    11000.00
04746            -128.00    11000.00
04747            -122.00    11000.00
04748            -120.00    10800.00
04749            -120.00    10800.00
04750            -114.00    10800.00
04751            -110.00    10600.00
04752            -106.00    10800.00
04753            -102.00    10600.00
04754            -104.00    10400.00
04755             -98.00    10200.00
04756             -92.00    10200.00
04757             -94.00    10000.00
04758             -94.00    10000.00
04759             -86.00     9800.00
04760             -80.00     9800.00
04761             -78.00     9600.00
04762             -80.00     9600.00
04763             -82.00     9400.00
04764             -72.00     9400.00
04765             -70.00     9200.00
04766             -72.00     9200.00
04767             -72.00     9000.00
04768             -64.00     9000.00
04769             -62.00     8800.00
04770             -62.00     8600.00
04771             -58.00     8600.00
04772             -54.00     8400.00
04773             -54.00     8200.00
04774             -56.00     8000.00
04775             -56.00     8200.00
04776             -52.00     7800.00
04777             -48.00     7800.00
04778             -48.00     7400.00
04779             -42.00     7400.00
04780             -38.00     7200.00
04781             -42.00     7000.00
04782             -46.00     7000.00
04783             -42.00     6800.00
04784             -40.00     6600.00
04785             -38.00     6600.00
04786             -34.00     6200.00
04787             -32.00     6200.00
04788             -30.00     6000.00
04789             -34.00     5600.00
04790             -32.00     5600.00
04791             -32.00     5400.00
04792             -24.00     5400.00
04793             -26.00     5200.00
04794             -26.00     5000.00
04795             -26.00     4800.00
04796             -26.00     4400.00
04797             -26.00     4400.00
04798             -24.00     4200.00
04799             -18.00     4200.00
04800             -16.00     3800.00
04801             -18.00     3800.00
04802             -22.00     3600.00
04803             -20.00     3400.00
04804             -16.00     3400.00
04805             -16.00     3000.00
04806             -14.00     2800.00
04807             -14.00     2600.00
04808             -14.00     2400.00
04809             -12.00     2200.00
04810             -12.00     2000.00
04811             -10.00     2000.00
04812             -10.00     1600.00
04813             -10.00     1400.00
04814              -8.00     1200.00
04815             -10.00     1000.00
04816              -6.00     1000.00
04817              -8.00      800.00
04818              -6.00      600.00
04819              -4.00      400.00
04820              -2.00      200.00
04821               0.00     -200.00
04822               4.00     -200.00
04823              24.00     -200.00
04824              10.00     -600.00
04825              -6.00     -800.00
04826              -2.00    -1000.00
04827              10.00    -1000.00
04828               6.00    -1200.00
04829              10.00    -1400.00
04830              80.00    -1400.00
04831             218.00    -2000.00
04832               2.00    -2200.00
04833            -254.00    -2600.00
04834            -158.00    -2600.00
04835             118.00    -2800.00
04836             -32.00    -2800.00
04837              18.00    -2800.00
04838             230.00    -3200.00
04839            -176.00    -3400.00
04840              26.00    -3200.00
04841             166.00    -4000.00
04842             -94.00    -3600.00
04843              32.00    -3800.00
04844             -26.00    -4400.00
04845              62.00    -4200.00
04846              74.00    -4400.00
04847             -86.00    -5000.00
04848              24.00    -4800.00
04849               8.00    -5000.00
04850              46.00    -5400.00
04851              28.00    -5200.00
04852             -32.00    -5800.00
04853              72.00    -5800.00
04854              16.00    -5800.00
04855              12.00    -6200.00
04856              22.00    -6200.00
04857              16.00    -6400.00
04858              30.00    -6600.00
04859              32.00    -6600.00
04860              38.00    -6800.00
04861             -10.00    -7000.00
04862              46.00    -7200.00
04863              34.00    -7400.00
04864              24.00    -7600.00
04865              48.00    -7600.00
04866              14.00    -7800.00
04867              42.00    -8000.00
04868              44.00    -7800.00
04869              14.00    -8200.00
04870              34.00    -8400.00
04871              54.00    -8400.00
04872              34.00    -8600.00
04873              40.00    -8600.00
04874              40.00    -9000.00
04875              38.00    -9000.00
04876              48.00    -9000.00
04877              44.00    -9200.00
04878              48.00    -9200.00
04879              52.00    -9200.00
04880              48.00    -9400.00
04881              48.00    -9400.00
04882              54.00    -9600.00
04883              48.00    -9800.00
04884              60.00    -9800.00
04885              64.00   -10000.00
04886              58.00   -10200.00
04887              62.00   -10200.00
04888              60.00   -10200.00
04889              62.00   -10200.00
04890              66.00   -10200.00
04891              64.00   -10400.00
04892              72.00   -10600.00
04893              72.00   -10400.00
04894              70.00   -10800.00
04895              72.00   -10800.00
04896              74.00   -10800.00
04897              78.00   -10800.00
04898              82.00   -11000.00
04899              86.00   -11000.00
04900              82.00   -11000.00
04901              82.00   -11000.00
04902              88.00   -11000.00
04903              90.00   -11200.00
04904              94.00   -11400.00
04905              98.00   -11200.00
04906             100.00   -11400.00
04907             102.00   -11400.00
04908             102.00   -11400.00
04909             104.00   -11400.00
04910             108.00   -11400.00
04911             106.00   -11400.00
04912             114.00   -11400.00
04913             118.00   -11400.00
04914             120.00   -11400.00
04915             118.00   -11600.00
04916             120.00   -11400.00
04917             126.00   -11400.00
04918             134.00   -11400.00
04919             134.00   -11400.00
04920             134.00   -11400.00
04921             134.00   -11400.00
04922             136.00   -11400.00
04923             142.00   -11200.00
04924             144.00   -11400.00
04925             144.00   -11200.00
04926             142.00   -11000.00
04927             138.00   -11400.00
04928             142.00   -11200.00
04929             138.00   -11000.00
04930             140.00   -11200.00
04931             138.00   -11000.00
04932             136.00   -10800.00
04933             134.00   -11000.00
04934             130.00   -10800.00
04935             130.00   -10800.00
04936             122.00   -10800.00
04937             120.00   -10600.00
04938             114.00   -10600.00
04939             118.00   -10400.00
04940             112.00   -10600.00
04941             112.00   -10400.00
04942             106.00   -10200.00
04943             106.00   -10200.00
04944             102.00   -10200.00
04945              96.00   -10200.00
04946              88.00   -10000.00
04947              88.00    -9800.00
04948              90.00    -9800.00
04949              86.00    -9600.00
04950              82.00    -9600.00
04951              78.00    -9400.00
04952              72.00    -9200.00
04953              72.00    -9200.00
04954              70.00    -9200.00
04955              66.00    -9000.00
04956              64.00    -9000.00
04957              62.00    -9000.00
04958              58.00    -8600.00
04959              58.00    -8600.00
04960              54.00    -8400.00
04961              54.00    -8400.00
04962              54.00    -8200.00
04963              50.00    -8200.00
04964              48.00    -7800.00
04965              42.00    -7800.00
04966              40.00    -7800.00
04967              40.00    -7600.00
04968              40.00    -7400.00
04969              38.00    -7400.00
04970              38.00    -7200.00
04971              36.00    -6800.00
04972              34.00    -6800.00
04973              32.00    -6800.00
04974              32.00    -6600.00
04975              30.00    -6400.00
04976              30.00    -6200.00
04977              30.00    -6000.00
04978              30.00    -5800.00
04979              26.00    -5800.00
04980              22.00    -5600.00
04981              22.00    -5400.00
04982              24.00    -5200.00
04983              22.00    -5200.00
04984              22.00    -4600.00
04985              18.00    -4600.00
04986              20.00    -4600.00
04987              18.00    -4400.00
04988              16.00    -4000.00
04989              16.00    -4000.00
04990              16.00    -3800.00
04991              14.00    -3600.00
04992              14.00    -3400.00
04993              14.00    -3200.00
04994              10.00    -3000.00
04995              10.00    -3000.00
04996               8.00    -2600.00
04997              10.00    -2600.00
04998               8.00    -2200.00
04999               8.00    -2200.00
05000               8.00    -2000.00
