Unit:(mV)
                     CH1         CH2
Frequency              ? 298.939 kHz
00001             980.00    -2000.00
00002             540.00    -2400.00
00003            -480.00    -2600.00
00004           -1160.00    -2600.00
00005           -1440.00    -2600.00
00006            -580.00    -2400.00
00007             620.00    -3000.00
00008             160.00    -3000.00
00009             240.00    -3200.00
00010             460.00    -3600.00
00011            -120.00    -3400.00
00012             100.00    -3800.00
00013             -60.00    -4200.00
00014            -160.00    -4000.00
00015             260.00    -4600.00
00016             -40.00    -4200.00
00017            -260.00    -4800.00
00018            -160.00    -5000.00
00019             -80.00    -5000.00
00020               0.00    -5200.00
00021             -20.00    -5200.00
00022              20.00    -5600.00
00023            -100.00    -5800.00
00024             -20.00    -5800.00
00025              60.00    -6000.00
00026             -80.00    -5800.00
00027             -60.00    -6400.00
00028             -20.00    -6400.00
00029             -20.00    -6200.00
00030             -80.00    -6800.00
00031            -120.00    -6800.00
00032               0.00    -7000.00
00033               0.00    -7000.00
00034             -80.00    -7200.00
00035             -60.00    -7200.00
00036               0.00    -7400.00
00037             -60.00    -7600.00
00038             -20.00    -7800.00
00039             -20.00    -7800.00
00040            -100.00    -8000.00
00041            -100.00    -8200.00
00042             -20.00    -8200.00
00043             -20.00    -8200.00
00044             -60.00    -8400.00
00045             -20.00    -8400.00
00046             -20.00    -8600.00
00047             -80.00    -8600.00
00048             -60.00    -8600.00
00049             -20.00    -8800.00
00050             -20.00    -9000.00
00051             -60.00    -9000.00
00052             -60.00    -9000.00
00053             -60.00    -9200.00
00054             -60.00    -9200.00
00055               0.00    -9200.00
00056               0.00    -9200.00
00057             -60.00    -9400.00
00058             -60.00    -9400.00
00059             -60.00    -9400.00
00060             -60.00    -9600.00
00061             -60.00    -9400.00
00062             -20.00    -9600.00
00063             -20.00    -9800.00
00064             -20.00    -9800.00
00065             -20.00    -9800.00
00066             -20.00    -9800.00
00067             -20.00    -9800.00
00068             -20.00    -9800.00
00069               0.00    -9800.00
00070             -20.00    -9800.00
00071             -60.00    -9800.00
00072             -40.00    -9800.00
00073             -20.00    -9800.00
00074             -40.00   -10000.00
00075               0.00    -9800.00
00076               0.00    -9800.00
00077               0.00   -10000.00
00078             -20.00    -9800.00
00079               0.00    -9800.00
00080             -20.00    -9800.00
00081             -20.00    -9800.00
00082               0.00    -9800.00
00083               0.00    -9600.00
00084               0.00    -9600.00
00085             -20.00    -9800.00
00086             -20.00    -9600.00
00087             -20.00    -9400.00
00088             -20.00    -9400.00
00089               0.00    -9400.00
00090             -20.00    -9400.00
00091             -20.00    -9400.00
00092             -20.00    -9200.00
00093             -20.00    -9200.00
00094             -20.00    -9200.00
00095               0.00    -9200.00
00096               0.00    -9200.00
00097               0.00    -9000.00
00098               0.00    -8800.00
00099             -20.00    -8800.00
00100               0.00    -8600.00
00101             -20.00    -8600.00
00102               0.00    -8600.00
00103               0.00    -8400.00
00104               0.00    -8400.00
00105             -20.00    -8200.00
00106               0.00    -8200.00
00107               0.00    -7800.00
00108              20.00    -7800.00
00109               0.00    -7800.00
00110               0.00    -7800.00
00111               0.00    -7400.00
00112               0.00    -7200.00
00113               0.00    -7200.00
00114               0.00    -7200.00
00115               0.00    -7000.00
00116               0.00    -6800.00
00117               0.00    -6800.00
00118               0.00    -6600.00
00119               0.00    -6600.00
00120               0.00    -6400.00
00121              20.00    -6200.00
00122              20.00    -6200.00
00123              20.00    -6000.00
00124              20.00    -5800.00
00125               0.00    -5400.00
00126               0.00    -5400.00
00127               0.00    -5200.00
00128              20.00    -5000.00
00129              20.00    -5000.00
00130              20.00    -4800.00
00131              20.00    -4600.00
00132               0.00    -4400.00
00133              20.00    -4400.00
00134              20.00    -4200.00
00135              20.00    -3800.00
00136              60.00    -3800.00
00137              20.00    -3600.00
00138              20.00    -3600.00
00139              20.00    -3400.00
00140               0.00    -3000.00
00141              60.00    -3000.00
00142              40.00    -2800.00
00143              60.00    -2600.00
00144              60.00    -2600.00
00145              20.00    -2200.00
00146              20.00    -2000.00
00147              60.00    -1800.00
00148              60.00    -1800.00
00149              20.00    -1400.00
00150              60.00    -1200.00
00151              20.00    -1200.00
00152              20.00     -800.00
00153              20.00     -800.00
00154              20.00     -600.00
00155              60.00     -400.00
00156              40.00     -200.00
00157              60.00        0.00
00158              60.00      200.00
00159              60.00      200.00
00160             140.00      600.00
00161             180.00      600.00
00162             180.00      800.00
00163             140.00     1000.00
00164              80.00     1200.00
00165              80.00     1200.00
00166             200.00     1400.00
00167             820.00     1800.00
00168            1220.00     2000.00
00169             380.00     2200.00
00170            -900.00     2200.00
00171           -1760.00     2200.00
00172           -1260.00     2600.00
00173             700.00     3200.00
00174             640.00     2800.00
00175             140.00     3400.00
00176             700.00     3400.00
00177              80.00     3400.00
00178            -140.00     4200.00
00179              80.00     3400.00
00180            -140.00     4000.00
00181             500.00     4400.00
00182              80.00     3800.00
00183            -240.00     5000.00
00184             180.00     4600.00
00185            -160.00     4600.00
00186              60.00     5200.00
00187             160.00     4800.00
00188             100.00     5800.00
00189              80.00     5400.00
00190             -20.00     5400.00
00191             220.00     6200.00
00192               0.00     5600.00
00193              20.00     6200.00
00194             140.00     6200.00
00195              60.00     6400.00
00196              60.00     6600.00
00197             -20.00     6400.00
00198              80.00     7000.00
00199              80.00     6800.00
00200             100.00     7000.00
00201              80.00     7400.00
00202              60.00     7400.00
00203              40.00     7600.00
00204              20.00     7400.00
00205             120.00     7800.00
00206              20.00     7600.00
00207              60.00     7800.00
00208              20.00     8000.00
00209              60.00     8200.00
00210              80.00     8200.00
00211              80.00     8400.00
00212              80.00     8600.00
00213               0.00     8400.00
00214              20.00     8600.00
00215              60.00     8600.00
00216              80.00     8600.00
00217              60.00     8800.00
00218              20.00     9000.00
00219              20.00     9000.00
00220              20.00     9000.00
00221              80.00     9200.00
00222              60.00     9200.00
00223              60.00     9200.00
00224              20.00     9400.00
00225              40.00     9400.00
00226               0.00     9400.00
00227              20.00     9600.00
00228              60.00     9400.00
00229              60.00     9600.00
00230              60.00     9600.00
00231              60.00     9800.00
00232               0.00    10000.00
00233               0.00     9600.00
00234              20.00    10000.00
00235              60.00     9800.00
00236              20.00     9800.00
00237               0.00     9800.00
00238              20.00     9800.00
00239               0.00     9800.00
00240              20.00    10000.00
00241              40.00     9800.00
00242              20.00     9800.00
00243              20.00     9800.00
00244              20.00    10000.00
00245              20.00     9800.00
00246               0.00     9800.00
00247               0.00     9800.00
00248              20.00     9800.00
00249              20.00     9800.00
00250              20.00     9600.00
00251              20.00     9600.00
00252               0.00     9800.00
00253              20.00     9600.00
00254               0.00     9600.00
00255               0.00     9400.00
00256              40.00     9400.00
00257              20.00     9400.00
00258               0.00     9200.00
00259               0.00     9400.00
00260               0.00     9400.00
00261               0.00     9200.00
00262              20.00     9000.00
00263              20.00     9200.00
00264              20.00     9000.00
00265               0.00     9000.00
00266             -20.00     8800.00
00267               0.00     8600.00
00268              20.00     8600.00
00269               0.00     8600.00
00270               0.00     8400.00
00271               0.00     8400.00
00272               0.00     8200.00
00273             -20.00     8200.00
00274             -20.00     8000.00
00275               0.00     7800.00
00276               0.00     7800.00
00277               0.00     7800.00
00278               0.00     7600.00
00279             -20.00     7600.00
00280             -20.00     7400.00
00281               0.00     7200.00
00282               0.00     7000.00
00283               0.00     7000.00
00284             -20.00     6800.00
00285             -20.00     6600.00
00286             -20.00     6600.00
00287             -20.00     6200.00
00288             -20.00     6200.00
00289             -20.00     6000.00
00290               0.00     6000.00
00291             -20.00     5800.00
00292             -20.00     5800.00
00293             -60.00     5400.00
00294             -20.00     5200.00
00295             -20.00     5200.00
00296             -20.00     5000.00
00297             -20.00     5000.00
00298             -40.00     4800.00
00299             -40.00     4400.00
00300             -20.00     4400.00
00301             -20.00     4200.00
00302             -20.00     4000.00
00303             -40.00     3800.00
00304             -20.00     3600.00
00305             -40.00     3400.00
00306             -40.00     3400.00
00307             -20.00     3200.00
00308             -40.00     3000.00
00309             -20.00     2800.00
00310             -60.00     2600.00
00311             -40.00     2400.00
00312             -80.00     2200.00
00313             -60.00     2000.00
00314             -20.00     1800.00
00315             -20.00     1800.00
00316               0.00     1600.00
00317             -40.00     1400.00
00318             -60.00     1200.00
00319             -60.00     1000.00
00320             -60.00      800.00
00321             -20.00      600.00
00322             -40.00      400.00
00323             -20.00      400.00
00324             -20.00        0.00
00325             -20.00        0.00
00326             -20.00     -200.00
00327              60.00     -400.00
00328             100.00     -600.00
00329              80.00     -600.00
00330              40.00    -1000.00
00331               0.00    -1000.00
00332               0.00    -1200.00
00333               0.00    -1400.00
00334             180.00    -1400.00
00335             780.00    -1800.00
00336             920.00    -2200.00
00337              60.00    -2200.00
00338            -880.00    -2600.00
00339           -1360.00    -2600.00
00340           -1260.00    -2400.00
00341             140.00    -2800.00
00342             520.00    -3200.00
00343              60.00    -3000.00
00344             460.00    -3600.00
00345             160.00    -3600.00
00346             -80.00    -3400.00
00347             140.00    -4200.00
00348            -180.00    -4000.00
00349             100.00    -4400.00
00350             180.00    -4400.00
00351            -220.00    -4400.00
00352            -180.00    -5000.00
00353            -160.00    -4600.00
00354             -20.00    -5000.00
00355             -20.00    -5200.00
00356               0.00    -5200.00
00357             -40.00    -5800.00
00358            -120.00    -5600.00
00359              60.00    -6000.00
00360               0.00    -6000.00
00361             -80.00    -6200.00
00362             -20.00    -6400.00
00363             -20.00    -6200.00
00364             -20.00    -6600.00
00365            -140.00    -6800.00
00366             -60.00    -6800.00
00367              60.00    -7000.00
00368             -40.00    -7000.00
00369             -60.00    -7200.00
00370             -20.00    -7400.00
00371             -20.00    -7600.00
00372             -60.00    -7600.00
00373             -20.00    -7800.00
00374             -60.00    -8000.00
00375            -100.00    -8200.00
00376             -60.00    -8200.00
00377             -20.00    -8000.00
00378             -40.00    -8400.00
00379             -40.00    -8400.00
00380               0.00    -8400.00
00381             -60.00    -8600.00
00382             -80.00    -8600.00
00383             -20.00    -8600.00
00384             -20.00    -8800.00
00385             -60.00    -9000.00
00386             -80.00    -9000.00
00387             -60.00    -9200.00
00388             -60.00    -9200.00
00389             -20.00    -9000.00
00390               0.00    -9200.00
00391             -20.00    -9200.00
00392             -60.00    -9400.00
00393             -40.00    -9400.00
00394             -60.00    -9400.00
00395             -80.00    -9400.00
00396             -20.00    -9600.00
00397               0.00    -9800.00
00398               0.00    -9600.00
00399             -40.00    -9800.00
00400             -20.00    -9800.00
00401             -20.00    -9800.00
00402             -60.00    -9800.00
00403             -20.00    -9800.00
00404               0.00    -9800.00
00405             -20.00    -9800.00
00406             -20.00    -9800.00
00407             -20.00   -10000.00
00408             -60.00    -9800.00
00409             -20.00    -9800.00
00410               0.00    -9800.00
00411               0.00    -9800.00
00412             -20.00    -9800.00
00413             -20.00    -9800.00
00414             -40.00   -10000.00
00415             -20.00    -9800.00
00416             -20.00    -9800.00
00417               0.00    -9800.00
00418               0.00    -9800.00
00419             -20.00    -9800.00
00420               0.00    -9600.00
00421             -20.00    -9600.00
00422             -20.00    -9600.00
00423               0.00    -9400.00
00424               0.00    -9400.00
00425               0.00    -9400.00
00426             -20.00    -9200.00
00427             -20.00    -9200.00
00428             -20.00    -9400.00
00429             -20.00    -9200.00
00430               0.00    -9000.00
00431               0.00    -9000.00
00432               0.00    -9000.00
00433             -20.00    -8800.00
00434             -20.00    -8800.00
00435               0.00    -8600.00
00436               0.00    -8400.00
00437               0.00    -8400.00
00438               0.00    -8400.00
00439             -20.00    -8200.00
00440             -20.00    -8200.00
00441               0.00    -8000.00
00442               0.00    -7800.00
00443               0.00    -7800.00
00444               0.00    -7600.00
00445               0.00    -7600.00
00446               0.00    -7400.00
00447               0.00    -7200.00
00448             -20.00    -7200.00
00449               0.00    -7000.00
00450               0.00    -6800.00
00451              20.00    -6800.00
00452               0.00    -6600.00
00453               0.00    -6600.00
00454               0.00    -6600.00
00455               0.00    -6200.00
00456               0.00    -6200.00
00457              20.00    -6000.00
00458              20.00    -5800.00
00459               0.00    -5600.00
00460              20.00    -5600.00
00461               0.00    -5400.00
00462               0.00    -5200.00
00463              20.00    -5000.00
00464              20.00    -4800.00
00465              20.00    -4800.00
00466               0.00    -4600.00
00467              20.00    -4600.00
00468              20.00    -4200.00
00469              20.00    -4000.00
00470              40.00    -3800.00
00471              20.00    -3800.00
00472              20.00    -3600.00
00473               0.00    -3400.00
00474              20.00    -3000.00
00475              20.00    -3200.00
00476              40.00    -2800.00
00477              40.00    -2800.00
00478              60.00    -2400.00
00479              20.00    -2400.00
00480               0.00    -2000.00
00481              20.00    -2000.00
00482              20.00    -1800.00
00483              60.00    -1800.00
00484              60.00    -1400.00
00485              40.00    -1200.00
00486               0.00    -1000.00
00487               0.00     -800.00
00488              20.00     -600.00
00489              60.00     -600.00
00490              40.00     -400.00
00491              20.00     -200.00
00492              40.00        0.00
00493              60.00      200.00
00494              80.00      400.00
00495             160.00      600.00
00496             180.00      800.00
00497             160.00      800.00
00498             100.00     1000.00
00499             100.00     1000.00
00500             100.00     1400.00
00501             400.00     1600.00
00502            1180.00     2000.00
00503             940.00     2000.00
00504            -260.00     2200.00
00505           -1380.00     2200.00
00506           -1780.00     2400.00
00507            -320.00     3000.00
00508            1020.00     2800.00
00509             220.00     2800.00
00510             460.00     3200.00
00511             540.00     3000.00
00512            -220.00     3800.00
00513              80.00     3800.00
00514            -100.00     3400.00
00515             160.00     4600.00
00516             480.00     4200.00
00517            -260.00     4200.00
00518              20.00     5000.00
00519              60.00     4400.00
00520            -160.00     5200.00
00521             220.00     5000.00
00522             100.00     5000.00
00523             140.00     5800.00
00524             -20.00     5200.00
00525              80.00     5800.00
00526             160.00     6000.00
00527             -60.00     5800.00
00528             100.00     6200.00
00529              80.00     6200.00
00530              80.00     6600.00
00531               0.00     6600.00
00532               0.00     6800.00
00533             120.00     7000.00
00534              80.00     6800.00
00535             100.00     7000.00
00536              60.00     7200.00
00537              60.00     7400.00
00538               0.00     7400.00
00539              80.00     7600.00
00540              60.00     7800.00
00541               0.00     7800.00
00542              60.00     8000.00
00543               0.00     8000.00
00544              60.00     8400.00
00545              80.00     8200.00
00546             100.00     8400.00
00547               0.00     8400.00
00548               0.00     8400.00
00549              40.00     8600.00
00550              60.00     8600.00
00551              60.00     8600.00
00552              40.00     8800.00
00553              20.00     9000.00
00554               0.00     9000.00
00555              60.00     9200.00
00556              80.00     9200.00
00557              60.00     9200.00
00558              20.00     9200.00
00559              20.00     9400.00
00560              20.00     9400.00
00561               0.00     9400.00
00562              20.00     9400.00
00563              20.00     9800.00
00564              20.00     9600.00
00565              60.00     9400.00
00566              20.00     9800.00
00567               0.00     9800.00
00568              20.00     9800.00
00569              60.00     9800.00
00570              40.00     9800.00
00571              20.00    10000.00
00572              20.00    10000.00
00573              20.00     9800.00
00574               0.00    10000.00
00575              20.00    10000.00
00576              60.00     9800.00
00577              20.00     9800.00
00578              60.00     9800.00
00579              20.00    10000.00
00580              20.00     9800.00
00581               0.00     9800.00
00582               0.00     9800.00
00583              60.00     9800.00
00584              20.00     9800.00
00585              20.00     9600.00
00586              20.00     9800.00
00587               0.00     9800.00
00588              20.00     9600.00
00589              20.00     9600.00
00590              20.00     9600.00
00591              20.00     9400.00
00592               0.00     9400.00
00593               0.00     9400.00
00594               0.00     9400.00
00595               0.00     9200.00
00596              20.00     9200.00
00597              20.00     9000.00
00598              20.00     9000.00
00599               0.00     9000.00
00600               0.00     8600.00
00601               0.00     8600.00
00602               0.00     8600.00
00603               0.00     8600.00
00604               0.00     8600.00
00605               0.00     8400.00
00606               0.00     8400.00
00607               0.00     8200.00
00608             -20.00     8000.00
00609               0.00     7800.00
00610               0.00     7800.00
00611               0.00     7800.00
00612               0.00     7800.00
00613             -20.00     7400.00
00614             -20.00     7400.00
00615             -20.00     7200.00
00616               0.00     7000.00
00617               0.00     7000.00
00618               0.00     6800.00
00619             -20.00     6600.00
00620             -20.00     6600.00
00621             -20.00     6400.00
00622             -20.00     6200.00
00623             -20.00     6200.00
00624               0.00     6000.00
00625             -20.00     5800.00
00626             -20.00     5800.00
00627             -20.00     5600.00
00628             -20.00     5400.00
00629             -20.00     5200.00
00630             -20.00     5200.00
00631             -20.00     5000.00
00632             -20.00     5000.00
00633             -60.00     4600.00
00634             -20.00     4400.00
00635             -20.00     4200.00
00636             -20.00     4200.00
00637             -20.00     3800.00
00638             -60.00     3800.00
00639             -20.00     3600.00
00640             -40.00     3400.00
00641             -60.00     3400.00
00642             -20.00     3200.00
00643             -20.00     3000.00
00644             -20.00     2800.00
00645             -40.00     2600.00
00646             -60.00     2400.00
00647             -60.00     2200.00
00648             -60.00     2000.00
00649               0.00     1800.00
00650             -20.00     1600.00
00651             -20.00     1400.00
00652             -40.00     1200.00
00653             -60.00     1000.00
00654             -40.00     1000.00
00655             -60.00      800.00
00656             -20.00      400.00
00657             -40.00      400.00
00658             -20.00      200.00
00659             -20.00     -200.00
00660             -20.00     -200.00
00661               0.00     -400.00
00662              80.00     -400.00
00663             120.00     -600.00
00664              80.00     -800.00
00665              20.00    -1000.00
00666               0.00    -1200.00
00667               0.00    -1400.00
00668              60.00    -1400.00
00669             420.00    -1600.00
00670             960.00    -2000.00
00671             580.00    -2200.00
00672            -460.00    -2400.00
00673           -1140.00    -2600.00
00674           -1440.00    -2400.00
00675            -660.00    -2400.00
00676             580.00    -3200.00
00677             220.00    -3000.00
00678             220.00    -3200.00
00679             460.00    -3800.00
00680            -120.00    -3400.00
00681              80.00    -3600.00
00682             -20.00    -4200.00
00683            -160.00    -4200.00
00684             240.00    -4400.00
00685             -20.00    -4400.00
00686            -260.00    -4800.00
00687            -160.00    -5000.00
00688            -100.00    -4600.00
00689               0.00    -5400.00
00690             -20.00    -5200.00
00691               0.00    -5400.00
00692            -100.00    -5600.00
00693             -60.00    -5800.00
00694              60.00    -6000.00
00695             -80.00    -6000.00
00696             -80.00    -6200.00
00697             -20.00    -6400.00
00698               0.00    -6200.00
00699             -80.00    -6800.00
00700            -140.00    -6600.00
00701               0.00    -7000.00
00702             -20.00    -7000.00
00703             -60.00    -7400.00
00704             -20.00    -7400.00
00705             -20.00    -7400.00
00706             -60.00    -7600.00
00707             -20.00    -7600.00
00708             -20.00    -7800.00
00709            -100.00    -7800.00
00710            -100.00    -8000.00
00711             -40.00    -8200.00
00712             -20.00    -8200.00
00713             -60.00    -8600.00
00714             -20.00    -8400.00
00715             -20.00    -8400.00
00716             -80.00    -8600.00
00717             -60.00    -8800.00
00718             -20.00    -8800.00
00719             -20.00    -9000.00
00720             -60.00    -9000.00
00721             -40.00    -9000.00
00722             -60.00    -9000.00
00723             -60.00    -9200.00
00724               0.00    -9400.00
00725               0.00    -9200.00
00726             -20.00    -9400.00
00727             -60.00    -9400.00
00728             -60.00    -9400.00
00729             -60.00    -9400.00
00730             -60.00    -9800.00
00731               0.00    -9400.00
00732               0.00    -9600.00
00733             -20.00    -9800.00
00734             -20.00    -9800.00
00735             -40.00    -9600.00
00736             -60.00    -9800.00
00737             -20.00   -10000.00
00738             -20.00    -9800.00
00739             -20.00    -9800.00
00740             -60.00    -9800.00
00741             -40.00   -10000.00
00742             -40.00    -9800.00
00743             -20.00    -9800.00
00744             -20.00   -10000.00
00745               0.00   -10000.00
00746             -20.00    -9800.00
00747             -60.00    -9800.00
00748             -40.00    -9800.00
00749             -20.00    -9800.00
00750             -20.00    -9800.00
00751               0.00    -9800.00
00752               0.00    -9800.00
00753             -20.00    -9800.00
00754             -20.00    -9600.00
00755             -20.00    -9600.00
00756             -20.00    -9600.00
00757             -20.00    -9400.00
00758               0.00    -9400.00
00759             -20.00    -9400.00
00760             -20.00    -9400.00
00761             -20.00    -9400.00
00762             -20.00    -9200.00
00763             -20.00    -9200.00
00764               0.00    -9200.00
00765               0.00    -9000.00
00766               0.00    -9000.00
00767             -20.00    -9000.00
00768             -20.00    -8800.00
00769             -20.00    -8600.00
00770               0.00    -8600.00
00771               0.00    -8600.00
00772               0.00    -8400.00
00773               0.00    -8400.00
00774               0.00    -8200.00
00775               0.00    -8200.00
00776             -20.00    -8000.00
00777               0.00    -7800.00
00778              20.00    -7800.00
00779               0.00    -7600.00
00780               0.00    -7400.00
00781               0.00    -7200.00
00782               0.00    -7200.00
00783               0.00    -7000.00
00784              20.00    -7000.00
00785              20.00    -7000.00
00786              20.00    -6800.00
00787              20.00    -6600.00
00788               0.00    -6600.00
00789               0.00    -6400.00
00790              20.00    -6200.00
00791              20.00    -6000.00
00792              20.00    -5800.00
00793               0.00    -5800.00
00794               0.00    -5600.00
00795               0.00    -5600.00
00796               0.00    -5400.00
00797               0.00    -5200.00
00798              20.00    -5000.00
00799              20.00    -4800.00
00800              20.00    -4600.00
00801               0.00    -4600.00
00802               0.00    -4400.00
00803              20.00    -4200.00
00804              20.00    -4000.00
00805               0.00    -3800.00
00806              20.00    -3600.00
00807               0.00    -3400.00
00808               0.00    -3200.00
00809              20.00    -3200.00
00810              20.00    -3000.00
00811              40.00    -2800.00
00812              20.00    -2600.00
00813              20.00    -2600.00
00814               0.00    -2200.00
00815              20.00    -2000.00
00816              20.00    -2000.00
00817              20.00    -1800.00
00818              20.00    -1600.00
00819              20.00    -1400.00
00820              60.00    -1200.00
00821              20.00    -1000.00
00822              20.00     -800.00
00823              20.00     -600.00
00824              20.00     -400.00
00825              40.00     -400.00
00826              40.00     -200.00
00827              40.00      200.00
00828              60.00      200.00
00829             140.00      400.00
00830             180.00      600.00
00831             160.00     1000.00
00832             140.00     1000.00
00833             100.00     1200.00
00834             100.00     1200.00
00835             180.00     1400.00
00836             800.00     1800.00
00837            1240.00     2000.00
00838             460.00     2200.00
00839            -880.00     2200.00
00840           -1700.00     2200.00
00841           -1340.00     2600.00
00842             620.00     3000.00
00843             700.00     2600.00
00844             140.00     3200.00
00845             700.00     3000.00
00846             100.00     3400.00
00847            -140.00     4200.00
00848             100.00     3600.00
00849            -140.00     3800.00
00850             480.00     4600.00
00851             100.00     3800.00
00852            -260.00     4600.00
00853             180.00     5000.00
00854            -140.00     4600.00
00855              40.00     5200.00
00856             200.00     4800.00
00857             100.00     5800.00
00858              60.00     5600.00
00859             -20.00     5400.00
00860             220.00     6000.00
00861              20.00     5800.00
00862              20.00     6200.00
00863             140.00     6200.00
00864              40.00     6200.00
00865              60.00     6600.00
00866             -20.00     6200.00
00867              80.00     6800.00
00868              80.00     6800.00
00869             100.00     7000.00
00870             100.00     7200.00
00871              60.00     7200.00
00872              40.00     7400.00
00873              20.00     7400.00
00874             100.00     7600.00
00875              20.00     7600.00
00876              20.00     8000.00
00877               0.00     8000.00
00878              20.00     8200.00
00879              80.00     8200.00
00880              80.00     8200.00
00881              80.00     8400.00
00882             -20.00     8400.00
00883              20.00     8600.00
00884              60.00     8600.00
00885              60.00     8600.00
00886              60.00     8600.00
00887              40.00     9000.00
00888               0.00     9000.00
00889              20.00     9200.00
00890              60.00     9200.00
00891              60.00     9400.00
00892              60.00     9200.00
00893              20.00     9400.00
00894              20.00     9400.00
00895               0.00     9400.00
00896               0.00     9400.00
00897              40.00     9600.00
00898              60.00     9800.00
00899              60.00     9800.00
00900              60.00     9600.00
00901              20.00     9800.00
00902               0.00     9800.00
00903              20.00     9800.00
00904              60.00     9800.00
00905              20.00     9800.00
00906              20.00    10000.00
00907              20.00     9800.00
00908              20.00    10000.00
00909              20.00    10000.00
00910              40.00     9800.00
00911              20.00    10000.00
00912              20.00     9800.00
00913              20.00     9800.00
00914              20.00     9800.00
00915               0.00     9800.00
00916               0.00     9800.00
00917              60.00     9800.00
00918              20.00     9800.00
00919              20.00     9800.00
00920              20.00     9600.00
00921              20.00     9800.00
00922               0.00     9600.00
00923               0.00     9600.00
00924              20.00     9600.00
00925              20.00     9400.00
00926              20.00     9400.00
00927              20.00     9200.00
00928               0.00     9400.00
00929               0.00     9200.00
00930               0.00     9000.00
00931              20.00     9200.00
00932              20.00     9200.00
00933               0.00     9000.00
00934               0.00     9000.00
00935               0.00     8600.00
00936               0.00     8600.00
00937               0.00     8600.00
00938               0.00     8600.00
00939               0.00     8400.00
00940               0.00     8200.00
00941             -20.00     8200.00
00942               0.00     8200.00
00943             -20.00     8000.00
00944               0.00     7800.00
00945               0.00     7800.00
00946               0.00     7800.00
00947               0.00     7600.00
00948             -20.00     7400.00
00949             -20.00     7200.00
00950               0.00     7200.00
00951               0.00     7000.00
00952             -20.00     7000.00
00953             -20.00     6800.00
00954             -20.00     6600.00
00955             -20.00     6600.00
00956             -20.00     6400.00
00957             -20.00     6200.00
00958             -20.00     6000.00
00959             -20.00     6000.00
00960             -20.00     5800.00
00961             -20.00     5600.00
00962             -40.00     5400.00
00963             -20.00     5200.00
00964             -20.00     5200.00
00965             -20.00     5000.00
00966             -20.00     5000.00
00967             -20.00     4600.00
00968             -40.00     4600.00
00969             -60.00     4400.00
00970             -20.00     4200.00
00971             -20.00     4000.00
00972             -20.00     3800.00
00973             -20.00     3800.00
00974             -20.00     3600.00
00975             -20.00     3400.00
00976             -20.00     3000.00
00977             -20.00     3000.00
00978             -20.00     3000.00
00979             -20.00     2600.00
00980             -40.00     2600.00
00981             -60.00     2200.00
00982             -40.00     2000.00
00983             -20.00     2000.00
00984             -20.00     1800.00
00985             -20.00     1600.00
00986             -40.00     1400.00
00987             -20.00     1200.00
00988             -40.00     1000.00
00989             -60.00      800.00
00990             -60.00      600.00
00991             -20.00      400.00
00992             -40.00      400.00
00993             -20.00      200.00
00994             -20.00      200.00
00995             -20.00     -400.00
00996              60.00     -400.00
00997             100.00     -600.00
00998              80.00     -800.00
00999              60.00    -1000.00
01000               0.00    -1000.00
01001               0.00    -1200.00
01002               0.00    -1400.00
01003             180.00    -1400.00
01004             740.00    -1800.00
01005             920.00    -2200.00
01006             100.00    -2400.00
01007            -880.00    -2600.00
01008           -1360.00    -2600.00
01009           -1280.00    -2400.00
01010              60.00    -2800.00
01011             540.00    -3200.00
01012              20.00    -3000.00
01013             460.00    -3600.00
01014             180.00    -3600.00
01015            -100.00    -3400.00
01016             140.00    -4200.00
01017            -180.00    -4000.00
01018              60.00    -4200.00
01019             220.00    -4400.00
01020            -220.00    -4600.00
01021            -200.00    -5000.00
01022            -160.00    -4600.00
01023               0.00    -5000.00
01024             -20.00    -5400.00
01025               0.00    -5400.00
01026             -20.00    -5600.00
01027            -140.00    -5600.00
01028              20.00    -6000.00
01029               0.00    -6000.00
01030             -80.00    -6000.00
01031             -20.00    -6600.00
01032             -20.00    -6200.00
01033             -20.00    -6800.00
01034            -140.00    -6800.00
01035             -80.00    -6600.00
01036              20.00    -7000.00
01037             -20.00    -7000.00
01038             -20.00    -7400.00
01039               0.00    -7200.00
01040             -20.00    -7600.00
01041             -20.00    -7600.00
01042             -20.00    -7800.00
01043             -60.00    -7800.00
01044            -140.00    -8000.00
01045            -100.00    -8200.00
01046            -100.00    -8200.00
01047            -100.00    -8200.00
01048               0.00    -8400.00
01049              80.00    -8600.00
01050             100.00    -8400.00
01051              20.00    -8600.00
01052              20.00    -8600.00
01053             -60.00    -9000.00
01054            -180.00    -9000.00
01055            -180.00    -9000.00
01056            -160.00    -9000.00
01057             -80.00    -9200.00
01058               0.00    -9200.00
01059              80.00    -9200.00
01060              60.00    -9200.00
01061               0.00    -9400.00
01062               0.00    -9400.00
01063             -80.00    -9400.00
01064            -120.00    -9600.00
01065            -100.00    -9400.00
01066            -100.00    -9600.00
01067             -80.00    -9800.00
01068             -60.00    -9800.00
01069               0.00    -9800.00
01070               0.00    -9800.00
01071              20.00    -9800.00
01072              60.00    -9800.00
01073               0.00    -9800.00
01074             -80.00    -9800.00
01075            -100.00    -9800.00
01076            -120.00    -9800.00
01077            -140.00   -10000.00
01078             -80.00    -9800.00
01079              20.00    -9800.00
01080              60.00    -9800.00
01081              60.00    -9800.00
01082              20.00    -9800.00
01083             -20.00    -9800.00
01084             -60.00    -9800.00
01085             -80.00    -9800.00
01086             -80.00    -9800.00
01087             -60.00    -9800.00
01088             -40.00    -9800.00
01089               0.00    -9800.00
01090              20.00    -9600.00
01091              40.00    -9400.00
01092              20.00    -9800.00
01093               0.00    -9400.00
01094             -20.00    -9400.00
01095             -80.00    -9400.00
01096             -80.00    -9200.00
01097             -40.00    -9200.00
01098               0.00    -9200.00
01099              20.00    -9000.00
01100              60.00    -8800.00
01101               0.00    -9000.00
01102             -20.00    -8800.00
01103             -20.00    -8600.00
01104             -40.00    -8600.00
01105             -20.00    -8600.00
01106             -20.00    -8600.00
01107               0.00    -8400.00
01108               0.00    -8400.00
01109              20.00    -8200.00
01110               0.00    -8000.00
01111               0.00    -7800.00
01112              20.00    -7800.00
01113              20.00    -7600.00
01114               0.00    -7600.00
01115             -20.00    -7600.00
01116               0.00    -7200.00
01117               0.00    -7200.00
01118              20.00    -7000.00
01119              20.00    -7000.00
01120              20.00    -6800.00
01121               0.00    -6800.00
01122               0.00    -6600.00
01123               0.00    -6600.00
01124               0.00    -6200.00
01125               0.00    -6200.00
01126              20.00    -6200.00
01127               0.00    -6000.00
01128              20.00    -5800.00
01129              20.00    -5600.00
01130              20.00    -5400.00
01131              20.00    -5400.00
01132              20.00    -5000.00
01133              20.00    -5000.00
01134               0.00    -4800.00
01135               0.00    -4600.00
01136               0.00    -4400.00
01137               0.00    -4200.00
01138              20.00    -4200.00
01139              40.00    -4000.00
01140              20.00    -3800.00
01141              20.00    -3600.00
01142               0.00    -3600.00
01143               0.00    -3200.00
01144               0.00    -3000.00
01145              20.00    -2800.00
01146              60.00    -2800.00
01147              20.00    -2600.00
01148               0.00    -2600.00
01149              20.00    -2200.00
01150              20.00    -2200.00
01151              20.00    -1800.00
01152              20.00    -1800.00
01153              20.00    -1400.00
01154              20.00    -1200.00
01155              20.00    -1200.00
01156              20.00     -800.00
01157              40.00     -600.00
01158              40.00     -600.00
01159              60.00     -400.00
01160              60.00     -200.00
01161              60.00      200.00
01162              60.00      200.00
01163              80.00      200.00
01164             160.00      400.00
01165             180.00      600.00
01166             160.00      800.00
01167             140.00     1000.00
01168             100.00     1400.00
01169             100.00     1200.00
01170             380.00     1800.00
01171            1140.00     2000.00
01172            1000.00     2200.00
01173            -200.00     2000.00
01174           -1300.00     2200.00
01175           -1780.00     2200.00
01176            -400.00     3000.00
01177            1020.00     3000.00
01178             240.00     2800.00
01179             420.00     3200.00
01180             560.00     3000.00
01181            -220.00     3800.00
01182              80.00     4000.00
01183             -80.00     3600.00
01184             100.00     4600.00
01185             500.00     4000.00
01186            -240.00     4200.00
01187               0.00     5000.00
01188              80.00     4400.00
01189            -160.00     5200.00
01190             220.00     5000.00
01191             100.00     5000.00
01192             140.00     5800.00
01193             -20.00     5200.00
01194              80.00     5800.00
01195             160.00     5800.00
01196             -60.00     5800.00
01197             100.00     6200.00
01198              60.00     6000.00
01199              60.00     6600.00
01200               0.00     6200.00
01201               0.00     6800.00
01202             140.00     6800.00
01203              80.00     6800.00
01204             100.00     7200.00
01205              60.00     7000.00
01206              60.00     7400.00
01207               0.00     7400.00
01208              80.00     7400.00
01209              60.00     7800.00
01210               0.00     7800.00
01211              40.00     8000.00
01212               0.00     8200.00
01213              60.00     8200.00
01214              60.00     8200.00
01215             120.00     8400.00
01216              20.00     8400.00
01217             -20.00     8400.00
01218              20.00     8600.00
01219              60.00     8600.00
01220              80.00     9000.00
01221              60.00     8800.00
01222              20.00     9000.00
01223               0.00     9000.00
01224              40.00     9200.00
01225              60.00     9400.00
01226              60.00     9200.00
01227              60.00     9400.00
01228              60.00     9400.00
01229              20.00     9400.00
01230               0.00     9400.00
01231              20.00     9600.00
01232              60.00     9800.00
01233              60.00     9800.00
01234              60.00     9800.00
01235              20.00     9800.00
01236               0.00     9600.00
01237              20.00     9800.00
01238              80.00     9800.00
01239              60.00     9800.00
01240              20.00     9800.00
01241              20.00     9800.00
01242              20.00     9800.00
01243               0.00    10000.00
01244              20.00     9800.00
01245              60.00     9800.00
01246              60.00    10000.00
01247              20.00     9800.00
01248              40.00    10000.00
01249               0.00     9800.00
01250             -20.00     9800.00
01251               0.00     9800.00
01252              20.00     9800.00
01253              60.00     9800.00
01254              20.00     9800.00
01255              20.00     9800.00
01256               0.00     9800.00
01257               0.00     9800.00
01258              20.00     9600.00
01259              20.00     9400.00
01260              20.00     9400.00
01261              20.00     9400.00
01262               0.00     9400.00
01263               0.00     9200.00
01264               0.00     9200.00
01265              20.00     9200.00
01266              20.00     9000.00
01267              20.00     9000.00
01268               0.00     9000.00
01269             -20.00     8600.00
01270             -20.00     8600.00
01271             -20.00     8600.00
01272              20.00     8600.00
01273              20.00     8400.00
01274               0.00     8200.00
01275               0.00     8200.00
01276               0.00     8200.00
01277             -20.00     8200.00
01278             -20.00     8000.00
01279               0.00     7800.00
01280               0.00     7800.00
01281               0.00     7600.00
01282               0.00     7400.00
01283             -20.00     7400.00
01284             -20.00     7200.00
01285               0.00     7000.00
01286               0.00     6800.00
01287             -20.00     6800.00
01288             -20.00     6600.00
01289             -20.00     6600.00
01290             -20.00     6400.00
01291             -20.00     6200.00
01292             -20.00     6200.00
01293             -20.00     5800.00
01294             -20.00     5800.00
01295             -20.00     5800.00
01296             -20.00     5400.00
01297             -20.00     5400.00
01298             -20.00     5200.00
01299               0.00     5200.00
01300             -20.00     5000.00
01301             -20.00     4600.00
01302             -40.00     4600.00
01303             -40.00     4600.00
01304             -20.00     4200.00
01305             -20.00     4200.00
01306             -20.00     3800.00
01307             -20.00     3800.00
01308             -20.00     3600.00
01309             -20.00     3600.00
01310             -20.00     3400.00
01311             -40.00     3000.00
01312             -20.00     3000.00
01313             -20.00     2800.00
01314             -20.00     2600.00
01315             -60.00     2200.00
01316             -60.00     2200.00
01317             -20.00     2000.00
01318             -20.00     1800.00
01319             -20.00     1600.00
01320             -20.00     1400.00
01321             -20.00     1200.00
01322             -40.00     1000.00
01323             -20.00     1000.00
01324             -40.00      600.00
01325             -20.00      600.00
01326             -20.00      400.00
01327             -20.00      200.00
01328             -40.00      200.00
01329             -60.00     -200.00
01330               0.00     -400.00
01331              80.00     -600.00
01332             100.00     -600.00
01333              80.00     -800.00
01334               0.00    -1000.00
01335             -20.00    -1200.00
01336             -20.00    -1400.00
01337              60.00    -1400.00
01338             400.00    -1800.00
01339             960.00    -2000.00
01340             620.00    -2200.00
01341            -420.00    -2400.00
01342           -1140.00    -2600.00
01343           -1460.00    -2600.00
01344            -740.00    -2600.00
01345             560.00    -3200.00
01346             220.00    -3200.00
01347             180.00    -3200.00
01348             480.00    -3800.00
01349            -100.00    -3400.00
01350              80.00    -3800.00
01351               0.00    -4200.00
01352            -180.00    -4200.00
01353             240.00    -4400.00
01354             -20.00    -4400.00
01355            -240.00    -4600.00
01356            -160.00    -5000.00
01357            -100.00    -4600.00
01358             -20.00    -5400.00
01359             -20.00    -5200.00
01360               0.00    -5600.00
01361             -80.00    -5600.00
01362             -60.00    -5800.00
01363              80.00    -6200.00
01364             -80.00    -6000.00
01365             -40.00    -6200.00
01366             -20.00    -6200.00
01367               0.00    -6400.00
01368             -80.00    -6800.00
01369            -120.00    -6800.00
01370               0.00    -7000.00
01371              20.00    -7000.00
01372             -60.00    -7200.00
01373             -20.00    -7400.00
01374             -20.00    -7400.00
01375             -60.00    -7600.00
01376             -20.00    -7600.00
01377             -20.00    -7800.00
01378            -100.00    -7800.00
01379             -80.00    -8000.00
01380             -20.00    -8200.00
01381             -20.00    -8200.00
01382             -60.00    -8400.00
01383             -20.00    -8400.00
01384               0.00    -8400.00
01385             -60.00    -8600.00
01386             -40.00    -8600.00
01387             -20.00    -8600.00
01388             -20.00    -8600.00
01389             -60.00    -9000.00
01390             -60.00    -9000.00
01391             -60.00    -9200.00
01392             -60.00    -9200.00
01393             -20.00    -9200.00
01394               0.00    -9200.00
01395             -20.00    -9400.00
01396             -80.00    -9400.00
01397             -80.00    -9400.00
01398             -60.00    -9400.00
01399             -60.00    -9400.00
01400             -20.00    -9600.00
01401               0.00    -9600.00
01402             -60.00    -9800.00
01403             -40.00    -9800.00
01404             -40.00    -9800.00
01405             -60.00    -9800.00
01406             -20.00    -9800.00
01407               0.00   -10000.00
01408             -20.00   -10000.00
01409             -60.00    -9800.00
01410             -60.00   -10000.00
01411             -60.00    -9800.00
01412             -40.00   -10000.00
01413             -20.00    -9800.00
01414             -20.00   -10000.00
01415             -20.00    -9800.00
01416             -20.00   -10000.00
01417             -20.00    -9800.00
01418             -20.00    -9800.00
01419             -20.00    -9800.00
01420             -20.00    -9800.00
01421             -20.00    -9800.00
01422             -20.00    -9800.00
01423             -20.00    -9600.00
01424             -20.00    -9600.00
01425             -20.00    -9600.00
01426               0.00    -9400.00
01427               0.00    -9400.00
01428               0.00    -9400.00
01429             -20.00    -9400.00
01430             -20.00    -9400.00
01431             -20.00    -9200.00
01432             -20.00    -9200.00
01433               0.00    -9000.00
01434               0.00    -9000.00
01435              20.00    -9000.00
01436               0.00    -9000.00
01437             -20.00    -8800.00
01438             -20.00    -8600.00
01439             -20.00    -8600.00
01440               0.00    -8600.00
01441              20.00    -8400.00
01442               0.00    -8400.00
01443               0.00    -8200.00
01444               0.00    -8200.00
01445               0.00    -8000.00
01446               0.00    -7800.00
01447              20.00    -7800.00
01448               0.00    -7600.00
01449               0.00    -7600.00
01450               0.00    -7400.00
01451               0.00    -7200.00
01452               0.00    -7000.00
01453              20.00    -7000.00
01454              20.00    -6800.00
01455               0.00    -6800.00
01456               0.00    -6600.00
01457               0.00    -6400.00
01458               0.00    -6600.00
01459               0.00    -6200.00
01460              20.00    -6200.00
01461               0.00    -6000.00
01462               0.00    -5800.00
01463               0.00    -5600.00
01464               0.00    -5400.00
01465               0.00    -5400.00
01466              20.00    -5200.00
01467              20.00    -5000.00
01468               0.00    -5000.00
01469               0.00    -4600.00
01470               0.00    -4600.00
01471               0.00    -4400.00
01472              20.00    -4200.00
01473              20.00    -4200.00
01474              20.00    -3800.00
01475              20.00    -3600.00
01476              20.00    -3400.00
01477               0.00    -3400.00
01478               0.00    -3000.00
01479              20.00    -3000.00
01480              60.00    -2800.00
01481              20.00    -2600.00
01482              20.00    -2600.00
01483              20.00    -2200.00
01484              20.00    -2000.00
01485              20.00    -2000.00
01486              40.00    -1800.00
01487              40.00    -1400.00
01488              60.00    -1200.00
01489              60.00    -1200.00
01490              20.00    -1000.00
01491              40.00     -600.00
01492              20.00     -600.00
01493              60.00     -400.00
01494              60.00     -200.00
01495              60.00     -200.00
01496              60.00      200.00
01497              80.00      200.00
01498             140.00      600.00
01499             180.00      600.00
01500             200.00      800.00
01501             160.00      800.00
01502             140.00     1000.00
01503             100.00     1200.00
01504             180.00     1400.00
01505             740.00     1800.00
01506            1240.00     2000.00
01507             500.00     2200.00
01508            -800.00     2000.00
01509           -1680.00     2200.00
01510           -1420.00     2600.00
01511             560.00     3000.00
01512             740.00     2800.00
01513             140.00     3000.00
01514             700.00     3400.00
01515             160.00     3400.00
01516            -160.00     4000.00
01517             100.00     3800.00
01518            -140.00     3800.00
01519             460.00     4600.00
01520             160.00     3800.00
01521            -260.00     4600.00
01522             180.00     4600.00
01523            -140.00     4600.00
01524               0.00     5200.00
01525             180.00     4800.00
01526              80.00     5400.00
01527              80.00     5600.00
01528             -40.00     5400.00
01529             180.00     6000.00
01530               0.00     5800.00
01531               0.00     6000.00
01532             140.00     6200.00
01533              60.00     6200.00
01534              60.00     6600.00
01535             -20.00     6200.00
01536              80.00     7000.00
01537              80.00     6800.00
01538              80.00     6800.00
01539              80.00     7400.00
01540              20.00     7400.00
01541              20.00     7400.00
01542              20.00     7400.00
01543             100.00     7600.00
01544              20.00     7800.00
01545              20.00     7800.00
01546               0.00     8000.00
01547              20.00     8200.00
01548              60.00     8200.00
01549              80.00     8200.00
01550              80.00     8600.00
01551             -20.00     8400.00
01552              20.00     8600.00
01553              60.00     8600.00
01554              60.00     8800.00
01555              60.00     8800.00
01556              60.00     9000.00
01557               0.00     9000.00
01558              20.00     9200.00
01559              80.00     9200.00
01560              80.00     9200.00
01561              60.00     9200.00
01562              20.00     9400.00
01563              20.00     9400.00
01564               0.00     9400.00
01565              20.00     9600.00
01566              60.00     9600.00
01567              60.00     9800.00
01568              60.00     9800.00
01569              60.00     9600.00
01570              20.00     9800.00
01571               0.00     9600.00
01572              40.00     9800.00
01573              80.00     9800.00
01574              40.00     9800.00
01575              20.00    10000.00
01576              60.00     9800.00
01577               0.00     9800.00
01578              20.00     9800.00
01579              40.00    10000.00
01580              60.00     9800.00
01581              20.00     9800.00
01582              20.00    10000.00
01583              40.00    10000.00
01584               0.00     9800.00
01585               0.00     9800.00
01586              60.00     9800.00
01587              60.00     9800.00
01588              20.00     9800.00
01589               0.00     9800.00
01590               0.00     9800.00
01591               0.00     9400.00
01592               0.00     9600.00
01593              20.00     9400.00
01594               0.00     9400.00
01595              20.00     9400.00
01596               0.00     9400.00
01597               0.00     9400.00
01598               0.00     9200.00
01599              20.00     9200.00
01600              20.00     9200.00
01601               0.00     9000.00
01602               0.00     9000.00
01603             -20.00     8600.00
01604               0.00     8800.00
01605               0.00     8600.00
01606               0.00     8600.00
01607               0.00     8600.00
01608               0.00     8400.00
01609             -20.00     8400.00
01610               0.00     8200.00
01611             -20.00     8200.00
01612             -20.00     8200.00
01613               0.00     7800.00
01614               0.00     7800.00
01615             -20.00     7600.00
01616             -20.00     7600.00
01617             -20.00     7400.00
01618             -20.00     7400.00
01619               0.00     7200.00
01620               0.00     7000.00
01621               0.00     6800.00
01622             -20.00     6800.00
01623             -20.00     6600.00
01624             -20.00     6600.00
01625             -20.00     6600.00
01626               0.00     6200.00
01627               0.00     6200.00
01628               0.00     6000.00
01629               0.00     5800.00
01630             -20.00     5800.00
01631             -20.00     5400.00
01632             -20.00     5400.00
01633               0.00     5200.00
01634               0.00     5000.00
01635             -20.00     4800.00
01636             -40.00     4600.00
01637             -40.00     4600.00
01638             -20.00     4400.00
01639             -20.00     4200.00
01640             -20.00     4000.00
01641             -20.00     3800.00
01642             -20.00     3600.00
01643             -20.00     3400.00
01644             -40.00     3400.00
01645             -20.00     3000.00
01646             -20.00     3000.00
01647             -20.00     3000.00
01648             -20.00     2600.00
01649             -20.00     2600.00
01650             -60.00     2200.00
01651             -20.00     2000.00
01652             -20.00     1800.00
01653             -20.00     1800.00
01654             -20.00     1600.00
01655             -20.00     1400.00
01656             -40.00     1200.00
01657             -60.00     1000.00
01658             -60.00      800.00
01659             -60.00      600.00
01660             -60.00      600.00
01661             -20.00      200.00
01662             -20.00      200.00
01663             -20.00     -200.00
01664             -20.00     -200.00
01665              20.00     -600.00
01666             100.00     -600.00
01667              80.00     -800.00
01668              60.00    -1000.00
01669               0.00    -1000.00
01670               0.00    -1200.00
01671               0.00    -1400.00
01672             160.00    -1400.00
01673             720.00    -1800.00
01674             940.00    -2200.00
01675             160.00    -2200.00
01676            -820.00    -2600.00
01677           -1340.00    -2600.00
01678           -1300.00    -2600.00
01679               0.00    -2800.00
01680             580.00    -3400.00
01681              20.00    -3000.00
01682             420.00    -3600.00
01683             220.00    -3600.00
01684            -140.00    -3400.00
01685             140.00    -4200.00
01686            -180.00    -3800.00
01687              60.00    -4400.00
01688             240.00    -4600.00
01689            -180.00    -4400.00
01690            -180.00    -5000.00
01691            -160.00    -4800.00
01692             -20.00    -5200.00
01693               0.00    -5400.00
01694              20.00    -5200.00
01695             -20.00    -5800.00
01696            -120.00    -5600.00
01697              20.00    -6000.00
01698               0.00    -6000.00
01699             -80.00    -6200.00
01700             -20.00    -6600.00
01701               0.00    -6200.00
01702             -20.00    -6600.00
01703            -140.00    -6800.00
01704             -80.00    -6800.00
01705              20.00    -7000.00
01706             -20.00    -7000.00
01707             -40.00    -7400.00
01708               0.00    -7200.00
01709             -20.00    -7600.00
01710             -60.00    -7800.00
01711             -20.00    -7600.00
01712             -60.00    -7800.00
01713            -100.00    -7800.00
01714             -60.00    -8200.00
01715               0.00    -8000.00
01716             -40.00    -8400.00
01717             -60.00    -8400.00
01718             -20.00    -8400.00
01719             -60.00    -8600.00
01720             -80.00    -8600.00
01721             -20.00    -8800.00
01722             -20.00    -8800.00
01723             -60.00    -9000.00
01724             -60.00    -9000.00
01725             -60.00    -9200.00
01726            -100.00    -9200.00
01727             -60.00    -9200.00
01728               0.00    -9200.00
01729               0.00    -9400.00
01730             -60.00    -9400.00
01731             -40.00    -9400.00
01732             -60.00    -9600.00
01733             -80.00    -9400.00
01734             -60.00    -9600.00
01735             -20.00    -9800.00
01736             -20.00    -9600.00
01737             -20.00    -9800.00
01738             -20.00    -9800.00
01739             -60.00    -9800.00
01740             -60.00    -9800.00
01741             -40.00    -9800.00
01742             -20.00    -9800.00
01743             -20.00    -9800.00
01744             -40.00    -9800.00
01745             -20.00    -9800.00
01746             -60.00    -9800.00
01747             -60.00    -9800.00
01748               0.00    -9800.00
01749               0.00    -9800.00
01750               0.00   -10000.00
01751             -20.00    -9800.00
01752             -20.00    -9800.00
01753             -40.00    -9800.00
01754             -20.00    -9600.00
01755               0.00    -9800.00
01756               0.00    -9800.00
01757             -20.00    -9600.00
01758               0.00    -9600.00
01759             -20.00    -9400.00
01760             -20.00    -9400.00
01761               0.00    -9400.00
01762               0.00    -9400.00
01763               0.00    -9400.00
01764             -20.00    -9200.00
01765             -20.00    -9200.00
01766             -20.00    -9200.00
01767             -20.00    -9000.00
01768               0.00    -9200.00
01769               0.00    -9000.00
01770               0.00    -9000.00
01771               0.00    -8800.00
01772               0.00    -8800.00
01773             -20.00    -8600.00
01774               0.00    -8600.00
01775              20.00    -8400.00
01776               0.00    -8400.00
01777               0.00    -8200.00
01778               0.00    -8200.00
01779               0.00    -8200.00
01780               0.00    -8000.00
01781              20.00    -7800.00
01782               0.00    -7600.00
01783               0.00    -7600.00
01784               0.00    -7400.00
01785             -20.00    -7200.00
01786               0.00    -7200.00
01787               0.00    -7000.00
01788              20.00    -7000.00
01789              20.00    -7000.00
01790               0.00    -6800.00
01791             -20.00    -6600.00
01792               0.00    -6600.00
01793               0.00    -6200.00
01794              20.00    -6200.00
01795              20.00    -6000.00
01796               0.00    -6000.00
01797               0.00    -5800.00
01798               0.00    -5600.00
01799               0.00    -5400.00
01800               0.00    -5200.00
01801              20.00    -5200.00
01802              20.00    -5000.00
01803              20.00    -5000.00
01804               0.00    -4600.00
01805               0.00    -4600.00
01806               0.00    -4400.00
01807              20.00    -4200.00
01808              20.00    -4000.00
01809              20.00    -3800.00
01810              40.00    -3600.00
01811               0.00    -3400.00
01812              20.00    -3200.00
01813              20.00    -3000.00
01814              20.00    -2800.00
01815              20.00    -2800.00
01816              20.00    -2600.00
01817              40.00    -2400.00
01818              20.00    -2200.00
01819              20.00    -2000.00
01820              20.00    -1800.00
01821              40.00    -1800.00
01822              60.00    -1400.00
01823              60.00    -1200.00
01824              20.00    -1200.00
01825              60.00    -1000.00
01826              60.00     -600.00
01827              40.00     -600.00
01828              60.00     -400.00
01829              60.00     -200.00
01830              60.00      200.00
01831              60.00      200.00
01832             100.00      200.00
01833             180.00      400.00
01834             200.00      800.00
01835             160.00     1000.00
01836             140.00     1000.00
01837             100.00     1200.00
01838             100.00     1400.00
01839             380.00     1600.00
01840            1120.00     2000.00
01841            1020.00     2200.00
01842            -140.00     2200.00
01843           -1280.00     2000.00
01844           -1820.00     2200.00
01845            -500.00     3000.00
01846            1020.00     2800.00
01847             280.00     2800.00
01848             400.00     3400.00
01849             580.00     3000.00
01850            -180.00     3600.00
01851              60.00     3800.00
01852             -60.00     3400.00
01853              60.00     4400.00
01854             500.00     4000.00
01855            -240.00     4200.00
01856             -20.00     5000.00
01857              80.00     4600.00
01858            -180.00     5000.00
01859             180.00     5000.00
01860             100.00     5000.00
01861             140.00     5800.00
01862             -20.00     5200.00
01863              60.00     5800.00
01864             180.00     6000.00
01865             -60.00     5800.00
01866              80.00     6200.00
01867              80.00     6000.00
01868              60.00     6600.00
01869               0.00     6600.00
01870               0.00     6600.00
01871             100.00     7000.00
01872              80.00     6800.00
01873             140.00     7200.00
01874              60.00     7000.00
01875              60.00     7400.00
01876               0.00     7400.00
01877              80.00     7800.00
01878              80.00     7600.00
01879              20.00     7800.00
01880              40.00     8000.00
01881              20.00     8000.00
01882              60.00     8200.00
01883              80.00     8200.00
01884             100.00     8400.00
01885              20.00     8400.00
01886               0.00     8400.00
01887              60.00     8600.00
01888              60.00     8600.00
01889              60.00     9000.00
01890              40.00     9000.00
01891              40.00     9000.00
01892               0.00     9000.00
01893              60.00     9000.00
01894              80.00     9200.00
01895              80.00     9200.00
01896              20.00     9200.00
01897              40.00     9400.00
01898              20.00     9400.00
01899               0.00     9400.00
01900              20.00     9400.00
01901              60.00     9600.00
01902              60.00     9800.00
01903              60.00     9800.00
01904              60.00     9800.00
01905               0.00     9800.00
01906               0.00     9800.00
01907              60.00    10000.00
01908              60.00     9800.00
01909              20.00     9800.00
01910              20.00     9800.00
01911              20.00     9800.00
01912              20.00    10000.00
01913              20.00     9800.00
01914              20.00    10000.00
01915              20.00     9800.00
01916              20.00     9800.00
01917              20.00     9800.00
01918              20.00     9800.00
01919               0.00    10000.00
01920               0.00     9800.00
01921               0.00     9800.00
01922              20.00     9800.00
01923               0.00     9600.00
01924              20.00     9600.00
01925               0.00     9400.00
01926               0.00     9600.00
01927              20.00     9800.00
01928               0.00     9400.00
01929               0.00     9400.00
01930              20.00     9400.00
01931               0.00     9400.00
01932             -20.00     9200.00
01933               0.00     9400.00
01934               0.00     9200.00
01935              20.00     9000.00
01936               0.00     9000.00
01937               0.00     9000.00
01938               0.00     8800.00
01939             -20.00     8600.00
01940               0.00     8600.00
01941               0.00     8600.00
01942               0.00     8400.00
01943               0.00     8400.00
01944               0.00     8200.00
01945             -20.00     8200.00
01946               0.00     8200.00
01947               0.00     8000.00
01948               0.00     7800.00
01949               0.00     7800.00
01950               0.00     7600.00
01951             -20.00     7400.00
01952             -20.00     7400.00
01953             -20.00     7200.00
01954               0.00     7200.00
01955               0.00     7000.00
01956             -20.00     6800.00
01957             -20.00     6800.00
01958               0.00     6600.00
01959             -20.00     6400.00
01960               0.00     6200.00
01961             -20.00     6200.00
01962               0.00     6000.00
01963             -20.00     6000.00
01964               0.00     5800.00
01965             -20.00     5600.00
01966             -20.00     5400.00
01967             -20.00     5400.00
01968             -20.00     5200.00
01969             -20.00     5000.00
01970             -20.00     4800.00
01971             -20.00     4600.00
01972             -20.00     4400.00
01973             -20.00     4400.00
01974             -20.00     4200.00
01975             -20.00     4000.00
01976             -20.00     3800.00
01977             -20.00     3600.00
01978               0.00     3400.00
01979             -40.00     3400.00
01980             -40.00     3200.00
01981             -20.00     3000.00
01982             -20.00     2800.00
01983             -20.00     2400.00
01984             -60.00     2400.00
01985             -60.00     2200.00
01986             -60.00     2000.00
01987             -20.00     1800.00
01988             -20.00     1800.00
01989             -20.00     1400.00
01990             -20.00     1200.00
01991             -60.00     1200.00
01992             -60.00     1000.00
01993             -60.00      800.00
01994             -40.00      400.00
01995             -20.00      400.00
01996             -60.00      200.00
01997             -40.00        0.00
01998             -20.00     -200.00
01999               0.00     -400.00
02000             100.00     -400.00
02001             100.00     -600.00
02002              80.00     -800.00
02003               0.00    -1000.00
02004               0.00    -1200.00
02005             -20.00    -1400.00
02006              60.00    -1600.00
02007             380.00    -1800.00
02008             940.00    -2000.00
02009             660.00    -2400.00
02010            -360.00    -2400.00
02011           -1100.00    -2600.00
02012           -1440.00    -2600.00
02013            -800.00    -2400.00
02014             540.00    -3000.00
02015             240.00    -3200.00
02016             180.00    -3000.00
02017             480.00    -3800.00
02018             -60.00    -3400.00
02019              60.00    -3800.00
02020               0.00    -4200.00
02021            -180.00    -3800.00
02022             240.00    -4400.00
02023               0.00    -4400.00
02024            -240.00    -4600.00
02025            -140.00    -5000.00
02026            -100.00    -4600.00
02027               0.00    -5400.00
02028             -20.00    -5400.00
02029              20.00    -5400.00
02030             -80.00    -5800.00
02031             -80.00    -5800.00
02032              80.00    -6000.00
02033             -80.00    -5800.00
02034             -60.00    -6200.00
02035             -20.00    -6200.00
02036               0.00    -6200.00
02037             -60.00    -6800.00
02038            -140.00    -6600.00
02039               0.00    -6800.00
02040               0.00    -7000.00
02041             -40.00    -7200.00
02042             -60.00    -7400.00
02043             -20.00    -7200.00
02044             -40.00    -7600.00
02045             -20.00    -7400.00
02046             -60.00    -7800.00
02047            -100.00    -8000.00
02048            -100.00    -8200.00
02049             -20.00    -8200.00
02050             -20.00    -8200.00
02051             -60.00    -8400.00
02052             -20.00    -8400.00
02053             -20.00    -8600.00
02054             -80.00    -8600.00
02055             -80.00    -8600.00
02056             -20.00    -8600.00
02057             -20.00    -9000.00
02058             -60.00    -9000.00
02059             -60.00    -9000.00
02060             -40.00    -9000.00
02061             -60.00    -9200.00
02062             -20.00    -9200.00
02063               0.00    -9200.00
02064             -40.00    -9400.00
02065             -60.00    -9400.00
02066             -60.00    -9400.00
02067             -60.00    -9400.00
02068             -60.00    -9600.00
02069             -20.00    -9600.00
02070             -20.00    -9600.00
02071             -60.00    -9800.00
02072             -60.00    -9600.00
02073             -60.00    -9800.00
02074             -60.00    -9800.00
02075             -20.00    -9800.00
02076             -20.00    -9800.00
02077               0.00    -9800.00
02078             -60.00   -10000.00
02079             -60.00    -9800.00
02080             -40.00    -9800.00
02081             -60.00   -10000.00
02082             -20.00    -9800.00
02083             -20.00    -9800.00
02084             -20.00   -10000.00
02085             -20.00    -9800.00
02086             -20.00    -9800.00
02087             -40.00    -9800.00
02088             -20.00    -9800.00
02089               0.00    -9800.00
02090               0.00    -9800.00
02091             -20.00    -9600.00
02092             -20.00    -9600.00
02093             -20.00    -9600.00
02094             -40.00    -9600.00
02095             -20.00    -9400.00
02096               0.00    -9400.00
02097               0.00    -9400.00
02098               0.00    -9400.00
02099             -20.00    -9400.00
02100             -20.00    -9200.00
02101             -20.00    -9400.00
02102               0.00    -9000.00
02103               0.00    -9000.00
02104               0.00    -9000.00
02105             -20.00    -9000.00
02106             -20.00    -8600.00
02107               0.00    -8600.00
02108             -20.00    -8600.00
02109               0.00    -8400.00
02110               0.00    -8400.00
02111               0.00    -8400.00
02112             -20.00    -8200.00
02113             -20.00    -8200.00
02114               0.00    -8000.00
02115               0.00    -8000.00
02116               0.00    -7800.00
02117               0.00    -7600.00
02118               0.00    -7600.00
02119               0.00    -7400.00
02120               0.00    -7200.00
02121               0.00    -7200.00
02122               0.00    -7000.00
02123              20.00    -7000.00
02124               0.00    -6800.00
02125               0.00    -6600.00
02126               0.00    -6600.00
02127               0.00    -6400.00
02128               0.00    -6200.00
02129               0.00    -6000.00
02130              20.00    -6000.00
02131               0.00    -5800.00
02132               0.00    -5800.00
02133               0.00    -5400.00
02134               0.00    -5400.00
02135              20.00    -5200.00
02136              20.00    -5000.00
02137              20.00    -5000.00
02138               0.00    -4600.00
02139               0.00    -4600.00
02140               0.00    -4400.00
02141              20.00    -4200.00
02142              20.00    -4200.00
02143              20.00    -3800.00
02144              20.00    -3800.00
02145              20.00    -3400.00
02146               0.00    -3400.00
02147               0.00    -3200.00
02148              20.00    -3000.00
02149              40.00    -2800.00
02150              20.00    -2600.00
02151              40.00    -2600.00
02152              20.00    -2200.00
02153              20.00    -2000.00
02154              20.00    -2000.00
02155              60.00    -1800.00
02156              60.00    -1400.00
02157              40.00    -1400.00
02158              60.00    -1200.00
02159              20.00     -800.00
02160              40.00     -800.00
02161              60.00     -600.00
02162              60.00     -400.00
02163              60.00     -400.00
02164              60.00        0.00
02165              60.00      200.00
02166              60.00      400.00
02167             140.00      400.00
02168             180.00      600.00
02169             180.00      800.00
02170             160.00     1000.00
02171             120.00     1000.00
02172              80.00     1200.00
02173             160.00     1400.00
02174             720.00     1800.00
02175            1260.00     2000.00
02176             540.00     2000.00
02177            -780.00     2200.00
02178           -1680.00     2000.00
02179           -1460.00     2600.00
02180             480.00     3000.00
02181             780.00     2800.00
02182             100.00     3000.00
02183             660.00     3200.00
02184             180.00     3400.00
02185            -180.00     4200.00
02186             100.00     3600.00
02187            -160.00     3800.00
02188             400.00     4600.00
02189             180.00     3800.00
02190            -300.00     4600.00
02191             160.00     5000.00
02192            -100.00     4600.00
02193               0.00     5200.00
02194             180.00     4800.00
02195              80.00     5600.00
02196             100.00     5600.00
02197             -60.00     5400.00
02198             180.00     6000.00
02199              20.00     5600.00
02200               0.00     6200.00
02201             140.00     6200.00
02202              60.00     6200.00
02203              80.00     6600.00
02204             -40.00     6400.00
02205              60.00     7000.00
02206             100.00     7000.00
02207             100.00     6800.00
02208             100.00     7200.00
02209              60.00     7200.00
02210              20.00     7400.00
02211              20.00     7400.00
02212             100.00     7800.00
02213              20.00     7800.00
02214              20.00     7800.00
02215              20.00     8200.00
02216              40.00     8200.00
02217              80.00     8200.00
02218              80.00     8200.00
02219              80.00     8600.00
02220               0.00     8400.00
02221              40.00     8600.00
02222              60.00     8600.00
02223              60.00     8600.00
02224              60.00     8800.00
02225              20.00     9000.00
02226               0.00     9000.00
02227              20.00     9200.00
02228              80.00     9200.00
02229              80.00     9400.00
02230              60.00     9400.00
02231              20.00     9200.00
02232              60.00     9400.00
02233              20.00     9400.00
02234              20.00     9600.00
02235              40.00     9600.00
02236              60.00     9800.00
02237              60.00     9800.00
02238              60.00     9800.00
02239              40.00     9800.00
02240               0.00     9600.00
02241              20.00     9800.00
02242              60.00     9800.00
02243               0.00     9800.00
02244              20.00     9800.00
02245              20.00    10000.00
02246               0.00     9800.00
02247               0.00    10000.00
02248              20.00     9800.00
02249              60.00     9800.00
02250              20.00     9800.00
02251              40.00     9800.00
02252               0.00    10000.00
02253               0.00     9800.00
02254               0.00    10000.00
02255              40.00     9800.00
02256              20.00     9800.00
02257               0.00     9800.00
02258               0.00     9600.00
02259               0.00     9800.00
02260               0.00     9800.00
02261              20.00     9600.00
02262              20.00     9600.00
02263              20.00     9400.00
02264               0.00     9400.00
02265               0.00     9400.00
02266               0.00     9400.00
02267               0.00     9200.00
02268              20.00     9200.00
02269               0.00     9200.00
02270               0.00     9000.00
02271               0.00     9000.00
02272               0.00     9000.00
02273               0.00     8600.00
02274               0.00     8600.00
02275               0.00     8600.00
02276               0.00     8600.00
02277             -20.00     8600.00
02278               0.00     8200.00
02279               0.00     8200.00
02280               0.00     8200.00
02281             -20.00     8000.00
02282               0.00     7800.00
02283               0.00     7800.00
02284               0.00     7600.00
02285               0.00     7400.00
02286             -20.00     7400.00
02287             -20.00     7400.00
02288               0.00     7000.00
02289               0.00     7000.00
02290               0.00     6800.00
02291             -20.00     6800.00
02292             -20.00     6600.00
02293             -20.00     6600.00
02294             -20.00     6600.00
02295               0.00     6200.00
02296               0.00     6000.00
02297             -20.00     6000.00
02298             -20.00     5800.00
02299             -20.00     5800.00
02300             -20.00     5400.00
02301             -20.00     5200.00
02302               0.00     5200.00
02303             -20.00     5000.00
02304             -20.00     5000.00
02305             -40.00     4600.00
02306             -20.00     4600.00
02307             -20.00     4400.00
02308             -20.00     4200.00
02309             -40.00     4000.00
02310             -40.00     3800.00
02311             -20.00     3600.00
02312             -20.00     3600.00
02313             -20.00     3400.00
02314             -40.00     3400.00
02315             -20.00     3000.00
02316             -20.00     3000.00
02317             -20.00     2600.00
02318             -60.00     2600.00
02319             -60.00     2200.00
02320             -60.00     2000.00
02321             -60.00     1800.00
02322             -20.00     1800.00
02323             -20.00     1800.00
02324             -40.00     1400.00
02325             -20.00     1200.00
02326             -40.00     1000.00
02327             -60.00      800.00
02328             -60.00      600.00
02329             -60.00      400.00
02330             -20.00      400.00
02331             -60.00      200.00
02332             -20.00        0.00
02333             -20.00     -200.00
02334              20.00     -400.00
02335             100.00     -600.00
02336             100.00     -600.00
02337              60.00    -1000.00
02338               0.00    -1000.00
02339               0.00    -1200.00
02340               0.00    -1400.00
02341             160.00    -1600.00
02342             700.00    -1800.00
02343             960.00    -2200.00
02344             180.00    -2400.00
02345            -800.00    -2600.00
02346           -1300.00    -2600.00
02347           -1340.00    -2600.00
02348             -20.00    -2600.00
02349             580.00    -3400.00
02350              60.00    -3000.00
02351             420.00    -3600.00
02352             240.00    -3600.00
02353            -100.00    -3400.00
02354             140.00    -4200.00
02355            -160.00    -4000.00
02356              20.00    -4200.00
02357             240.00    -4400.00
02358            -180.00    -4400.00
02359            -180.00    -5000.00
02360            -160.00    -4800.00
02361             -20.00    -5200.00
02362             -20.00    -5600.00
02363             -20.00    -5200.00
02364             -20.00    -5800.00
02365            -100.00    -5600.00
02366              20.00    -6000.00
02367              20.00    -6000.00
02368             -80.00    -6000.00
02369             -20.00    -6600.00
02370             -20.00    -6200.00
02371               0.00    -6600.00
02372            -140.00    -6800.00
02373            -100.00    -6800.00
02374               0.00    -7000.00
02375             -20.00    -7000.00
02376             -60.00    -7400.00
02377             -20.00    -7200.00
02378             -20.00    -7600.00
02379             -80.00    -7600.00
02380             -20.00    -7800.00
02381             -40.00    -7800.00
02382            -100.00    -8200.00
02383             -80.00    -8200.00
02384               0.00    -8200.00
02385             -60.00    -8400.00
02386             -40.00    -8400.00
02387             -20.00    -8400.00
02388             -60.00    -8600.00
02389             -80.00    -8600.00
02390             -60.00    -8800.00
02391             -20.00    -9000.00
02392             -60.00    -9000.00
02393             -60.00    -9000.00
02394             -60.00    -9200.00
02395             -80.00    -9200.00
02396             -60.00    -9200.00
02397               0.00    -9200.00
02398             -20.00    -9400.00
02399             -60.00    -9400.00
02400             -60.00    -9400.00
02401             -80.00    -9600.00
02402             -60.00    -9400.00
02403             -20.00    -9600.00
02404             -20.00    -9800.00
02405               0.00    -9800.00
02406             -60.00    -9800.00
02407             -40.00    -9800.00
02408             -60.00    -9800.00
02409             -40.00    -9800.00
02410             -20.00    -9800.00
02411               0.00    -9800.00
02412             -20.00    -9800.00
02413             -60.00    -9800.00
02414             -20.00    -9800.00
02415             -20.00    -9800.00
02416             -20.00    -9800.00
02417               0.00    -9800.00
02418               0.00    -9800.00
02419             -20.00    -9800.00
02420             -20.00    -9800.00
02421             -20.00    -9800.00
02422             -20.00    -9800.00
02423             -20.00    -9800.00
02424               0.00    -9800.00
02425               0.00    -9800.00
02426             -20.00    -9800.00
02427             -20.00    -9600.00
02428             -20.00    -9400.00
02429             -20.00    -9400.00
02430               0.00    -9400.00
02431               0.00    -9400.00
02432               0.00    -9400.00
02433               0.00    -9200.00
02434             -20.00    -9400.00
02435             -20.00    -9200.00
02436             -20.00    -9000.00
02437               0.00    -9200.00
02438               0.00    -9000.00
02439               0.00    -9000.00
02440             -20.00    -9000.00
02441             -60.00    -9000.00
02442             -20.00    -8600.00
02443             -20.00    -8600.00
02444               0.00    -8400.00
02445              20.00    -8400.00
02446             -20.00    -8400.00
02447             -20.00    -8200.00
02448             -20.00    -8200.00
02449               0.00    -8000.00
02450               0.00    -7800.00
02451              20.00    -7800.00
02452               0.00    -7600.00
02453               0.00    -7400.00
02454             -20.00    -7400.00
02455             -20.00    -7200.00
02456               0.00    -7000.00
02457               0.00    -7000.00
02458               0.00    -6800.00
02459               0.00    -6800.00
02460               0.00    -6600.00
02461               0.00    -6600.00
02462               0.00    -6400.00
02463               0.00    -6200.00
02464              20.00    -6000.00
02465              20.00    -5800.00
02466               0.00    -5800.00
02467               0.00    -5400.00
02468               0.00    -5600.00
02469              20.00    -5200.00
02470              20.00    -5200.00
02471              20.00    -5000.00
02472              20.00    -4800.00
02473              20.00    -4600.00
02474               0.00    -4600.00
02475               0.00    -4200.00
02476              20.00    -4200.00
02477              20.00    -4000.00
02478              60.00    -3800.00
02479              20.00    -3600.00
02480              20.00    -3400.00
02481              20.00    -3400.00
02482              20.00    -3000.00
02483              20.00    -2800.00
02484              60.00    -2800.00
02485              60.00    -2600.00
02486              20.00    -2600.00
02487              20.00    -2200.00
02488              20.00    -2000.00
02489              20.00    -1800.00
02490              60.00    -1800.00
02491              60.00    -1400.00
02492              40.00    -1400.00
02493              20.00    -1000.00
02494              20.00     -800.00
02495              40.00     -800.00
02496              60.00     -600.00
02497              60.00     -600.00
02498              60.00     -200.00
02499              80.00        0.00
02500              60.00      200.00
02501              80.00      400.00
02502             160.00      400.00
02503             220.00      600.00
02504             160.00      800.00
02505             120.00     1000.00
02506             100.00     1200.00
02507              80.00     1200.00
02508             320.00     1400.00
02509            1100.00     1800.00
02510            1060.00     1800.00
02511             -80.00     2200.00
02512           -1280.00     2200.00
02513           -1840.00     2200.00
02514            -580.00     2800.00
02515             980.00     2800.00
02516             300.00     2800.00
02517             380.00     3400.00
02518             620.00     3000.00
02519            -160.00     3600.00
02520              60.00     3800.00
02521             -60.00     3400.00
02522              60.00     4400.00
02523             520.00     4200.00
02524            -220.00     4200.00
02525             -60.00     4800.00
02526             120.00     4400.00
02527            -180.00     5000.00
02528             180.00     5000.00
02529             140.00     5000.00
02530             120.00     5800.00
02531               0.00     5200.00
02532              60.00     5800.00
02533             180.00     5800.00
02534             -60.00     5800.00
02535              80.00     6200.00
02536              80.00     6000.00
02537              60.00     6600.00
02538               0.00     6600.00
02539             -20.00     6600.00
02540             100.00     7000.00
02541              80.00     6600.00
02542             120.00     7200.00
02543              80.00     7000.00
02544              40.00     7400.00
02545               0.00     7400.00
02546              80.00     7600.00
02547             100.00     7800.00
02548              20.00     7800.00
02549              60.00     8200.00
02550              20.00     8000.00
02551              80.00     8200.00
02552              60.00     8200.00
02553             120.00     8400.00
02554              20.00     8400.00
02555               0.00     8400.00
02556              60.00     8600.00
02557              60.00     8800.00
02558              60.00     9000.00
02559              20.00     9000.00
02560              20.00     9000.00
02561               0.00     9000.00
02562              60.00     9200.00
02563              80.00     9200.00
02564              60.00     9200.00
02565              40.00     9200.00
02566              20.00     9400.00
02567              40.00     9400.00
02568               0.00     9400.00
02569              20.00     9600.00
02570              60.00     9400.00
02571              60.00     9800.00
02572              60.00     9600.00
02573              20.00     9800.00
02574               0.00     9800.00
02575               0.00     9800.00
02576              40.00     9800.00
02577              40.00     9800.00
02578              20.00     9800.00
02579              20.00     9800.00
02580               0.00     9800.00
02581               0.00    10000.00
02582               0.00     9800.00
02583              20.00     9800.00
02584              60.00     9800.00
02585              20.00     9800.00
02586              20.00     9800.00
02587               0.00     9800.00
02588             -20.00     9800.00
02589               0.00    10000.00
02590              20.00     9800.00
02591              20.00     9800.00
02592              20.00     9600.00
02593               0.00     9600.00
02594               0.00     9600.00
02595               0.00     9600.00
02596               0.00     9400.00
02597               0.00     9400.00
02598              20.00     9400.00
02599              20.00     9400.00
02600               0.00     9400.00
02601               0.00     9400.00
02602               0.00     9200.00
02603               0.00     9200.00
02604              20.00     9200.00
02605              20.00     9000.00
02606               0.00     9000.00
02607               0.00     9000.00
02608               0.00     8800.00
02609               0.00     8600.00
02610               0.00     8600.00
02611               0.00     8400.00
02612               0.00     8400.00
02613               0.00     8400.00
02614               0.00     8200.00
02615               0.00     8200.00
02616               0.00     8200.00
02617               0.00     7800.00
02618               0.00     7800.00
02619               0.00     7600.00
02620             -20.00     7400.00
02621             -20.00     7400.00
02622               0.00     7200.00
02623               0.00     7000.00
02624               0.00     7000.00
02625               0.00     7000.00
02626             -20.00     6800.00
02627             -20.00     6600.00
02628             -20.00     6400.00
02629             -20.00     6400.00
02630             -20.00     6000.00
02631               0.00     6200.00
02632             -20.00     5800.00
02633             -20.00     5800.00
02634             -20.00     5600.00
02635             -20.00     5600.00
02636             -20.00     5200.00
02637             -20.00     5200.00
02638               0.00     5000.00
02639             -20.00     4800.00
02640             -20.00     4600.00
02641             -60.00     4400.00
02642             -40.00     4400.00
02643             -20.00     4200.00
02644             -20.00     4000.00
02645             -40.00     3800.00
02646             -20.00     3600.00
02647             -20.00     3400.00
02648             -60.00     3200.00
02649             -20.00     3000.00
02650             -20.00     3000.00
02651             -20.00     2800.00
02652             -40.00     2600.00
02653             -20.00     2400.00
02654             -60.00     2200.00
02655             -60.00     2000.00
02656             -20.00     1800.00
02657             -40.00     1600.00
02658             -20.00     1400.00
02659             -60.00     1400.00
02660             -20.00     1000.00
02661             -60.00     1000.00
02662             -60.00      600.00
02663             -60.00      600.00
02664             -20.00      400.00
02665             -20.00      200.00
02666             -20.00      200.00
02667             -20.00     -200.00
02668               0.00     -400.00
02669              80.00     -400.00
02670             100.00     -600.00
02671              80.00     -600.00
02672              20.00    -1000.00
02673               0.00    -1000.00
02674               0.00    -1400.00
02675              60.00    -1400.00
02676             380.00    -1600.00
02677             940.00    -2000.00
02678             700.00    -2200.00
02679            -320.00    -2600.00
02680           -1100.00    -2600.00
02681           -1440.00    -2600.00
02682            -860.00    -2400.00
02683             500.00    -3000.00
02684             300.00    -3000.00
02685             160.00    -3000.00
02686             480.00    -3600.00
02687             -60.00    -3400.00
02688              60.00    -3600.00
02689              20.00    -4200.00
02690            -180.00    -4200.00
02691             220.00    -4600.00
02692              40.00    -4200.00
02693            -260.00    -4800.00
02694            -160.00    -5000.00
02695            -140.00    -4600.00
02696             -20.00    -5400.00
02697             -20.00    -5400.00
02698              20.00    -5400.00
02699             -80.00    -5800.00
02700             -80.00    -5800.00
02701              60.00    -6200.00
02702             -60.00    -6000.00
02703             -60.00    -6200.00
02704             -20.00    -6400.00
02705             -20.00    -6400.00
02706             -80.00    -6600.00
02707            -140.00    -6800.00
02708             -20.00    -7000.00
02709              20.00    -7000.00
02710             -60.00    -7200.00
02711             -60.00    -7200.00
02712             -20.00    -7400.00
02713             -80.00    -7600.00
02714             -60.00    -7800.00
02715             -20.00    -7600.00
02716            -100.00    -7800.00
02717            -100.00    -8200.00
02718             -40.00    -8200.00
02719             -20.00    -8200.00
02720             -60.00    -8400.00
02721             -20.00    -8600.00
02722             -20.00    -8600.00
02723             -80.00    -8600.00
02724             -80.00    -8600.00
02725             -20.00    -8800.00
02726             -20.00    -9000.00
02727             -80.00    -9000.00
02728             -60.00    -9000.00
02729             -60.00    -9200.00
02730             -60.00    -9200.00
02731             -20.00    -9200.00
02732               0.00    -9200.00
02733             -20.00    -9400.00
02734             -60.00    -9400.00
02735             -60.00    -9400.00
02736             -60.00    -9600.00
02737             -60.00    -9400.00
02738             -20.00    -9600.00
02739               0.00    -9600.00
02740             -40.00    -9800.00
02741             -20.00    -9800.00
02742             -20.00    -9800.00
02743             -60.00    -9800.00
02744             -40.00    -9800.00
02745             -20.00    -9800.00
02746             -20.00    -9800.00
02747             -60.00    -9800.00
02748             -20.00    -9800.00
02749             -20.00   -10000.00
02750             -60.00    -9800.00
02751             -20.00   -10000.00
02752             -20.00    -9800.00
02753             -20.00    -9800.00
02754             -20.00   -10000.00
02755             -20.00    -9800.00
02756             -20.00    -9800.00
02757             -20.00    -9800.00
02758             -20.00    -9800.00
02759               0.00    -9800.00
02760             -20.00    -9600.00
02761             -20.00    -9800.00
02762             -20.00    -9600.00
02763             -20.00    -9400.00
02764             -20.00    -9600.00
02765               0.00    -9400.00
02766               0.00    -9400.00
02767             -20.00    -9400.00
02768             -20.00    -9400.00
02769             -20.00    -9200.00
02770             -20.00    -9200.00
02771             -20.00    -9200.00
02772               0.00    -9000.00
02773               0.00    -9000.00
02774             -20.00    -9000.00
02775             -20.00    -8800.00
02776             -20.00    -8600.00
02777             -20.00    -8800.00
02778               0.00    -8600.00
02779               0.00    -8400.00
02780             -20.00    -8400.00
02781             -20.00    -8400.00
02782               0.00    -8200.00
02783             -20.00    -8200.00
02784               0.00    -8200.00
02785               0.00    -7800.00
02786               0.00    -7600.00
02787               0.00    -7400.00
02788             -20.00    -7400.00
02789               0.00    -7200.00
02790               0.00    -7200.00
02791              20.00    -7000.00
02792              20.00    -6800.00
02793               0.00    -6800.00
02794               0.00    -6800.00
02795               0.00    -6600.00
02796               0.00    -6600.00
02797               0.00    -6200.00
02798              20.00    -6200.00
02799              20.00    -6000.00
02800              20.00    -5800.00
02801              20.00    -5800.00
02802               0.00    -5400.00
02803               0.00    -5400.00
02804               0.00    -5400.00
02805              20.00    -5000.00
02806              20.00    -4800.00
02807              20.00    -4800.00
02808               0.00    -4400.00
02809               0.00    -4400.00
02810              20.00    -4200.00
02811              20.00    -3800.00
02812              40.00    -3800.00
02813              20.00    -3600.00
02814              20.00    -3600.00
02815               0.00    -3400.00
02816              20.00    -3000.00
02817              40.00    -3000.00
02818              40.00    -2800.00
02819              60.00    -2600.00
02820              20.00    -2600.00
02821               0.00    -2200.00
02822              20.00    -2200.00
02823              20.00    -1800.00
02824              60.00    -1800.00
02825              60.00    -1800.00
02826              60.00    -1400.00
02827              20.00    -1200.00
02828              20.00    -1000.00
02829              40.00     -800.00
02830              20.00     -600.00
02831              60.00     -600.00
02832              60.00     -200.00
02833              60.00     -200.00
02834              60.00        0.00
02835              60.00      200.00
02836             120.00      600.00
02837             180.00      600.00
02838             180.00      800.00
02839             140.00     1000.00
02840             120.00     1000.00
02841              80.00     1200.00
02842             160.00     1400.00
02843             660.00     1800.00
02844            1260.00     2000.00
02845             580.00     2000.00
02846            -740.00     2200.00
02847           -1660.00     2000.00
02848           -1520.00     2600.00
02849             400.00     3000.00
02850             800.00     2800.00
02851             100.00     3000.00
02852             660.00     3200.00
02853             220.00     3400.00
02854            -200.00     4200.00
02855             100.00     3600.00
02856            -160.00     3800.00
02857             400.00     4600.00
02858             220.00     3800.00
02859            -300.00     4600.00
02860             160.00     5000.00
02861            -100.00     4600.00
02862             -20.00     5200.00
02863             180.00     5000.00
02864              80.00     5600.00
02865              80.00     5400.00
02866             -60.00     5400.00
02867             180.00     6000.00
02868              60.00     5800.00
02869               0.00     6000.00
02870             140.00     6200.00
02871              60.00     6200.00
02872              80.00     6600.00
02873             -20.00     6200.00
02874              80.00     6800.00
02875             100.00     6800.00
02876             100.00     7000.00
02877             100.00     7400.00
02878              60.00     7200.00
02879              20.00     7600.00
02880              20.00     7400.00
02881             120.00     7800.00
02882              20.00     7600.00
02883              40.00     7800.00
02884              20.00     8200.00
02885              40.00     8200.00
02886              80.00     8200.00
02887              80.00     8400.00
02888              80.00     8400.00
02889              20.00     8400.00
02890              20.00     8600.00
02891              60.00     8600.00
02892              60.00     9000.00
02893              60.00     8800.00
02894              20.00     9000.00
02895               0.00     9000.00
02896               0.00     9000.00
02897              80.00     9200.00
02898              60.00     9400.00
02899              60.00     9200.00
02900              20.00     9200.00
02901              20.00     9400.00
02902               0.00     9400.00
02903              20.00     9600.00
02904              40.00     9400.00
02905              40.00     9600.00
02906              60.00     9800.00
02907              60.00     9600.00
02908              20.00     9800.00
02909               0.00     9800.00
02910              20.00     9800.00
02911              60.00     9800.00
02912              20.00     9800.00
02913              20.00     9800.00
02914              20.00     9800.00
02915               0.00     9800.00
02916               0.00     9800.00
02917              20.00    10000.00
02918              20.00     9800.00
02919              20.00    10000.00
02920              20.00     9800.00
02921              20.00     9800.00
02922               0.00     9800.00
02923               0.00     9800.00
02924              20.00     9800.00
02925              40.00     9600.00
02926              20.00     9800.00
02927              20.00     9800.00
02928               0.00     9800.00
02929               0.00     9400.00
02930               0.00     9600.00
02931              20.00     9400.00
02932              20.00     9400.00
02933              20.00     9400.00
02934               0.00     9400.00
02935               0.00     9200.00
02936               0.00     9200.00
02937               0.00     9200.00
02938               0.00     9200.00
02939              20.00     9000.00
02940               0.00     9000.00
02941               0.00     8800.00
02942               0.00     8800.00
02943               0.00     8600.00
02944               0.00     8600.00
02945              20.00     8600.00
02946               0.00     8600.00
02947               0.00     8400.00
02948               0.00     8200.00
02949             -20.00     8000.00
02950               0.00     8000.00
02951               0.00     7800.00
02952              20.00     7800.00
02953               0.00     7600.00
02954               0.00     7400.00
02955             -20.00     7400.00
02956             -20.00     7400.00
02957               0.00     7200.00
02958               0.00     7000.00
02959               0.00     6800.00
02960               0.00     6800.00
02961             -20.00     6600.00
02962             -20.00     6600.00
02963             -20.00     6400.00
02964             -20.00     6200.00
02965               0.00     6000.00
02966             -20.00     6000.00
02967             -20.00     5800.00
02968             -20.00     5800.00
02969             -20.00     5600.00
02970             -60.00     5200.00
02971             -20.00     5200.00
02972             -20.00     5000.00
02973             -20.00     5000.00
02974             -20.00     4800.00
02975             -60.00     4600.00
02976             -20.00     4400.00
02977             -20.00     4200.00
02978             -40.00     4200.00
02979             -20.00     3800.00
02980             -20.00     3800.00
02981             -20.00     3600.00
02982             -20.00     3400.00
02983             -40.00     3200.00
02984             -20.00     3000.00
02985             -20.00     2800.00
02986             -20.00     2800.00
02987             -20.00     2400.00
02988             -60.00     2200.00
02989             -20.00     2000.00
02990             -40.00     2000.00
02991             -20.00     1800.00
02992             -20.00     1400.00
02993             -40.00     1400.00
02994             -20.00     1200.00
02995             -20.00     1000.00
02996             -20.00      800.00
02997             -60.00      600.00
02998             -40.00      400.00
02999             -20.00      400.00
03000             -20.00      200.00
03001             -20.00        0.00
03002             -20.00     -400.00
03003              60.00     -400.00
03004             100.00     -600.00
03005             100.00     -800.00
03006              60.00     -800.00
03007              20.00    -1200.00
03008               0.00    -1200.00
03009               0.00    -1400.00
03010             140.00    -1400.00
03011             660.00    -1800.00
03012             960.00    -2200.00
03013             220.00    -2200.00
03014            -760.00    -2600.00
03015           -1300.00    -2600.00
03016           -1360.00    -2400.00
03017            -100.00    -2600.00
03018             620.00    -3400.00
03019              60.00    -3000.00
03020             400.00    -3400.00
03021             280.00    -3600.00
03022            -140.00    -3400.00
03023             140.00    -4200.00
03024            -160.00    -4000.00
03025               0.00    -4200.00
03026             240.00    -4600.00
03027            -160.00    -4600.00
03028            -220.00    -5000.00
03029            -160.00    -4600.00
03030             -60.00    -5000.00
03031             -20.00    -5400.00
03032               0.00    -5400.00
03033               0.00    -5800.00
03034            -140.00    -5600.00
03035               0.00    -5800.00
03036              20.00    -6200.00
03037            -100.00    -6000.00
03038             -60.00    -6600.00
03039             -20.00    -6200.00
03040             -20.00    -6600.00
03041            -100.00    -6800.00
03042            -100.00    -6800.00
03043              20.00    -7000.00
03044             -20.00    -7000.00
03045             -60.00    -7400.00
03046             -20.00    -7200.00
03047             -20.00    -7400.00
03048             -80.00    -7600.00
03049             -20.00    -7800.00
03050             -60.00    -7800.00
03051            -100.00    -8000.00
03052             -80.00    -8200.00
03053               0.00    -8000.00
03054             -40.00    -8200.00
03055             -60.00    -8400.00
03056             -20.00    -8400.00
03057             -20.00    -8400.00
03058             -80.00    -8600.00
03059             -60.00    -8600.00
03060             -20.00    -8800.00
03061             -60.00    -9000.00
03062             -60.00    -9000.00
03063             -60.00    -9000.00
03064             -60.00    -9200.00
03065             -40.00    -9200.00
03066               0.00    -9200.00
03067               0.00    -9400.00
03068             -60.00    -9400.00
03069             -60.00    -9400.00
03070             -20.00    -9400.00
03071             -60.00    -9800.00
03072             -20.00    -9400.00
03073             -20.00    -9600.00
03074             -20.00    -9800.00
03075             -60.00    -9800.00
03076             -20.00    -9800.00
03077             -40.00    -9800.00
03078             -60.00    -9800.00
03079             -20.00    -9800.00
03080             -20.00    -9800.00
03081             -20.00    -9800.00
03082             -60.00    -9800.00
03083             -20.00    -9800.00
03084             -20.00    -9800.00
03085             -20.00    -9800.00
03086               0.00    -9800.00
03087               0.00    -9800.00
03088             -20.00    -9800.00
03089             -20.00    -9800.00
03090             -20.00    -9800.00
03091             -60.00    -9800.00
03092             -20.00    -9800.00
03093               0.00    -9800.00
03094               0.00    -9800.00
03095             -20.00    -9800.00
03096             -20.00    -9600.00
03097             -20.00    -9800.00
03098             -20.00    -9600.00
03099             -20.00    -9400.00
03100               0.00    -9400.00
03101               0.00    -9400.00
03102             -20.00    -9400.00
03103             -20.00    -9200.00
03104             -20.00    -9200.00
03105             -20.00    -9200.00
03106               0.00    -9200.00
03107               0.00    -9000.00
03108             -20.00    -9000.00
03109             -20.00    -8800.00
03110             -20.00    -8800.00
03111               0.00    -8600.00
03112             -20.00    -8600.00
03113               0.00    -8400.00
03114             -20.00    -8400.00
03115             -20.00    -8200.00
03116             -20.00    -8200.00
03117             -20.00    -8200.00
03118               0.00    -7800.00
03119               0.00    -7800.00
03120              20.00    -7800.00
03121               0.00    -7600.00
03122               0.00    -7400.00
03123             -20.00    -7200.00
03124             -20.00    -7200.00
03125               0.00    -7000.00
03126              20.00    -7000.00
03127              20.00    -6800.00
03128               0.00    -6800.00
03129               0.00    -6600.00
03130               0.00    -6600.00
03131              20.00    -6400.00
03132              20.00    -6200.00
03133              20.00    -6200.00
03134               0.00    -5800.00
03135               0.00    -5800.00
03136               0.00    -5600.00
03137               0.00    -5400.00
03138              20.00    -5200.00
03139              20.00    -5200.00
03140              20.00    -5000.00
03141              20.00    -4800.00
03142               0.00    -4600.00
03143              20.00    -4400.00
03144              40.00    -4400.00
03145              20.00    -4200.00
03146              20.00    -4200.00
03147              20.00    -3800.00
03148               0.00    -3600.00
03149              20.00    -3600.00
03150              20.00    -3400.00
03151              20.00    -3000.00
03152              20.00    -2800.00
03153              20.00    -2800.00
03154              40.00    -2600.00
03155              20.00    -2600.00
03156              20.00    -2200.00
03157              40.00    -2000.00
03158              20.00    -2000.00
03159              20.00    -1800.00
03160              20.00    -1400.00
03161               0.00    -1400.00
03162              20.00    -1200.00
03163              20.00     -800.00
03164              40.00     -800.00
03165              40.00     -600.00
03166              60.00     -400.00
03167              60.00     -200.00
03168              40.00        0.00
03169              40.00      200.00
03170              80.00      400.00
03171             160.00      400.00
03172             180.00      600.00
03173             160.00      800.00
03174             140.00     1000.00
03175             100.00     1200.00
03176             100.00     1200.00
03177             320.00     1400.00
03178            1060.00     1800.00
03179            1100.00     2000.00
03180             -40.00     2200.00
03181           -1220.00     2000.00
03182           -1820.00     2200.00
03183            -660.00     2800.00
03184            1000.00     3000.00
03185             340.00     2600.00
03186             340.00     3200.00
03187             640.00     3000.00
03188            -160.00     3600.00
03189               0.00     3800.00
03190             -60.00     3400.00
03191              40.00     4400.00
03192             540.00     4200.00
03193            -160.00     4200.00
03194             -80.00     4800.00
03195             140.00     4600.00
03196            -180.00     5000.00
03197             180.00     5200.00
03198             140.00     4800.00
03199             100.00     5800.00
03200               0.00     5200.00
03201              20.00     5800.00
03202             180.00     6000.00
03203             -60.00     5800.00
03204             100.00     6200.00
03205              80.00     6000.00
03206              80.00     6600.00
03207              20.00     6600.00
03208               0.00     6600.00
03209             100.00     7000.00
03210              80.00     6600.00
03211             100.00     7000.00
03212              60.00     7000.00
03213              60.00     7400.00
03214               0.00     7400.00
03215              80.00     7600.00
03216              80.00     7800.00
03217               0.00     7800.00
03218              60.00     8000.00
03219              20.00     8200.00
03220              60.00     8200.00
03221              80.00     8200.00
03222             100.00     8400.00
03223              20.00     8400.00
03224               0.00     8400.00
03225              60.00     8600.00
03226              60.00     8600.00
03227              60.00     8800.00
03228              60.00     8800.00
03229              20.00     9000.00
03230               0.00     9000.00
03231              60.00     9000.00
03232              60.00     9200.00
03233              60.00     9200.00
03234              40.00     9200.00
03235              20.00     9400.00
03236              20.00     9400.00
03237               0.00     9400.00
03238              20.00     9600.00
03239              60.00     9400.00
03240              60.00     9800.00
03241              60.00     9600.00
03242              20.00     9800.00
03243              20.00     9800.00
03244               0.00     9800.00
03245              40.00     9800.00
03246              60.00     9800.00
03247              20.00     9800.00
03248              20.00    10000.00
03249              20.00     9800.00
03250               0.00    10000.00
03251              20.00    10000.00
03252              40.00    10000.00
03253              20.00     9800.00
03254              20.00     9800.00
03255              20.00    10000.00
03256               0.00     9800.00
03257               0.00     9800.00
03258              20.00     9800.00
03259              60.00     9800.00
03260              20.00     9800.00
03261              20.00     9800.00
03262              20.00     9600.00
03263              20.00     9600.00
03264               0.00     9800.00
03265              20.00     9400.00
03266              20.00     9400.00
03267               0.00     9400.00
03268               0.00     9200.00
03269               0.00     9400.00
03270               0.00     9400.00
03271               0.00     9200.00
03272              20.00     9200.00
03273              40.00     9000.00
03274               0.00     9000.00
03275               0.00     9000.00
03276               0.00     8800.00
03277             -20.00     8600.00
03278               0.00     8600.00
03279              20.00     8600.00
03280               0.00     8600.00
03281               0.00     8400.00
03282               0.00     8400.00
03283               0.00     8200.00
03284             -20.00     8000.00
03285               0.00     7800.00
03286               0.00     7800.00
03287               0.00     7800.00
03288             -20.00     7600.00
03289             -20.00     7400.00
03290             -20.00     7400.00
03291             -20.00     7000.00
03292               0.00     7000.00
03293               0.00     7000.00
03294             -20.00     7000.00
03295             -20.00     6600.00
03296             -20.00     6600.00
03297             -20.00     6600.00
03298             -20.00     6200.00
03299             -20.00     6200.00
03300             -20.00     6000.00
03301             -20.00     5800.00
03302             -20.00     5800.00
03303             -40.00     5600.00
03304             -60.00     5400.00
03305             -20.00     5200.00
03306               0.00     5000.00
03307             -20.00     5000.00
03308             -20.00     4800.00
03309             -40.00     4600.00
03310             -60.00     4600.00
03311             -20.00     4200.00
03312             -20.00     4200.00
03313             -20.00     4000.00
03314             -40.00     3800.00
03315             -60.00     3800.00
03316             -20.00     3400.00
03317             -60.00     3400.00
03318             -20.00     3000.00
03319             -20.00     3000.00
03320             -40.00     2800.00
03321             -60.00     2600.00
03322             -60.00     2400.00
03323             -60.00     2200.00
03324             -60.00     2000.00
03325             -20.00     1800.00
03326             -20.00     1800.00
03327             -20.00     1400.00
03328             -20.00     1200.00
03329             -20.00     1200.00
03330             -60.00     1000.00
03331             -60.00     1000.00
03332             -60.00      600.00
03333             -40.00      400.00
03334             -40.00      400.00
03335             -20.00      200.00
03336             -20.00     -200.00
03337               0.00     -400.00
03338              80.00     -400.00
03339             100.00     -600.00
03340              80.00    -1000.00
03341              40.00    -1000.00
03342               0.00    -1200.00
03343             -20.00    -1400.00
03344              40.00    -1200.00
03345             340.00    -1800.00
03346             940.00    -2000.00
03347             720.00    -2200.00
03348            -300.00    -2400.00
03349           -1060.00    -2600.00
03350           -1440.00    -2600.00
03351            -900.00    -2400.00
03352             500.00    -3000.00
03353             300.00    -3400.00
03354             140.00    -3000.00
03355             480.00    -3800.00
03356             -40.00    -3400.00
03357              20.00    -3600.00
03358              20.00    -4200.00
03359            -240.00    -4200.00
03360             180.00    -4600.00
03361              20.00    -4400.00
03362            -260.00    -4800.00
03363            -140.00    -5000.00
03364            -100.00    -4600.00
03365              60.00    -5400.00
03366               0.00    -5400.00
03367              60.00    -5400.00
03368            -100.00    -5800.00
03369            -140.00    -5800.00
03370               0.00    -6000.00
03371            -160.00    -6000.00
03372            -100.00    -6400.00
03373             -20.00    -6200.00
03374              20.00    -6200.00
03375               0.00    -6800.00
03376             -60.00    -6800.00
03377              40.00    -6800.00
03378              20.00    -7000.00
03379            -100.00    -7200.00
03380            -140.00    -7400.00
03381            -100.00    -7200.00
03382            -100.00    -7600.00
03383             -60.00    -7600.00
03384              20.00    -7600.00
03385             -20.00    -7800.00
03386             -20.00    -8200.00
03387               0.00    -8200.00
03388               0.00    -8400.00
03389             -80.00    -8400.00
03390             -80.00    -8400.00
03391            -100.00    -8600.00
03392            -100.00    -8600.00
03393            -100.00    -8800.00
03394               0.00    -8800.00
03395              20.00    -9000.00
03396              20.00    -9000.00
03397               0.00    -9000.00
03398             -20.00    -9000.00
03399             -80.00    -9200.00
03400             -60.00    -9200.00
03401             -80.00    -9400.00
03402            -100.00    -9400.00
03403            -100.00    -9400.00
03404             -60.00    -9400.00
03405             -20.00    -9400.00
03406               0.00    -9800.00
03407              40.00    -9600.00
03408              20.00    -9800.00
03409             -20.00    -9800.00
03410             -80.00    -9800.00
03411            -100.00    -9800.00
03412            -100.00    -9800.00
03413             -60.00    -9800.00
03414               0.00    -9800.00
03415               0.00    -9800.00
03416               0.00   -10000.00
03417             -20.00    -9800.00
03418             -60.00    -9800.00
03419             -80.00   -10000.00
03420             -80.00    -9800.00
03421             -60.00   -10000.00
03422             -20.00    -9800.00
03423             -20.00   -10000.00
03424               0.00    -9800.00
03425               0.00    -9800.00
03426             -20.00    -9800.00
03427               0.00    -9800.00
03428               0.00    -9800.00
03429             -20.00    -9800.00
03430             -60.00    -9800.00
03431             -60.00    -9800.00
03432             -60.00    -9800.00
03433             -20.00    -9400.00
03434               0.00    -9400.00
03435               0.00    -9400.00
03436             -20.00    -9400.00
03437               0.00    -9200.00
03438             -20.00    -9400.00
03439             -20.00    -9200.00
03440             -20.00    -9200.00
03441               0.00    -9000.00
03442               0.00    -9000.00
03443             -20.00    -8800.00
03444               0.00    -8600.00
03445               0.00    -8800.00
03446               0.00    -8600.00
03447               0.00    -8400.00
03448               0.00    -8400.00
03449               0.00    -8400.00
03450             -20.00    -8400.00
03451             -40.00    -8200.00
03452             -20.00    -8000.00
03453               0.00    -7800.00
03454              20.00    -7600.00
03455              60.00    -7600.00
03456              20.00    -7600.00
03457               0.00    -7400.00
03458               0.00    -7400.00
03459               0.00    -7000.00
03460               0.00    -7000.00
03461              20.00    -7000.00
03462              20.00    -6800.00
03463               0.00    -6800.00
03464               0.00    -6600.00
03465               0.00    -6200.00
03466               0.00    -6200.00
03467               0.00    -6200.00
03468               0.00    -6000.00
03469               0.00    -5800.00
03470               0.00    -5800.00
03471               0.00    -5400.00
03472              20.00    -5400.00
03473              40.00    -5200.00
03474              20.00    -5000.00
03475              20.00    -4800.00
03476              20.00    -4600.00
03477               0.00    -4600.00
03478               0.00    -4400.00
03479               0.00    -4200.00
03480              20.00    -4200.00
03481              20.00    -3800.00
03482              20.00    -3800.00
03483               0.00    -3600.00
03484               0.00    -3400.00
03485              20.00    -3200.00
03486              20.00    -3000.00
03487              60.00    -2800.00
03488              20.00    -2600.00
03489              20.00    -2400.00
03490               0.00    -2200.00
03491               0.00    -2200.00
03492              20.00    -2000.00
03493              20.00    -1800.00
03494              40.00    -1400.00
03495              20.00    -1400.00
03496              20.00    -1000.00
03497               0.00    -1000.00
03498              20.00     -800.00
03499              20.00     -600.00
03500              20.00     -600.00
03501              60.00     -400.00
03502              40.00     -200.00
03503              60.00        0.00
03504              40.00      200.00
03505             100.00      400.00
03506             180.00      600.00
03507             180.00      800.00
03508             140.00      800.00
03509             100.00     1000.00
03510              80.00     1200.00
03511             140.00     1400.00
03512             640.00     1800.00
03513            1260.00     2000.00
03514             640.00     2000.00
03515            -680.00     2200.00
03516           -1620.00     2200.00
03517           -1560.00     2600.00
03518             340.00     3000.00
03519             860.00     2800.00
03520             140.00     3000.00
03521             640.00     3200.00
03522             260.00     3200.00
03523            -220.00     4200.00
03524             140.00     3600.00
03525            -140.00     3800.00
03526             380.00     4600.00
03527             240.00     3800.00
03528            -300.00     4600.00
03529             160.00     5000.00
03530            -100.00     4400.00
03531             -40.00     5200.00
03532             220.00     4600.00
03533             100.00     5400.00
03534             140.00     5600.00
03535             -60.00     5400.00
03536             180.00     6000.00
03537              60.00     5800.00
03538             -20.00     6200.00
03539             140.00     6200.00
03540              40.00     6200.00
03541              80.00     6600.00
03542             -20.00     6400.00
03543              60.00     6800.00
03544             100.00     6800.00
03545              80.00     6800.00
03546             100.00     7400.00
03547              20.00     7400.00
03548              20.00     7400.00
03549               0.00     7400.00
03550             100.00     7600.00
03551               0.00     7600.00
03552              20.00     7800.00
03553              20.00     8000.00
03554              20.00     8000.00
03555              60.00     8200.00
03556              80.00     8200.00
03557              80.00     8400.00
03558               0.00     8200.00
03559               0.00     8600.00
03560              20.00     8600.00
03561              80.00     8600.00
03562              60.00     9000.00
03563              20.00     9000.00
03564               0.00     9000.00
03565               0.00     9000.00
03566              80.00     9200.00
03567              80.00     9200.00
03568              60.00     9200.00
03569               0.00     9400.00
03570              60.00     9400.00
03571               0.00     9400.00
03572               0.00     9600.00
03573              60.00     9800.00
03574              80.00     9800.00
03575              80.00     9600.00
03576              60.00     9800.00
03577               0.00     9800.00
03578             -20.00     9800.00
03579              40.00     9800.00
03580              80.00     9800.00
03581              60.00     9800.00
03582               0.00     9800.00
03583              20.00     9800.00
03584               0.00     9800.00
03585               0.00    10000.00
03586              40.00     9800.00
03587              80.00    10000.00
03588              60.00     9800.00
03589              20.00     9800.00
03590              20.00    10000.00
03591               0.00    10000.00
03592             -20.00     9800.00
03593              20.00     9800.00
03594              80.00     9800.00
03595              60.00     9800.00
03596              20.00     9800.00
03597               0.00     9800.00
03598               0.00     9600.00
03599               0.00     9400.00
03600              20.00     9400.00
03601              20.00     9400.00
03602              20.00     9600.00
03603              20.00     9400.00
03604               0.00     9400.00
03605               0.00     9200.00
03606              20.00     9200.00
03607              20.00     9200.00
03608              20.00     9000.00
03609               0.00     9000.00
03610               0.00     8800.00
03611               0.00     8800.00
03612               0.00     8600.00
03613               0.00     8600.00
03614               0.00     8600.00
03615               0.00     8400.00
03616             -20.00     8200.00
03617               0.00     8200.00
03618               0.00     8200.00
03619             -20.00     8200.00
03620               0.00     7800.00
03621               0.00     7800.00
03622               0.00     7800.00
03623             -20.00     7600.00
03624             -20.00     7400.00
03625             -20.00     7200.00
03626             -20.00     7000.00
03627               0.00     7000.00
03628             -20.00     6800.00
03629             -20.00     6600.00
03630             -20.00     6600.00
03631             -20.00     6400.00
03632             -20.00     6400.00
03633             -20.00     6200.00
03634             -20.00     6200.00
03635             -20.00     6000.00
03636             -20.00     5800.00
03637             -20.00     5600.00
03638             -20.00     5600.00
03639             -20.00     5200.00
03640             -20.00     5200.00
03641             -20.00     5000.00
03642             -20.00     5000.00
03643             -40.00     4600.00
03644             -60.00     4600.00
03645             -20.00     4400.00
03646             -20.00     4200.00
03647             -20.00     4000.00
03648             -20.00     3800.00
03649             -40.00     3800.00
03650             -20.00     3400.00
03651             -20.00     3400.00
03652             -20.00     3400.00
03653             -20.00     3000.00
03654             -20.00     2800.00
03655             -20.00     2600.00
03656             -60.00     2600.00
03657             -60.00     2400.00
03658             -60.00     2000.00
03659             -40.00     1800.00
03660             -20.00     1800.00
03661               0.00     1600.00
03662             -20.00     1400.00
03663             -60.00     1200.00
03664             -60.00     1000.00
03665             -60.00     1000.00
03666             -40.00      600.00
03667             -20.00      600.00
03668             -20.00      400.00
03669             -20.00      200.00
03670             -20.00        0.00
03671             -20.00     -400.00
03672              20.00     -400.00
03673             100.00     -600.00
03674             100.00     -800.00
03675              60.00     -800.00
03676               0.00    -1000.00
03677             -20.00    -1200.00
03678             -20.00    -1400.00
03679             100.00    -1600.00
03680             640.00    -1800.00
03681             960.00    -2200.00
03682             280.00    -2200.00
03683            -740.00    -2600.00
03684           -1280.00    -2600.00
03685           -1380.00    -2400.00
03686            -160.00    -2600.00
03687             620.00    -3200.00
03688              60.00    -3000.00
03689             380.00    -3400.00
03690             280.00    -3800.00
03691            -140.00    -3400.00
03692             140.00    -4000.00
03693            -160.00    -4200.00
03694             -20.00    -4200.00
03695             240.00    -4600.00
03696            -160.00    -4400.00
03697            -220.00    -5000.00
03698            -160.00    -5000.00
03699             -60.00    -5000.00
03700             -20.00    -5400.00
03701             -20.00    -5400.00
03702               0.00    -5600.00
03703            -100.00    -5800.00
03704              20.00    -6000.00
03705              60.00    -6000.00
03706             -80.00    -6000.00
03707             -20.00    -6400.00
03708             -20.00    -6400.00
03709             -20.00    -6600.00
03710            -140.00    -6800.00
03711            -100.00    -6800.00
03712              20.00    -7000.00
03713             -20.00    -7000.00
03714             -60.00    -7400.00
03715             -20.00    -7400.00
03716             -20.00    -7600.00
03717             -60.00    -7800.00
03718               0.00    -7600.00
03719             -20.00    -7800.00
03720            -100.00    -7800.00
03721             -80.00    -8000.00
03722             -20.00    -8200.00
03723             -20.00    -8200.00
03724             -20.00    -8400.00
03725               0.00    -8400.00
03726             -40.00    -8600.00
03727             -80.00    -8600.00
03728             -20.00    -8800.00
03729               0.00    -8800.00
03730             -60.00    -9000.00
03731             -60.00    -9000.00
03732             -20.00    -9200.00
03733             -60.00    -9200.00
03734             -40.00    -9200.00
03735               0.00    -9400.00
03736               0.00    -9400.00
03737             -20.00    -9400.00
03738             -40.00    -9400.00
03739             -60.00    -9400.00
03740             -60.00    -9400.00
03741             -20.00    -9800.00
03742               0.00    -9600.00
03743             -20.00    -9800.00
03744             -60.00    -9600.00
03745             -20.00    -9800.00
03746             -40.00    -9800.00
03747             -60.00    -9800.00
03748             -20.00    -9800.00
03749               0.00    -9800.00
03750             -20.00   -10000.00
03751             -60.00    -9800.00
03752             -60.00   -10000.00
03753             -60.00    -9800.00
03754             -40.00   -10000.00
03755             -20.00    -9800.00
03756               0.00    -9800.00
03757             -20.00    -9800.00
03758             -20.00    -9800.00
03759             -40.00    -9800.00
03760             -60.00    -9800.00
03761             -20.00    -9800.00
03762               0.00    -9800.00
03763               0.00    -9800.00
03764             -20.00    -9600.00
03765             -20.00    -9800.00
03766             -20.00    -9600.00
03767             -20.00    -9400.00
03768             -20.00    -9400.00
03769               0.00    -9400.00
03770               0.00    -9200.00
03771             -20.00    -9400.00
03772             -20.00    -9400.00
03773             -20.00    -9200.00
03774             -20.00    -9200.00
03775               0.00    -9000.00
03776               0.00    -9000.00
03777               0.00    -9000.00
03778             -20.00    -8800.00
03779             -20.00    -8800.00
03780               0.00    -8600.00
03781               0.00    -8600.00
03782               0.00    -8600.00
03783               0.00    -8400.00
03784               0.00    -8400.00
03785               0.00    -8200.00
03786               0.00    -8200.00
03787               0.00    -8000.00
03788               0.00    -7800.00
03789              20.00    -7600.00
03790               0.00    -7600.00
03791               0.00    -7600.00
03792               0.00    -7400.00
03793             -20.00    -7200.00
03794               0.00    -7000.00
03795               0.00    -7000.00
03796              20.00    -6800.00
03797               0.00    -6800.00
03798               0.00    -6600.00
03799               0.00    -6400.00
03800               0.00    -6200.00
03801              20.00    -6200.00
03802               0.00    -6000.00
03803              20.00    -5800.00
03804               0.00    -6000.00
03805               0.00    -5600.00
03806               0.00    -5400.00
03807               0.00    -5400.00
03808              20.00    -5200.00
03809              20.00    -5000.00
03810              20.00    -4800.00
03811               0.00    -4600.00
03812               0.00    -4400.00
03813               0.00    -4400.00
03814              20.00    -4400.00
03815              20.00    -4200.00
03816              20.00    -3800.00
03817              20.00    -3600.00
03818               0.00    -3400.00
03819              20.00    -3400.00
03820              20.00    -3200.00
03821              20.00    -3000.00
03822              40.00    -2600.00
03823              20.00    -2600.00
03824               0.00    -2600.00
03825               0.00    -2200.00
03826              20.00    -2000.00
03827              20.00    -1800.00
03828              20.00    -1800.00
03829              60.00    -1400.00
03830              20.00    -1400.00
03831              20.00    -1000.00
03832              20.00     -800.00
03833              20.00     -600.00
03834              20.00     -600.00
03835              20.00     -400.00
03836              60.00     -200.00
03837              60.00        0.00
03838              40.00      200.00
03839              80.00      400.00
03840             160.00      600.00
03841             180.00      600.00
03842             180.00      800.00
03843             140.00     1000.00
03844              80.00     1200.00
03845              80.00     1200.00
03846             300.00     1400.00
03847            1040.00     1800.00
03848            1120.00     2000.00
03849              20.00     2200.00
03850           -1200.00     2000.00
03851           -1840.00     2200.00
03852            -740.00     2800.00
03853             960.00     3000.00
03854             380.00     2800.00
03855             300.00     3400.00
03856             660.00     3000.00
03857            -140.00     3600.00
03858               0.00     4000.00
03859               0.00     3400.00
03860               0.00     4400.00
03861             540.00     4200.00
03862            -140.00     4000.00
03863             -80.00     4800.00
03864             140.00     4600.00
03865            -180.00     5000.00
03866             160.00     5000.00
03867             140.00     5200.00
03868             120.00     5800.00
03869               0.00     5400.00
03870              20.00     5800.00
03871             220.00     6000.00
03872             -40.00     5800.00
03873              80.00     6200.00
03874              80.00     6000.00
03875              60.00     6600.00
03876              20.00     6400.00
03877             -20.00     6600.00
03878             140.00     7000.00
03879              80.00     6800.00
03880             100.00     7000.00
03881              60.00     7000.00
03882              60.00     7400.00
03883               0.00     7400.00
03884              60.00     7600.00
03885              80.00     7800.00
03886               0.00     7600.00
03887              60.00     8000.00
03888               0.00     7800.00
03889              60.00     8200.00
03890              60.00     8200.00
03891             100.00     8400.00
03892              20.00     8400.00
03893               0.00     8400.00
03894              60.00     8600.00
03895              60.00     8600.00
03896              60.00     8800.00
03897              40.00     9000.00
03898              20.00     9000.00
03899               0.00     9200.00
03900              60.00     9000.00
03901              80.00     9200.00
03902              60.00     9400.00
03903              40.00     9200.00
03904              40.00     9400.00
03905              20.00     9400.00
03906               0.00     9400.00
03907              20.00     9400.00
03908              60.00     9400.00
03909              60.00     9800.00
03910              60.00     9800.00
03911              40.00     9800.00
03912               0.00     9800.00
03913               0.00     9800.00
03914              60.00     9800.00
03915              60.00     9800.00
03916              20.00     9800.00
03917              20.00    10000.00
03918              20.00    10000.00
03919              20.00    10000.00
03920              20.00     9800.00
03921              60.00    10000.00
03922              40.00    10000.00
03923              20.00     9800.00
03924              20.00    10000.00
03925              20.00     9800.00
03926               0.00    10000.00
03927               0.00     9800.00
03928              40.00     9800.00
03929              20.00     9800.00
03930              20.00     9800.00
03931              20.00     9600.00
03932               0.00     9600.00
03933               0.00     9400.00
03934              20.00     9600.00
03935              20.00     9600.00
03936               0.00     9400.00
03937              20.00     9400.00
03938               0.00     9400.00
03939               0.00     9200.00
03940             -20.00     9200.00
03941               0.00     9200.00
03942              20.00     9000.00
03943              20.00     9000.00
03944               0.00     9000.00
03945             -20.00     9000.00
03946             -20.00     8600.00
03947               0.00     8600.00
03948               0.00     8400.00
03949               0.00     8400.00
03950               0.00     8400.00
03951               0.00     8400.00
03952             -20.00     8200.00
03953             -20.00     8200.00
03954               0.00     8000.00
03955               0.00     7800.00
03956               0.00     7800.00
03957               0.00     7600.00
03958             -20.00     7400.00
03959             -20.00     7400.00
03960             -20.00     7400.00
03961               0.00     7400.00
03962               0.00     7000.00
03963             -20.00     6800.00
03964             -20.00     6800.00
03965             -20.00     6600.00
03966             -20.00     6600.00
03967             -20.00     6400.00
03968             -20.00     6200.00
03969               0.00     6000.00
03970             -20.00     5800.00
03971             -20.00     5800.00
03972             -20.00     5600.00
03973             -20.00     5400.00
03974             -20.00     5200.00
03975               0.00     5200.00
03976             -20.00     5200.00
03977             -20.00     5000.00
03978             -20.00     4600.00
03979             -20.00     4400.00
03980             -20.00     4400.00
03981               0.00     4200.00
03982             -20.00     3800.00
03983             -20.00     3800.00
03984             -20.00     3600.00
03985             -40.00     3400.00
03986             -20.00     3400.00
03987             -20.00     3200.00
03988             -20.00     3000.00
03989             -20.00     3000.00
03990             -20.00     2600.00
03991             -60.00     2400.00
03992             -60.00     2200.00
03993             -20.00     2000.00
03994             -20.00     2000.00
03995             -20.00     1800.00
03996             -40.00     1400.00
03997             -40.00     1400.00
03998             -20.00     1000.00
03999             -60.00     1000.00
04000             -60.00      800.00
04001             -60.00      600.00
04002             -20.00      400.00
04003             -20.00      400.00
04004             -40.00      200.00
04005             -60.00     -200.00
04006             -20.00     -400.00
04007              60.00     -400.00
04008             100.00     -600.00
04009              80.00     -800.00
04010              20.00    -1000.00
04011             -20.00    -1200.00
04012             -20.00    -1200.00
04013              20.00    -1400.00
04014             300.00    -1600.00
04015             920.00    -2000.00
04016             740.00    -2200.00
04017            -240.00    -2400.00
04018           -1060.00    -2600.00
04019           -1440.00    -2600.00
04020            -960.00    -2200.00
04021             460.00    -3000.00
04022             320.00    -3200.00
04023             100.00    -3000.00
04024             480.00    -3800.00
04025             -20.00    -3400.00
04026               0.00    -3600.00
04027              60.00    -4200.00
04028            -220.00    -4200.00
04029             200.00    -4400.00
04030              60.00    -4400.00
04031            -260.00    -4600.00
04032            -160.00    -5000.00
04033            -120.00    -4600.00
04034             -20.00    -5200.00
04035             -20.00    -5200.00
04036               0.00    -5400.00
04037             -80.00    -5800.00
04038             -80.00    -5800.00
04039              60.00    -6000.00
04040             -60.00    -6000.00
04041             -60.00    -6200.00
04042             -40.00    -6200.00
04043             -20.00    -6200.00
04044             -60.00    -6800.00
04045            -160.00    -6600.00
04046             -20.00    -7000.00
04047              20.00    -7000.00
04048             -60.00    -7200.00
04049             -20.00    -7200.00
04050             -20.00    -7400.00
04051             -60.00    -7600.00
04052             -20.00    -7800.00
04053               0.00    -7600.00
04054             -80.00    -7800.00
04055            -100.00    -8000.00
04056             -20.00    -8200.00
04057               0.00    -8200.00
04058             -60.00    -8400.00
04059             -20.00    -8400.00
04060             -20.00    -8400.00
04061             -60.00    -8600.00
04062             -60.00    -8800.00
04063             -20.00    -8600.00
04064             -20.00    -9000.00
04065             -80.00    -9000.00
04066             -60.00    -9000.00
04067             -60.00    -9200.00
04068             -80.00    -9200.00
04069             -20.00    -9200.00
04070               0.00    -9200.00
04071             -40.00    -9400.00
04072             -60.00    -9400.00
04073             -40.00    -9400.00
04074             -60.00    -9400.00
04075             -60.00    -9400.00
04076             -20.00    -9600.00
04077               0.00    -9400.00
04078             -20.00    -9800.00
04079             -60.00    -9800.00
04080             -20.00    -9800.00
04081             -60.00    -9800.00
04082             -60.00    -9800.00
04083             -20.00    -9800.00
04084             -20.00    -9800.00
04085             -40.00    -9800.00
04086             -60.00    -9800.00
04087             -40.00    -9800.00
04088             -60.00   -10000.00
04089             -20.00    -9800.00
04090               0.00    -9800.00
04091               0.00    -9800.00
04092             -20.00   -10000.00
04093             -20.00    -9800.00
04094             -20.00    -9800.00
04095             -20.00    -9800.00
04096               0.00    -9800.00
04097               0.00    -9800.00
04098             -20.00    -9600.00
04099             -20.00    -9800.00
04100             -20.00    -9600.00
04101             -20.00    -9400.00
04102             -20.00    -9600.00
04103             -20.00    -9400.00
04104               0.00    -9400.00
04105               0.00    -9400.00
04106             -20.00    -9200.00
04107             -20.00    -9200.00
04108             -20.00    -9000.00
04109               0.00    -9200.00
04110               0.00    -9000.00
04111               0.00    -9000.00
04112               0.00    -9000.00
04113             -20.00    -9000.00
04114             -20.00    -8600.00
04115               0.00    -8800.00
04116               0.00    -8400.00
04117              20.00    -8400.00
04118               0.00    -8400.00
04119               0.00    -8200.00
04120               0.00    -8200.00
04121               0.00    -8200.00
04122              20.00    -7800.00
04123               0.00    -7800.00
04124               0.00    -7600.00
04125               0.00    -7600.00
04126               0.00    -7400.00
04127               0.00    -7200.00
04128               0.00    -7000.00
04129               0.00    -7000.00
04130              20.00    -7000.00
04131              20.00    -6800.00
04132               0.00    -6600.00
04133               0.00    -6600.00
04134               0.00    -6400.00
04135               0.00    -6200.00
04136               0.00    -6200.00
04137              20.00    -6000.00
04138              20.00    -5800.00
04139               0.00    -5800.00
04140               0.00    -5400.00
04141               0.00    -5400.00
04142               0.00    -5200.00
04143              20.00    -5000.00
04144              20.00    -5000.00
04145              20.00    -4800.00
04146               0.00    -4600.00
04147               0.00    -4400.00
04148               0.00    -4400.00
04149              20.00    -4000.00
04150              20.00    -3800.00
04151              20.00    -3600.00
04152              20.00    -3400.00
04153              20.00    -3400.00
04154               0.00    -3000.00
04155              20.00    -3000.00
04156              20.00    -2800.00
04157              20.00    -2800.00
04158              20.00    -2600.00
04159              20.00    -2400.00
04160              20.00    -2000.00
04161              60.00    -2000.00
04162              20.00    -1800.00
04163              20.00    -1600.00
04164              20.00    -1400.00
04165              20.00    -1200.00
04166              40.00     -800.00
04167              40.00     -800.00
04168              40.00     -600.00
04169              40.00     -600.00
04170              40.00     -200.00
04171              40.00     -200.00
04172              60.00      200.00
04173              60.00      200.00
04174             140.00      400.00
04175             180.00      600.00
04176             180.00      600.00
04177             160.00     1000.00
04178             100.00     1000.00
04179              80.00     1200.00
04180             160.00     1400.00
04181             640.00     1800.00
04182            1260.00     2000.00
04183             660.00     2200.00
04184            -640.00     2200.00
04185           -1600.00     2200.00
04186           -1600.00     2600.00
04187             300.00     3000.00
04188             860.00     3000.00
04189             100.00     3000.00
04190             620.00     3200.00
04191             300.00     3200.00
04192            -220.00     4000.00
04193             140.00     3600.00
04194            -160.00     3800.00
04195             340.00     4600.00
04196             300.00     3800.00
04197            -300.00     4400.00
04198             160.00     4800.00
04199            -100.00     4600.00
04200             -60.00     5200.00
04201             220.00     4800.00
04202              80.00     5400.00
04203              80.00     5600.00
04204             -60.00     5400.00
04205             160.00     6000.00
04206              60.00     5800.00
04207             -20.00     6200.00
04208             140.00     6200.00
04209              60.00     6200.00
04210              80.00     6600.00
04211             -20.00     6400.00
04212              60.00     6800.00
04213             100.00     6800.00
04214              80.00     6800.00
04215              80.00     7000.00
04216              20.00     7000.00
04217               0.00     7400.00
04218              20.00     7400.00
04219             100.00     7600.00
04220              60.00     7800.00
04221              20.00     7800.00
04222              20.00     8200.00
04223               0.00     8000.00
04224              60.00     8200.00
04225              80.00     8200.00
04226             100.00     8400.00
04227               0.00     8400.00
04228               0.00     8600.00
04229              60.00     8600.00
04230              60.00     8600.00
04231              60.00     9000.00
04232              20.00     8800.00
04233               0.00     9000.00
04234              20.00     9200.00
04235              60.00     9000.00
04236              80.00     9400.00
04237              60.00     9200.00
04238              40.00     9200.00
04239              60.00     9400.00
04240              20.00     9400.00
04241              20.00     9400.00
04242              60.00     9400.00
04243              60.00     9600.00
04244              60.00     9800.00
04245              60.00     9600.00
04246              20.00     9800.00
04247              20.00     9600.00
04248              20.00     9800.00
04249              60.00     9800.00
04250              40.00     9800.00
04251              20.00     9800.00
04252              20.00     9800.00
04253              20.00    10000.00
04254              20.00     9800.00
04255              20.00     9800.00
04256              20.00     9800.00
04257              20.00     9800.00
04258              20.00    10000.00
04259              20.00     9800.00
04260              20.00     9800.00
04261               0.00     9800.00
04262               0.00     9800.00
04263              60.00     9800.00
04264              20.00     9800.00
04265               0.00     9800.00
04266              20.00     9600.00
04267               0.00     9400.00
04268              20.00     9600.00
04269              20.00     9400.00
04270               0.00     9400.00
04271               0.00     9400.00
04272              20.00     9400.00
04273               0.00     9400.00
04274               0.00     9200.00
04275               0.00     9200.00
04276               0.00     9200.00
04277               0.00     9000.00
04278               0.00     9000.00
04279               0.00     8800.00
04280               0.00     8600.00
04281               0.00     8600.00
04282               0.00     8600.00
04283               0.00     8600.00
04284               0.00     8400.00
04285             -20.00     8200.00
04286               0.00     8400.00
04287             -20.00     8200.00
04288             -20.00     8000.00
04289               0.00     7800.00
04290               0.00     7800.00
04291               0.00     7600.00
04292             -20.00     7600.00
04293             -20.00     7400.00
04294             -20.00     7400.00
04295               0.00     7400.00
04296               0.00     7000.00
04297             -20.00     6800.00
04298               0.00     6800.00
04299             -20.00     6800.00
04300               0.00     6600.00
04301             -20.00     6600.00
04302               0.00     6200.00
04303             -20.00     6200.00
04304               0.00     6000.00
04305               0.00     5800.00
04306             -20.00     5800.00
04307             -20.00     5800.00
04308             -20.00     5200.00
04309             -20.00     5200.00
04310             -20.00     5200.00
04311             -20.00     5000.00
04312             -20.00     4600.00
04313             -20.00     4600.00
04314             -20.00     4400.00
04315             -20.00     4200.00
04316             -20.00     4200.00
04317             -20.00     3800.00
04318             -20.00     3600.00
04319             -20.00     3600.00
04320             -20.00     3400.00
04321             -20.00     3200.00
04322             -20.00     3000.00
04323             -20.00     2800.00
04324             -20.00     2800.00
04325             -60.00     2600.00
04326             -60.00     2400.00
04327             -60.00     2000.00
04328             -60.00     2000.00
04329             -20.00     1800.00
04330             -20.00     1600.00
04331             -20.00     1400.00
04332             -20.00     1200.00
04333             -60.00     1200.00
04334             -60.00      800.00
04335             -60.00      600.00
04336             -60.00      600.00
04337             -60.00      400.00
04338             -60.00      200.00
04339             -20.00        0.00
04340             -20.00     -200.00
04341               0.00     -400.00
04342              80.00     -400.00
04343             100.00     -600.00
04344              60.00    -1000.00
04345               0.00    -1200.00
04346             -20.00    -1200.00
04347               0.00    -1400.00
04348             100.00    -1400.00
04349             620.00    -1800.00
04350             960.00    -2200.00
04351             320.00    -2400.00
04352            -700.00    -2600.00
04353           -1260.00    -2600.00
04354           -1400.00    -2600.00
04355            -240.00    -2600.00
04356             620.00    -3400.00
04357              60.00    -3000.00
04358             380.00    -3400.00
04359             320.00    -3600.00
04360            -140.00    -3400.00
04361             140.00    -4000.00
04362            -140.00    -4200.00
04363             -60.00    -4200.00
04364             260.00    -4600.00
04365            -140.00    -4400.00
04366            -220.00    -5000.00
04367            -160.00    -4800.00
04368             -60.00    -5000.00
04369               0.00    -5400.00
04370               0.00    -5400.00
04371               0.00    -5600.00
04372            -120.00    -5400.00
04373               0.00    -5800.00
04374              60.00    -6000.00
04375            -100.00    -6000.00
04376             -20.00    -6600.00
04377             -20.00    -6200.00
04378             -20.00    -6600.00
04379            -100.00    -6800.00
04380            -100.00    -6600.00
04381              20.00    -7000.00
04382               0.00    -7000.00
04383             -40.00    -7400.00
04384             -40.00    -7200.00
04385             -20.00    -7400.00
04386             -60.00    -7600.00
04387             -20.00    -7600.00
04388             -20.00    -7800.00
04389            -100.00    -8000.00
04390             -80.00    -8200.00
04391             -20.00    -8200.00
04392             -20.00    -8200.00
04393             -60.00    -8400.00
04394               0.00    -8600.00
04395             -40.00    -8600.00
04396            -100.00    -8600.00
04397             -60.00    -8800.00
04398             -20.00    -8800.00
04399             -20.00    -9000.00
04400             -80.00    -9000.00
04401             -60.00    -9000.00
04402            -100.00    -9200.00
04403             -40.00    -9200.00
04404               0.00    -9400.00
04405               0.00    -9200.00
04406             -60.00    -9400.00
04407             -60.00    -9400.00
04408             -40.00    -9400.00
04409             -80.00    -9600.00
04410             -60.00    -9800.00
04411             -20.00    -9800.00
04412             -20.00    -9800.00
04413             -60.00    -9800.00
04414             -60.00    -9800.00
04415             -60.00    -9800.00
04416             -60.00    -9800.00
04417             -20.00    -9800.00
04418             -20.00    -9800.00
04419             -20.00    -9800.00
04420             -60.00   -10000.00
04421             -40.00    -9800.00
04422             -20.00    -9800.00
04423             -60.00    -9800.00
04424               0.00    -9800.00
04425               0.00    -9800.00
04426             -20.00    -9800.00
04427             -20.00    -9800.00
04428             -40.00    -9800.00
04429             -20.00    -9800.00
04430             -20.00    -9800.00
04431               0.00    -9800.00
04432               0.00    -9600.00
04433             -20.00    -9800.00
04434             -20.00    -9800.00
04435             -20.00    -9400.00
04436             -20.00    -9400.00
04437             -20.00    -9600.00
04438               0.00    -9400.00
04439               0.00    -9600.00
04440             -20.00    -9400.00
04441             -20.00    -9200.00
04442             -20.00    -9200.00
04443             -20.00    -9200.00
04444               0.00    -9000.00
04445               0.00    -9000.00
04446             -20.00    -9000.00
04447               0.00    -8800.00
04448               0.00    -8800.00
04449             -20.00    -8800.00
04450               0.00    -8600.00
04451               0.00    -8400.00
04452               0.00    -8400.00
04453               0.00    -8200.00
04454             -20.00    -8200.00
04455               0.00    -8200.00
04456               0.00    -8000.00
04457               0.00    -7800.00
04458               0.00    -7800.00
04459               0.00    -7600.00
04460               0.00    -7400.00
04461             -20.00    -7200.00
04462               0.00    -7200.00
04463               0.00    -7000.00
04464               0.00    -7000.00
04465               0.00    -6800.00
04466               0.00    -6800.00
04467               0.00    -6600.00
04468               0.00    -6600.00
04469               0.00    -6200.00
04470               0.00    -6200.00
04471               0.00    -6200.00
04472               0.00    -5800.00
04473               0.00    -5800.00
04474               0.00    -5600.00
04475               0.00    -5400.00
04476               0.00    -5400.00
04477              20.00    -5200.00
04478              20.00    -5000.00
04479               0.00    -4800.00
04480               0.00    -4600.00
04481               0.00    -4600.00
04482              20.00    -4200.00
04483              20.00    -4200.00
04484               0.00    -3800.00
04485              20.00    -3600.00
04486              20.00    -3600.00
04487               0.00    -3600.00
04488               0.00    -3200.00
04489               0.00    -3000.00
04490              20.00    -2800.00
04491              20.00    -2800.00
04492              20.00    -2600.00
04493              20.00    -2400.00
04494              20.00    -2200.00
04495              20.00    -2200.00
04496              40.00    -1800.00
04497              20.00    -1600.00
04498              60.00    -1400.00
04499              40.00    -1200.00
04500              20.00    -1200.00
04501              60.00     -800.00
04502              20.00     -800.00
04503              40.00     -600.00
04504              60.00     -400.00
04505              60.00     -200.00
04506              60.00        0.00
04507              60.00      200.00
04508              80.00      400.00
04509             160.00      600.00
04510             180.00      600.00
04511             180.00      800.00
04512             140.00      800.00
04513             100.00     1200.00
04514             100.00     1200.00
04515             260.00     1400.00
04516            1020.00     2000.00
04517            1140.00     2200.00
04518              80.00     2200.00
04519           -1140.00     2000.00
04520           -1840.00     2200.00
04521            -860.00     2800.00
04522             940.00     3000.00
04523             400.00     2800.00
04524             280.00     3400.00
04525             660.00     3000.00
04526            -140.00     3600.00
04527             -20.00     3800.00
04528               0.00     3400.00
04529             -20.00     4400.00
04530             540.00     4200.00
04531            -120.00     4000.00
04532            -140.00     4800.00
04533             140.00     4600.00
04534            -200.00     5000.00
04535             140.00     5200.00
04536             140.00     5000.00
04537             100.00     5600.00
04538               0.00     5200.00
04539               0.00     5800.00
04540             220.00     6000.00
04541             -80.00     5800.00
04542              80.00     6400.00
04543              80.00     6000.00
04544              60.00     6600.00
04545              20.00     6600.00
04546             -20.00     6600.00
04547             100.00     7000.00
04548              60.00     6600.00
04549             120.00     7200.00
04550              60.00     7200.00
04551              60.00     7400.00
04552               0.00     7600.00
04553              60.00     7400.00
04554              80.00     7800.00
04555              20.00     7600.00
04556              60.00     7800.00
04557               0.00     8000.00
04558              60.00     8200.00
04559              60.00     8200.00
04560             100.00     8400.00
04561              60.00     8400.00
04562               0.00     8600.00
04563              40.00     8600.00
04564              60.00     8600.00
04565              80.00     8800.00
04566              60.00     9000.00
04567              20.00     9000.00
04568               0.00     9000.00
04569              60.00     9000.00
04570              80.00     9200.00
04571              60.00     9200.00
04572              40.00     9400.00
04573              20.00     9400.00
04574              20.00     9400.00
04575               0.00     9400.00
04576              20.00     9400.00
04577              40.00     9600.00
04578              60.00     9800.00
04579              60.00     9800.00
04580              60.00     9600.00
04581               0.00     9800.00
04582               0.00     9800.00
04583              60.00     9800.00
04584              60.00     9800.00
04585              20.00     9800.00
04586              20.00     9800.00
04587              20.00     9800.00
04588               0.00     9800.00
04589               0.00     9800.00
04590              20.00     9800.00
04591              20.00     9800.00
04592              20.00     9800.00
04593              20.00     9800.00
04594              20.00     9800.00
04595               0.00     9800.00
04596               0.00     9800.00
04597              20.00    10000.00
04598              20.00     9800.00
04599              20.00     9800.00
04600              20.00     9600.00
04601               0.00     9800.00
04602               0.00     9400.00
04603               0.00     9600.00
04604               0.00     9400.00
04605              20.00     9400.00
04606              20.00     9400.00
04607               0.00     9400.00
04608               0.00     9200.00
04609               0.00     9200.00
04610               0.00     9200.00
04611              20.00     9000.00
04612               0.00     8800.00
04613               0.00     9000.00
04614             -20.00     9000.00
04615             -20.00     8600.00
04616               0.00     8800.00
04617               0.00     8600.00
04618               0.00     8400.00
04619               0.00     8400.00
04620               0.00     8400.00
04621               0.00     8200.00
04622               0.00     8200.00
04623             -20.00     8000.00
04624               0.00     7800.00
04625               0.00     7600.00
04626               0.00     7600.00
04627             -20.00     7400.00
04628             -20.00     7600.00
04629             -20.00     7400.00
04630               0.00     7000.00
04631               0.00     7000.00
04632               0.00     6800.00
04633             -20.00     6800.00
04634             -20.00     6600.00
04635             -20.00     6600.00
04636             -20.00     6200.00
04637               0.00     6200.00
04638             -20.00     6000.00
04639             -20.00     5800.00
04640             -20.00     5800.00
04641             -20.00     5600.00
04642             -20.00     5600.00
04643             -20.00     5200.00
04644             -20.00     5200.00
04645               0.00     5000.00
04646             -20.00     4800.00
04647             -20.00     4600.00
04648             -40.00     4400.00
04649             -20.00     4200.00
04650             -20.00     4200.00
04651             -20.00     3800.00
04652             -20.00     3800.00
04653             -20.00     3600.00
04654             -20.00     3600.00
04655             -60.00     3400.00
04656             -40.00     3000.00
04657             -20.00     3000.00
04658             -20.00     2800.00
04659             -20.00     2600.00
04660             -60.00     2200.00
04661             -60.00     2000.00
04662             -60.00     2000.00
04663             -20.00     1800.00
04664             -20.00     1800.00
04665             -20.00     1600.00
04666             -60.00     1400.00
04667             -80.00     1000.00
04668             -60.00     1000.00
04669             -60.00      800.00
04670             -60.00      600.00
04671             -20.00      600.00
04672             -20.00      400.00
04673             -20.00      200.00
04674             -60.00     -200.00
04675               0.00     -200.00
04676              80.00     -400.00
04677             100.00     -600.00
04678              80.00     -800.00
04679              20.00    -1000.00
04680               0.00    -1200.00
04681             -20.00    -1200.00
04682              20.00    -1400.00
04683             300.00    -1400.00
04684             900.00    -1800.00
04685             760.00    -2200.00
04686            -220.00    -2200.00
04687           -1020.00    -2600.00
04688           -1420.00    -2600.00
04689           -1000.00    -2400.00
04690             400.00    -3000.00
04691             340.00    -3400.00
04692             100.00    -3000.00
04693             480.00    -3800.00
04694               0.00    -3400.00
04695               0.00    -3400.00
04696              60.00    -4200.00
04697            -220.00    -4000.00
04698             200.00    -4600.00
04699             100.00    -4400.00
04700            -240.00    -4600.00
04701            -160.00    -5000.00
04702            -140.00    -4600.00
04703             -20.00    -5200.00
04704             -20.00    -5400.00
04705              20.00    -5200.00
04706             -80.00    -5800.00
04707             -80.00    -5600.00
04708              60.00    -6000.00
04709             -60.00    -6000.00
04710             -60.00    -6200.00
04711             -40.00    -6200.00
04712               0.00    -6200.00
04713             -60.00    -6800.00
04714            -140.00    -6800.00
04715             -20.00    -7000.00
04716              20.00    -7000.00
04717             -60.00    -7000.00
04718             -60.00    -7400.00
04719               0.00    -7200.00
04720             -60.00    -7600.00
04721             -60.00    -7800.00
04722             -20.00    -7800.00
04723             -80.00    -8000.00
04724            -100.00    -8000.00
04725             -60.00    -8200.00
04726             -20.00    -8200.00
04727             -60.00    -8400.00
04728             -40.00    -8400.00
04729             -20.00    -8400.00
04730             -80.00    -8600.00
04731             -80.00    -8800.00
04732             -20.00    -8800.00
04733             -20.00    -9000.00
04734             -80.00    -9000.00
04735             -60.00    -9000.00
04736             -60.00    -9000.00
04737             -60.00    -9200.00
04738             -20.00    -9200.00
04739               0.00    -9200.00
04740             -20.00    -9400.00
04741             -60.00    -9400.00
04742             -60.00    -9600.00
04743             -60.00    -9400.00
04744             -80.00    -9600.00
04745             -20.00    -9400.00
04746               0.00    -9800.00
04747             -40.00    -9800.00
04748             -40.00    -9800.00
04749             -20.00    -9800.00
04750             -60.00    -9800.00
04751             -20.00    -9800.00
04752             -20.00   -10000.00
04753             -20.00    -9800.00
04754             -40.00    -9800.00
04755             -60.00   -10000.00
04756             -60.00    -9800.00
04757             -60.00    -9800.00
04758             -20.00    -9800.00
04759               0.00    -9800.00
04760               0.00    -9800.00
04761             -20.00    -9800.00
04762             -20.00    -9800.00
04763             -20.00    -9800.00
04764             -20.00    -9800.00
04765               0.00    -9800.00
04766               0.00    -9800.00
04767               0.00    -9600.00
04768             -20.00    -9600.00
04769             -20.00    -9800.00
04770             -20.00    -9800.00
04771             -20.00    -9400.00
04772               0.00    -9400.00
04773               0.00    -9400.00
04774               0.00    -9400.00
04775             -20.00    -9200.00
04776             -20.00    -9200.00
04777             -20.00    -9200.00
04778               0.00    -9200.00
04779               0.00    -9000.00
04780               0.00    -9000.00
04781             -20.00    -9000.00
04782             -20.00    -8800.00
04783               0.00    -8800.00
04784               0.00    -8600.00
04785               0.00    -8600.00
04786               0.00    -8600.00
04787               0.00    -8400.00
04788               0.00    -8200.00
04789             -20.00    -8200.00
04790             -20.00    -8200.00
04791               0.00    -7800.00
04792               0.00    -7800.00
04793               0.00    -7600.00
04794               0.00    -7600.00
04795             -20.00    -7200.00
04796               0.00    -7200.00
04797               0.00    -7000.00
04798               0.00    -7000.00
04799               0.00    -7000.00
04800               0.00    -6800.00
04801               0.00    -6800.00
04802               0.00    -6600.00
04803               0.00    -6600.00
04804               0.00    -6200.00
04805               0.00    -6200.00
04806               0.00    -6000.00
04807               0.00    -5800.00
04808               0.00    -5800.00
04809               0.00    -5400.00
04810               0.00    -5400.00
04811               0.00    -5200.00
04812              20.00    -5200.00
04813              20.00    -5000.00
04814               0.00    -4800.00
04815               0.00    -4800.00
04816               0.00    -4200.00
04817              20.00    -4200.00
04818              20.00    -4000.00
04819               0.00    -3800.00
04820              60.00    -3800.00
04821              20.00    -3600.00
04822              20.00    -3400.00
04823              20.00    -3400.00
04824              20.00    -3000.00
04825              20.00    -3000.00
04826              20.00    -2600.00
04827              20.00    -2600.00
04828              20.00    -2200.00
04829              20.00    -2000.00
04830              20.00    -2000.00
04831              20.00    -1800.00
04832              40.00    -1600.00
04833              60.00    -1400.00
04834              20.00    -1200.00
04835              20.00    -1000.00
04836              20.00     -800.00
04837              20.00     -600.00
04838              60.00     -400.00
04839              60.00     -400.00
04840              60.00     -200.00
04841              60.00        0.00
04842              60.00      400.00
04843             140.00      400.00
04844             180.00      600.00
04845             200.00      600.00
04846             160.00     1000.00
04847             140.00     1000.00
04848             100.00     1400.00
04849             120.00     1400.00
04850             580.00     1800.00
04851            1220.00     2000.00
04852             720.00     2000.00
04853            -560.00     2200.00
04854           -1540.00     2200.00
04855           -1660.00     2600.00
04856             180.00     3000.00
04857             900.00     2800.00
04858             120.00     3000.00
04859             580.00     3400.00
04860             320.00     3200.00
04861            -240.00     4200.00
04862             100.00     3600.00
04863            -140.00     3600.00
04864             320.00     4600.00
04865             300.00     3800.00
04866            -300.00     4400.00
04867             140.00     5000.00
04868             -60.00     4400.00
04869             -80.00     5200.00
04870             220.00     4800.00
04871              80.00     5400.00
04872             100.00     5600.00
04873             -80.00     5200.00
04874             160.00     6000.00
04875             100.00     5600.00
04876             -20.00     6000.00
04877             140.00     6200.00
04878              60.00     6000.00
04879              80.00     6600.00
04880             -20.00     6600.00
04881              60.00     6800.00
04882             100.00     6800.00
04883              80.00     6800.00
04884             100.00     7400.00
04885              20.00     7000.00
04886              40.00     7600.00
04887               0.00     7400.00
04888             100.00     7800.00
04889              40.00     7600.00
04890              40.00     7800.00
04891              20.00     8200.00
04892              20.00     8000.00
04893              60.00     8200.00
04894              80.00     8400.00
04895             100.00     8400.00
04896               0.00     8400.00
04897              20.00     8600.00
04898              60.00     8600.00
04899              60.00     8600.00
04900              80.00     8800.00
04901              60.00     9000.00
04902              20.00     9000.00
04903               0.00     9000.00
04904              80.00     9000.00
04905              80.00     9200.00
04906              60.00     9400.00
04907              40.00     9200.00
04908              20.00     9400.00
04909              20.00     9400.00
04910               0.00     9600.00
04911              60.00     9600.00
04912              60.00     9800.00
04913              60.00     9800.00
04914              60.00     9600.00
04915              20.00     9800.00
04916               0.00     9800.00
04917               0.00     9800.00
04918              60.00    10000.00
04919              20.00     9800.00
04920               0.00     9800.00
04921              20.00     9800.00
04922               0.00     9800.00
04923              20.00     9800.00
04924              20.00     9800.00
04925              40.00     9800.00
04926              20.00     9800.00
04927              20.00    10000.00
04928              20.00    10000.00
04929               0.00     9800.00
04930               0.00     9800.00
04931               0.00     9800.00
04932              20.00     9800.00
04933              40.00     9800.00
04934              20.00     9800.00
04935              20.00     9800.00
04936               0.00     9600.00
04937               0.00     9600.00
04938               0.00     9400.00
04939              20.00     9400.00
04940              20.00     9400.00
04941              20.00     9400.00
04942               0.00     9400.00
04943               0.00     9200.00
04944               0.00     9400.00
04945               0.00     9200.00
04946              60.00     9000.00
04947               0.00     9000.00
04948               0.00     9000.00
04949               0.00     8800.00
04950               0.00     8600.00
04951               0.00     8600.00
04952               0.00     8400.00
04953               0.00     8600.00
04954               0.00     8200.00
04955               0.00     8200.00
04956               0.00     8200.00
04957               0.00     8200.00
04958               0.00     8000.00
04959               0.00     7800.00
04960               0.00     7800.00
04961               0.00     7600.00
04962             -20.00     7600.00
04963             -20.00     7400.00
04964               0.00     7400.00
04965               0.00     7000.00
04966             -20.00     7000.00
04967             -20.00     6800.00
04968             -20.00     6800.00
04969             -20.00     6400.00
04970               0.00     6400.00
04971             -20.00     6200.00
04972               0.00     6200.00
04973               0.00     6000.00
04974             -20.00     5800.00
04975             -20.00     5800.00
04976             -20.00     5600.00
04977             -20.00     5400.00
04978               0.00     5200.00
04979             -20.00     5200.00
04980             -20.00     4800.00
04981             -40.00     4800.00
04982             -60.00     4400.00
04983             -20.00     4400.00
04984             -20.00     4200.00
04985             -20.00     4200.00
04986             -20.00     3800.00
04987             -60.00     3800.00
04988             -40.00     3400.00
04989             -40.00     3400.00
04990             -60.00     3400.00
04991             -20.00     3000.00
04992             -20.00     3000.00
04993             -20.00     2800.00
04994             -60.00     2600.00
04995             -60.00     2400.00
04996             -60.00     2000.00
04997             -60.00     2000.00
04998             -20.00     1800.00
04999             -20.00     1600.00
05000             -40.00     1400.00
