Unit:(mV)
                     CH1         CH2
Frequency              ? 299.010 kHz
00001              80.00    -1800.00
00002             540.00    -2000.00
00003            1020.00    -2400.00
00004             400.00    -2600.00
00005            -580.00    -2800.00
00006           -1060.00    -3000.00
00007           -1140.00    -3000.00
00008            -780.00    -3000.00
00009             400.00    -3400.00
00010             260.00    -3800.00
00011             140.00    -3400.00
00012             420.00    -4400.00
00013            -100.00    -4200.00
00014              20.00    -4400.00
00015             100.00    -4800.00
00016            -120.00    -4600.00
00017             140.00    -5200.00
00018               0.00    -5000.00
00019            -200.00    -5400.00
00020            -220.00    -5800.00
00021             -20.00    -5400.00
00022               0.00    -6000.00
00023            -120.00    -6000.00
00024              60.00    -6200.00
00025             -80.00    -6400.00
00026             -80.00    -6600.00
00027              20.00    -7000.00
00028             -20.00    -6600.00
00029             -20.00    -7200.00
00030             -60.00    -7200.00
00031             -20.00    -7600.00
00032             -60.00    -7600.00
00033             -80.00    -7800.00
00034             -20.00    -7800.00
00035               0.00    -8000.00
00036             -20.00    -8200.00
00037             -60.00    -8200.00
00038             -20.00    -8600.00
00039             -20.00    -8800.00
00040             -60.00    -9000.00
00041             -60.00    -9000.00
00042             -80.00    -9200.00
00043            -100.00    -9400.00
00044             -60.00    -9200.00
00045               0.00    -9400.00
00046             -60.00    -9600.00
00047             -40.00    -9800.00
00048             -60.00    -9800.00
00049             -80.00   -10000.00
00050             -60.00   -10200.00
00051             -20.00   -10000.00
00052             -20.00   -10200.00
00053             -80.00   -10200.00
00054             -80.00   -10400.00
00055             -60.00   -10400.00
00056             -60.00   -10600.00
00057               0.00   -10800.00
00058               0.00   -10600.00
00059             -60.00   -10800.00
00060             -80.00   -11000.00
00061             -60.00   -11000.00
00062             -60.00   -11000.00
00063             -60.00   -11000.00
00064             -60.00   -11000.00
00065               0.00   -11000.00
00066             -20.00   -11200.00
00067             -20.00   -11200.00
00068             -20.00   -11400.00
00069             -60.00   -11200.00
00070             -60.00   -11400.00
00071             -20.00   -11400.00
00072             -20.00   -11400.00
00073             -20.00   -11400.00
00074             -20.00   -11400.00
00075             -20.00   -11400.00
00076             -20.00   -11400.00
00077             -20.00   -11400.00
00078             -20.00   -11400.00
00079             -20.00   -11200.00
00080             -20.00   -11200.00
00081             -20.00   -11200.00
00082               0.00   -11400.00
00083             -20.00   -11000.00
00084               0.00   -11000.00
00085             -20.00   -11000.00
00086               0.00   -11200.00
00087             -20.00   -11000.00
00088             -20.00   -11000.00
00089             -20.00   -11000.00
00090               0.00   -11000.00
00091              20.00   -10800.00
00092               0.00   -10800.00
00093             -20.00   -10600.00
00094             -20.00   -10600.00
00095             -20.00   -10600.00
00096             -20.00   -10600.00
00097               0.00   -10600.00
00098               0.00   -10200.00
00099               0.00   -10200.00
00100               0.00   -10200.00
00101             -20.00   -10000.00
00102               0.00   -10000.00
00103               0.00    -9800.00
00104              20.00    -9800.00
00105              20.00    -9600.00
00106               0.00    -9400.00
00107             -20.00    -9400.00
00108             -20.00    -9200.00
00109               0.00    -9200.00
00110               0.00    -9000.00
00111              20.00    -9000.00
00112              20.00    -8800.00
00113               0.00    -8800.00
00114             -20.00    -8600.00
00115             -20.00    -8400.00
00116               0.00    -8200.00
00117              20.00    -8000.00
00118              20.00    -8000.00
00119              20.00    -7800.00
00120               0.00    -7600.00
00121               0.00    -7600.00
00122              20.00    -7200.00
00123               0.00    -7200.00
00124               0.00    -7000.00
00125              20.00    -6800.00
00126              20.00    -6600.00
00127               0.00    -6600.00
00128               0.00    -6400.00
00129               0.00    -6000.00
00130              20.00    -5800.00
00131              60.00    -5800.00
00132              20.00    -5400.00
00133               0.00    -5400.00
00134             -20.00    -5200.00
00135               0.00    -5000.00
00136              40.00    -4800.00
00137              40.00    -4600.00
00138              40.00    -4400.00
00139              20.00    -4200.00
00140              40.00    -4000.00
00141              60.00    -3800.00
00142              60.00    -3600.00
00143              20.00    -3400.00
00144               0.00    -3400.00
00145               0.00    -3000.00
00146               0.00    -2800.00
00147              60.00    -2600.00
00148             100.00    -2400.00
00149             100.00    -2200.00
00150              60.00    -2200.00
00151               0.00    -1800.00
00152               0.00    -1800.00
00153               0.00    -1400.00
00154              40.00    -1200.00
00155              60.00    -1000.00
00156              60.00     -600.00
00157              60.00     -400.00
00158              60.00     -200.00
00159              60.00     -200.00
00160              60.00        0.00
00161              60.00      400.00
00162             160.00      400.00
00163             220.00      800.00
00164             220.00     1000.00
00165             160.00     1200.00
00166             100.00     1200.00
00167             100.00     1400.00
00168             240.00     1800.00
00169             960.00     2200.00
00170            1240.00     2400.00
00171             220.00     2200.00
00172            -980.00     2600.00
00173           -1440.00     2600.00
00174           -1260.00     3000.00
00175             400.00     3400.00
00176             760.00     3000.00
00177             180.00     3600.00
00178             580.00     3800.00
00179              20.00     3800.00
00180            -100.00     4600.00
00181             180.00     4200.00
00182             -80.00     4600.00
00183             400.00     5000.00
00184             120.00     4600.00
00185            -140.00     5400.00
00186              20.00     5200.00
00187             -80.00     5800.00
00188             140.00     5800.00
00189               0.00     5800.00
00190             180.00     6400.00
00191              80.00     6000.00
00192             -20.00     6400.00
00193             160.00     6600.00
00194              20.00     6600.00
00195              60.00     7000.00
00196              40.00     7000.00
00197             100.00     7400.00
00198              20.00     7600.00
00199              20.00     7600.00
00200              60.00     7800.00
00201              80.00     7800.00
00202             140.00     8200.00
00203              60.00     8200.00
00204              80.00     8600.00
00205              20.00     8600.00
00206              80.00     8600.00
00207              60.00     8800.00
00208              20.00     9000.00
00209              20.00     9200.00
00210              40.00     9200.00
00211              60.00     9400.00
00212              60.00     9600.00
00213             100.00     9600.00
00214              60.00     9800.00
00215              20.00     9800.00
00216              20.00     9800.00
00217              60.00    10000.00
00218              80.00    10200.00
00219              60.00    10200.00
00220              60.00    10200.00
00221              40.00    10400.00
00222              60.00    10600.00
00223              60.00    10600.00
00224              60.00    10600.00
00225              40.00    10600.00
00226              20.00    10800.00
00227              20.00    10800.00
00228              20.00    10800.00
00229              20.00    11000.00
00230              60.00    11000.00
00231              60.00    11000.00
00232              60.00    11000.00
00233              40.00    11000.00
00234              20.00    11400.00
00235              20.00    11000.00
00236              60.00    11400.00
00237              60.00    11400.00
00238              20.00    11400.00
00239               0.00    11400.00
00240              20.00    11400.00
00241              20.00    11600.00
00242              20.00    11400.00
00243              20.00    11400.00
00244              20.00    11400.00
00245               0.00    11200.00
00246              20.00    11400.00
00247              20.00    11200.00
00248               0.00    11400.00
00249               0.00    11400.00
00250               0.00    11200.00
00251              60.00    11200.00
00252              20.00    11000.00
00253               0.00    11000.00
00254               0.00    11000.00
00255               0.00    11000.00
00256               0.00    11000.00
00257              20.00    10800.00
00258              20.00    11000.00
00259              20.00    10800.00
00260               0.00    10600.00
00261             -20.00    10600.00
00262               0.00    10600.00
00263               0.00    10600.00
00264              20.00    10400.00
00265               0.00    10400.00
00266               0.00    10200.00
00267               0.00    10200.00
00268               0.00    10200.00
00269               0.00    10000.00
00270               0.00    10000.00
00271              20.00     9800.00
00272               0.00     9800.00
00273               0.00     9800.00
00274               0.00     9400.00
00275               0.00     9400.00
00276               0.00     9400.00
00277               0.00     9000.00
00278               0.00     9200.00
00279               0.00     8600.00
00280             -20.00     8600.00
00281               0.00     8600.00
00282               0.00     8400.00
00283               0.00     8200.00
00284               0.00     8200.00
00285             -20.00     7800.00
00286               0.00     7800.00
00287             -20.00     7600.00
00288               0.00     7600.00
00289             -20.00     7200.00
00290               0.00     7200.00
00291             -20.00     6800.00
00292             -20.00     6800.00
00293             -20.00     6600.00
00294             -20.00     6600.00
00295             -40.00     6200.00
00296             -20.00     6200.00
00297             -20.00     6000.00
00298             -20.00     5800.00
00299             -20.00     5600.00
00300             -20.00     5400.00
00301             -20.00     5200.00
00302             -20.00     5000.00
00303             -20.00     4600.00
00304             -20.00     4600.00
00305             -20.00     4400.00
00306             -20.00     4200.00
00307             -60.00     4000.00
00308             -60.00     3800.00
00309             -60.00     3600.00
00310             -60.00     3400.00
00311             -20.00     3400.00
00312             -60.00     3000.00
00313             -60.00     2600.00
00314             -60.00     2800.00
00315             -40.00     2400.00
00316             -20.00     2200.00
00317             -20.00     2200.00
00318             -60.00     1800.00
00319             -60.00     1800.00
00320             -40.00     1400.00
00321             -60.00     1200.00
00322             -60.00     1000.00
00323             -40.00      800.00
00324             -40.00      600.00
00325             -40.00      400.00
00326             -60.00      200.00
00327             -40.00     -200.00
00328             -20.00     -200.00
00329              60.00     -400.00
00330             100.00     -600.00
00331              80.00     -800.00
00332              60.00    -1200.00
00333               0.00    -1200.00
00334               0.00    -1400.00
00335              20.00    -1600.00
00336             260.00    -1800.00
00337             880.00    -2200.00
00338             780.00    -2600.00
00339            -180.00    -2600.00
00340            -960.00    -2800.00
00341           -1120.00    -3000.00
00342           -1060.00    -2800.00
00343             -60.00    -3200.00
00344             520.00    -3800.00
00345              60.00    -3400.00
00346             400.00    -4000.00
00347             140.00    -4200.00
00348            -160.00    -4000.00
00349             160.00    -4600.00
00350            -100.00    -4600.00
00351              20.00    -5000.00
00352             160.00    -5000.00
00353            -100.00    -5000.00
00354            -240.00    -5800.00
00355            -140.00    -5400.00
00356              60.00    -5800.00
00357            -100.00    -6000.00
00358               0.00    -6000.00
00359              20.00    -6600.00
00360            -100.00    -6200.00
00361               0.00    -7000.00
00362             -20.00    -6600.00
00363             -20.00    -7000.00
00364             -60.00    -7400.00
00365             -20.00    -7200.00
00366             -60.00    -7600.00
00367             -80.00    -7600.00
00368             -40.00    -7800.00
00369               0.00    -7800.00
00370             -20.00    -8200.00
00371             -80.00    -8400.00
00372             -60.00    -8400.00
00373             -20.00    -8600.00
00374             -40.00    -8600.00
00375             -60.00    -9000.00
00376             -60.00    -9000.00
00377             -80.00    -9200.00
00378             -80.00    -9200.00
00379             -20.00    -9400.00
00380             -60.00    -9400.00
00381             -60.00    -9600.00
00382             -60.00    -9800.00
00383             -80.00    -9800.00
00384             -60.00   -10000.00
00385             -20.00   -10000.00
00386             -20.00   -10000.00
00387             -60.00   -10200.00
00388             -60.00   -10200.00
00389             -60.00   -10600.00
00390             -60.00   -10600.00
00391             -20.00   -10600.00
00392               0.00   -10600.00
00393             -20.00   -10800.00
00394             -80.00   -10800.00
00395             -80.00   -10800.00
00396             -60.00   -11000.00
00397             -40.00   -11000.00
00398             -20.00   -11000.00
00399               0.00   -11000.00
00400             -20.00   -11200.00
00401             -40.00   -11000.00
00402             -60.00   -11000.00
00403             -40.00   -11400.00
00404             -20.00   -11400.00
00405             -20.00   -11400.00
00406             -20.00   -11400.00
00407             -20.00   -11400.00
00408             -60.00   -11200.00
00409             -40.00   -11400.00
00410             -20.00   -11200.00
00411             -20.00   -11400.00
00412               0.00   -11400.00
00413               0.00   -11400.00
00414             -20.00   -11400.00
00415             -20.00   -11200.00
00416             -40.00   -11400.00
00417             -20.00   -11200.00
00418             -20.00   -11000.00
00419               0.00   -11200.00
00420               0.00   -11000.00
00421               0.00   -11000.00
00422             -20.00   -11200.00
00423             -20.00   -11000.00
00424               0.00   -10800.00
00425               0.00   -10800.00
00426               0.00   -10800.00
00427               0.00   -10800.00
00428             -20.00   -10600.00
00429             -20.00   -10600.00
00430             -20.00   -10600.00
00431               0.00   -10600.00
00432               0.00   -10400.00
00433               0.00   -10200.00
00434               0.00   -10200.00
00435             -20.00   -10000.00
00436             -20.00   -10000.00
00437             -20.00   -10000.00
00438               0.00    -9800.00
00439               0.00    -9600.00
00440              20.00    -9800.00
00441               0.00    -9400.00
00442             -20.00    -9400.00
00443               0.00    -9400.00
00444               0.00    -9200.00
00445               0.00    -9000.00
00446              20.00    -8800.00
00447               0.00    -8800.00
00448               0.00    -8600.00
00449             -20.00    -8400.00
00450               0.00    -8400.00
00451              20.00    -8200.00
00452              20.00    -8000.00
00453              20.00    -8000.00
00454              20.00    -7800.00
00455              20.00    -7600.00
00456               0.00    -7400.00
00457               0.00    -7200.00
00458               0.00    -7000.00
00459              20.00    -6800.00
00460              60.00    -6800.00
00461              20.00    -6600.00
00462               0.00    -6400.00
00463               0.00    -6200.00
00464              20.00    -5800.00
00465              60.00    -5800.00
00466              20.00    -5600.00
00467              20.00    -5400.00
00468               0.00    -5200.00
00469              20.00    -5000.00
00470              60.00    -5000.00
00471              20.00    -4600.00
00472              20.00    -4400.00
00473              60.00    -4400.00
00474              60.00    -4200.00
00475              40.00    -3800.00
00476              40.00    -3600.00
00477              20.00    -3400.00
00478               0.00    -3200.00
00479              20.00    -3000.00
00480              60.00    -3000.00
00481              60.00    -2600.00
00482              60.00    -2600.00
00483              40.00    -2200.00
00484              60.00    -2000.00
00485              20.00    -1800.00
00486              20.00    -1800.00
00487              20.00    -1400.00
00488              60.00    -1200.00
00489              60.00    -1000.00
00490              60.00     -600.00
00491              60.00     -600.00
00492              60.00     -400.00
00493              60.00     -200.00
00494              60.00      200.00
00495              60.00      200.00
00496             100.00      400.00
00497             180.00      600.00
00498             220.00      800.00
00499             180.00     1000.00
00500             160.00     1200.00
00501             140.00     1400.00
00502             160.00     1400.00
00503             580.00     2000.00
00504            1260.00     2200.00
00505             740.00     2200.00
00506            -540.00     2600.00
00507           -1300.00     2400.00
00508           -1440.00     2800.00
00509            -340.00     3400.00
00510             920.00     3200.00
00511             260.00     3400.00
00512             400.00     3800.00
00513             380.00     3600.00
00514            -220.00     4200.00
00515             180.00     4600.00
00516             -60.00     4200.00
00517             160.00     5000.00
00518             380.00     4600.00
00519            -140.00     5000.00
00520               0.00     5600.00
00521             -60.00     5200.00
00522              60.00     5800.00
00523              80.00     5600.00
00524              80.00     6000.00
00525             180.00     6400.00
00526             -60.00     6200.00
00527             140.00     6600.00
00528              80.00     6600.00
00529              40.00     6800.00
00530              80.00     7000.00
00531              80.00     7400.00
00532              80.00     7600.00
00533               0.00     7400.00
00534              60.00     7800.00
00535              60.00     7800.00
00536             140.00     8000.00
00537              60.00     8200.00
00538              80.00     8200.00
00539              20.00     8400.00
00540              20.00     8600.00
00541             100.00     9000.00
00542              60.00     9000.00
00543              60.00     9200.00
00544              20.00     9200.00
00545              60.00     9200.00
00546              60.00     9400.00
00547              80.00     9400.00
00548              80.00     9800.00
00549              20.00     9800.00
00550              20.00     9800.00
00551              60.00    10000.00
00552              80.00    10000.00
00553              60.00    10400.00
00554              60.00    10200.00
00555               0.00    10600.00
00556              40.00    10600.00
00557              60.00    10600.00
00558              60.00    10600.00
00559              60.00    10600.00
00560              40.00    10800.00
00561              60.00    10800.00
00562              20.00    11000.00
00563              20.00    11000.00
00564              20.00    11000.00
00565              40.00    11000.00
00566              20.00    11000.00
00567              20.00    11000.00
00568              20.00    11200.00
00569               0.00    11400.00
00570              20.00    11200.00
00571              20.00    11400.00
00572              60.00    11200.00
00573              20.00    11200.00
00574               0.00    11400.00
00575              20.00    11400.00
00576               0.00    11400.00
00577              20.00    11400.00
00578              20.00    11400.00
00579              20.00    11400.00
00580              20.00    11400.00
00581              40.00    11400.00
00582               0.00    11200.00
00583               0.00    11400.00
00584              20.00    11200.00
00585              20.00    11200.00
00586              40.00    11000.00
00587              20.00    11200.00
00588               0.00    11000.00
00589               0.00    11000.00
00590               0.00    11000.00
00591              20.00    11000.00
00592               0.00    11000.00
00593              20.00    10800.00
00594              40.00    10800.00
00595               0.00    10800.00
00596               0.00    10600.00
00597               0.00    10600.00
00598               0.00    10600.00
00599               0.00    10400.00
00600              20.00    10400.00
00601               0.00    10200.00
00602               0.00    10200.00
00603               0.00    10000.00
00604               0.00    10000.00
00605               0.00     9800.00
00606               0.00     9800.00
00607               0.00     9600.00
00608               0.00     9600.00
00609               0.00     9400.00
00610               0.00     9200.00
00611               0.00     9200.00
00612               0.00     9000.00
00613               0.00     8800.00
00614               0.00     8600.00
00615               0.00     8600.00
00616             -20.00     8400.00
00617             -20.00     8200.00
00618             -20.00     8200.00
00619               0.00     8000.00
00620             -20.00     7800.00
00621               0.00     7800.00
00622               0.00     7600.00
00623             -20.00     7400.00
00624             -20.00     7400.00
00625             -20.00     7000.00
00626             -20.00     7000.00
00627               0.00     6800.00
00628             -20.00     6600.00
00629             -40.00     6200.00
00630             -20.00     6200.00
00631             -20.00     6000.00
00632             -20.00     5800.00
00633             -20.00     5800.00
00634             -40.00     5400.00
00635             -20.00     5400.00
00636             -20.00     5000.00
00637             -20.00     5000.00
00638             -20.00     4600.00
00639             -40.00     4600.00
00640             -40.00     4200.00
00641             -60.00     4200.00
00642             -20.00     3800.00
00643             -40.00     3800.00
00644             -20.00     3600.00
00645             -60.00     3400.00
00646             -20.00     3400.00
00647             -60.00     2800.00
00648             -60.00     2800.00
00649             -60.00     2600.00
00650             -60.00     2200.00
00651             -40.00     2000.00
00652             -20.00     1800.00
00653             -60.00     1800.00
00654             -60.00     1400.00
00655             -40.00     1200.00
00656             -40.00     1000.00
00657             -60.00      800.00
00658             -60.00      600.00
00659             -60.00      400.00
00660             -20.00      200.00
00661             -60.00        0.00
00662             -20.00     -200.00
00663              20.00     -200.00
00664             100.00     -600.00
00665             120.00     -600.00
00666              80.00    -1000.00
00667              20.00    -1200.00
00668               0.00    -1200.00
00669               0.00    -1400.00
00670             120.00    -1600.00
00671             620.00    -2000.00
00672             980.00    -2400.00
00673             300.00    -2600.00
00674            -700.00    -2800.00
00675           -1060.00    -2800.00
00676           -1140.00    -2800.00
00677            -620.00    -2800.00
00678             480.00    -3600.00
00679             220.00    -3600.00
00680             220.00    -3600.00
00681             400.00    -4400.00
00682            -160.00    -4200.00
00683             100.00    -4400.00
00684              60.00    -4600.00
00685            -100.00    -4600.00
00686             160.00    -5200.00
00687             -20.00    -5000.00
00688            -220.00    -5400.00
00689            -220.00    -5600.00
00690               0.00    -5400.00
00691             -20.00    -6000.00
00692            -100.00    -6000.00
00693              60.00    -6400.00
00694            -100.00    -6400.00
00695             -60.00    -6600.00
00696              20.00    -6800.00
00697             -60.00    -6800.00
00698             -60.00    -7400.00
00699             -60.00    -7200.00
00700             -20.00    -7400.00
00701             -80.00    -7600.00
00702             -80.00    -7800.00
00703             -20.00    -8200.00
00704               0.00    -8000.00
00705             -60.00    -8400.00
00706             -80.00    -8400.00
00707             -20.00    -8600.00
00708             -60.00    -8800.00
00709             -60.00    -8800.00
00710             -60.00    -9000.00
00711             -60.00    -9000.00
00712             -80.00    -9200.00
00713             -60.00    -9400.00
00714             -20.00    -9400.00
00715             -60.00    -9600.00
00716             -60.00    -9800.00
00717             -60.00    -9800.00
00718             -80.00   -10000.00
00719             -60.00   -10000.00
00720             -20.00   -10000.00
00721             -40.00   -10400.00
00722             -60.00   -10400.00
00723             -60.00   -10200.00
00724             -60.00   -10600.00
00725             -40.00   -10600.00
00726             -20.00   -10600.00
00727               0.00   -10600.00
00728             -20.00   -10800.00
00729             -60.00   -10800.00
00730             -60.00   -10800.00
00731             -60.00   -11000.00
00732             -20.00   -11000.00
00733               0.00   -11000.00
00734               0.00   -11000.00
00735             -60.00   -11200.00
00736             -20.00   -11200.00
00737             -20.00   -11200.00
00738             -60.00   -11200.00
00739             -20.00   -11200.00
00740               0.00   -11200.00
00741             -20.00   -11400.00
00742             -60.00   -11400.00
00743             -20.00   -11400.00
00744             -20.00   -11200.00
00745             -60.00   -11400.00
00746             -20.00   -11400.00
00747               0.00   -11400.00
00748               0.00   -11400.00
00749               0.00   -11200.00
00750             -20.00   -11400.00
00751             -40.00   -11200.00
00752             -20.00   -11400.00
00753               0.00   -11200.00
00754               0.00   -11000.00
00755             -20.00   -11000.00
00756             -40.00   -11000.00
00757             -60.00   -11000.00
00758             -20.00   -11000.00
00759               0.00   -11000.00
00760              20.00   -10800.00
00761              20.00   -10800.00
00762             -20.00   -10800.00
00763             -20.00   -10600.00
00764             -20.00   -10600.00
00765               0.00   -10600.00
00766             -20.00   -10400.00
00767               0.00   -10200.00
00768               0.00   -10200.00
00769               0.00   -10200.00
00770             -20.00   -10000.00
00771               0.00   -10000.00
00772               0.00   -10000.00
00773               0.00    -9800.00
00774               0.00    -9800.00
00775             -20.00    -9600.00
00776             -20.00    -9400.00
00777             -20.00    -9400.00
00778               0.00    -9200.00
00779              20.00    -9000.00
00780              20.00    -9000.00
00781              40.00    -8800.00
00782               0.00    -8600.00
00783               0.00    -8400.00
00784             -20.00    -8400.00
00785               0.00    -8200.00
00786               0.00    -8200.00
00787              20.00    -7800.00
00788              20.00    -7800.00
00789              20.00    -7600.00
00790               0.00    -7400.00
00791              20.00    -7200.00
00792               0.00    -7000.00
00793              20.00    -6800.00
00794               0.00    -6800.00
00795              60.00    -6600.00
00796             -20.00    -6600.00
00797             -20.00    -6200.00
00798             -20.00    -6000.00
00799              40.00    -5800.00
00800             140.00    -5600.00
00801             140.00    -5600.00
00802             140.00    -5400.00
00803              40.00    -5200.00
00804               0.00    -5000.00
00805            -100.00    -4800.00
00806            -100.00    -4400.00
00807             -40.00    -4600.00
00808              60.00    -4200.00
00809             140.00    -4000.00
00810             120.00    -3800.00
00811             100.00    -3600.00
00812              80.00    -3400.00
00813              20.00    -3000.00
00814               0.00    -3000.00
00815               0.00    -2600.00
00816             -20.00    -2600.00
00817             -20.00    -2200.00
00818               0.00    -2200.00
00819              80.00    -2000.00
00820             120.00    -1800.00
00821             100.00    -1400.00
00822              80.00    -1200.00
00823              60.00     -800.00
00824              20.00    -1000.00
00825             -20.00     -800.00
00826               0.00     -400.00
00827               0.00     -200.00
00828               0.00        0.00
00829              60.00      200.00
00830             140.00      400.00
00831             220.00      600.00
00832             260.00      600.00
00833             220.00     1000.00
00834             140.00     1000.00
00835              60.00     1400.00
00836              20.00     1400.00
00837             240.00     1800.00
00838            1020.00     2200.00
00839            1140.00     2200.00
00840              60.00     2400.00
00841           -1040.00     2600.00
00842           -1400.00     2600.00
00843           -1040.00     3200.00
00844             580.00     3400.00
00845             620.00     3000.00
00846             160.00     3600.00
00847             540.00     3800.00
00848             -60.00     3800.00
00849               0.00     4600.00
00850             160.00     4000.00
00851             -20.00     4600.00
00852             460.00     5000.00
00853              20.00     4600.00
00854            -100.00     5400.00
00855             -20.00     5200.00
00856             -60.00     5600.00
00857             140.00     5800.00
00858              20.00     5600.00
00859             220.00     6400.00
00860              20.00     6000.00
00861              20.00     6600.00
00862             160.00     6600.00
00863              20.00     6600.00
00864              80.00     7200.00
00865              60.00     7000.00
00866             100.00     7400.00
00867               0.00     7400.00
00868              40.00     7600.00
00869              60.00     7800.00
00870             140.00     7800.00
00871             140.00     8200.00
00872              60.00     8000.00
00873              80.00     8600.00
00874               0.00     8400.00
00875             100.00     8600.00
00876              60.00     8600.00
00877              60.00     9000.00
00878              20.00     9200.00
00879              20.00     9400.00
00880              80.00     9400.00
00881              80.00     9400.00
00882             100.00     9800.00
00883              40.00     9800.00
00884              20.00     9600.00
00885               0.00    10000.00
00886              80.00    10000.00
00887              60.00    10200.00
00888              60.00    10200.00
00889              20.00    10400.00
00890              20.00    10400.00
00891              60.00    10600.00
00892              60.00    10400.00
00893              60.00    10600.00
00894              40.00    10600.00
00895              20.00    10600.00
00896              20.00    10800.00
00897              20.00    10800.00
00898              20.00    11000.00
00899              40.00    10800.00
00900              60.00    11000.00
00901              60.00    11000.00
00902              20.00    11200.00
00903              20.00    11200.00
00904               0.00    11400.00
00905              40.00    11400.00
00906              60.00    11400.00
00907              20.00    11400.00
00908               0.00    11400.00
00909              20.00    11400.00
00910               0.00    11400.00
00911               0.00    11400.00
00912              20.00    11400.00
00913              20.00    11600.00
00914               0.00    11400.00
00915              20.00    11400.00
00916              20.00    11400.00
00917               0.00    11400.00
00918               0.00    11200.00
00919              20.00    11200.00
00920              20.00    11200.00
00921               0.00    11000.00
00922               0.00    11000.00
00923               0.00    11000.00
00924               0.00    11000.00
00925              20.00    11000.00
00926              40.00    11000.00
00927              20.00    10800.00
00928              20.00    10800.00
00929               0.00    10600.00
00930               0.00    10600.00
00931               0.00    10600.00
00932              20.00    10600.00
00933              20.00    10600.00
00934              20.00    10400.00
00935               0.00    10400.00
00936               0.00    10200.00
00937               0.00    10200.00
00938             -20.00    10000.00
00939               0.00    10000.00
00940              20.00     9800.00
00941               0.00     9600.00
00942               0.00     9600.00
00943               0.00     9400.00
00944             -20.00     9400.00
00945               0.00     9200.00
00946               0.00     9200.00
00947               0.00     9000.00
00948             -20.00     8800.00
00949             -20.00     8600.00
00950             -20.00     8600.00
00951             -20.00     8400.00
00952               0.00     8400.00
00953               0.00     8200.00
00954               0.00     8000.00
00955             -20.00     7800.00
00956               0.00     7600.00
00957             -40.00     7400.00
00958             -20.00     7400.00
00959             -20.00     7000.00
00960             -20.00     7000.00
00961             -20.00     6800.00
00962             -60.00     6600.00
00963             -20.00     6600.00
00964             -20.00     6200.00
00965             -20.00     6200.00
00966             -20.00     6000.00
00967             -20.00     5800.00
00968             -20.00     5600.00
00969             -20.00     5400.00
00970             -40.00     5200.00
00971             -20.00     5000.00
00972             -40.00     4800.00
00973             -60.00     4600.00
00974             -20.00     4400.00
00975             -20.00     4200.00
00976             -20.00     4000.00
00977             -60.00     3800.00
00978             -40.00     3600.00
00979             -40.00     3400.00
00980             -20.00     3400.00
00981             -60.00     3000.00
00982             -60.00     2800.00
00983             -60.00     2600.00
00984             -40.00     2400.00
00985             -20.00     2200.00
00986             -20.00     1800.00
00987             -20.00     1800.00
00988             -20.00     1400.00
00989             -40.00     1200.00
00990             -60.00     1200.00
00991             -60.00     1000.00
00992             -20.00      800.00
00993             -20.00      400.00
00994             -40.00      400.00
00995             -60.00      200.00
00996             -20.00     -200.00
00997             -20.00     -200.00
00998              80.00     -400.00
00999             140.00     -600.00
01000              80.00    -1000.00
01001               0.00    -1000.00
01002               0.00    -1200.00
01003               0.00    -1400.00
01004              60.00    -1800.00
01005             380.00    -1800.00
01006             960.00    -2200.00
01007             700.00    -2600.00
01008            -320.00    -2800.00
01009           -1000.00    -2800.00
01010           -1120.00    -2800.00
01011           -1020.00    -2800.00
01012             120.00    -3000.00
01013             420.00    -3800.00
01014              60.00    -3400.00
01015             460.00    -4200.00
01016              60.00    -4200.00
01017            -100.00    -4200.00
01018             160.00    -4600.00
01019            -120.00    -4600.00
01020              60.00    -5000.00
01021             120.00    -5000.00
01022            -140.00    -5200.00
01023            -240.00    -5800.00
01024            -100.00    -5400.00
01025              40.00    -6000.00
01026            -140.00    -6000.00
01027               0.00    -6200.00
01028               0.00    -6600.00
01029            -100.00    -6200.00
01030               0.00    -6800.00
01031             -20.00    -6600.00
01032             -60.00    -7000.00
01033             -60.00    -7400.00
01034             -40.00    -7200.00
01035             -60.00    -7800.00
01036             -80.00    -7800.00
01037             -80.00    -8200.00
01038               0.00    -7800.00
01039             -20.00    -8400.00
01040             -80.00    -8400.00
01041             -40.00    -8400.00
01042             -20.00    -8800.00
01043             -60.00    -8800.00
01044             -40.00    -9000.00
01045             -60.00    -9000.00
01046            -100.00    -9200.00
01047             -80.00    -9200.00
01048             -20.00    -9400.00
01049             -20.00    -9600.00
01050             -20.00    -9600.00
01051             -20.00    -9800.00
01052             -40.00    -9800.00
01053             -80.00   -10000.00
01054             -20.00   -10000.00
01055             -20.00   -10000.00
01056             -80.00   -10400.00
01057             -60.00   -10400.00
01058             -40.00   -10400.00
01059             -40.00   -10600.00
01060             -20.00   -10800.00
01061               0.00   -10600.00
01062             -20.00   -10800.00
01063             -40.00   -10800.00
01064             -60.00   -11000.00
01065             -40.00   -11000.00
01066             -20.00   -11000.00
01067             -20.00   -11000.00
01068               0.00   -11000.00
01069             -20.00   -11000.00
01070             -60.00   -11200.00
01071             -40.00   -11400.00
01072             -20.00   -11200.00
01073               0.00   -11400.00
01074               0.00   -11400.00
01075             -20.00   -11400.00
01076             -60.00   -11400.00
01077             -60.00   -11200.00
01078             -20.00   -11400.00
01079             -20.00   -11400.00
01080               0.00   -11400.00
01081              20.00   -11400.00
01082               0.00   -11400.00
01083             -20.00   -11400.00
01084             -40.00   -11400.00
01085             -60.00   -11200.00
01086             -20.00   -11200.00
01087               0.00   -11200.00
01088               0.00   -11200.00
01089               0.00   -11000.00
01090             -20.00   -11000.00
01091             -40.00   -11000.00
01092             -20.00   -11000.00
01093             -20.00   -10800.00
01094               0.00   -10800.00
01095              20.00   -10800.00
01096               0.00   -10800.00
01097             -20.00   -10800.00
01098             -20.00   -10600.00
01099             -20.00   -10400.00
01100             -20.00   -10200.00
01101               0.00   -10400.00
01102              20.00   -10200.00
01103               0.00   -10400.00
01104               0.00   -10000.00
01105             -20.00   -10000.00
01106               0.00   -10000.00
01107               0.00    -9800.00
01108               0.00    -9800.00
01109               0.00    -9600.00
01110               0.00    -9400.00
01111               0.00    -9400.00
01112               0.00    -9200.00
01113               0.00    -9000.00
01114               0.00    -9000.00
01115              20.00    -8800.00
01116              20.00    -8800.00
01117               0.00    -8600.00
01118               0.00    -8600.00
01119               0.00    -8200.00
01120               0.00    -8200.00
01121               0.00    -8000.00
01122              20.00    -7800.00
01123               0.00    -7600.00
01124               0.00    -7400.00
01125               0.00    -7200.00
01126              20.00    -7200.00
01127              20.00    -7000.00
01128              60.00    -6800.00
01129              40.00    -6800.00
01130               0.00    -6600.00
01131               0.00    -6200.00
01132               0.00    -6200.00
01133              20.00    -6000.00
01134              20.00    -5800.00
01135              20.00    -5600.00
01136              20.00    -5400.00
01137              40.00    -5200.00
01138              20.00    -5000.00
01139              20.00    -4800.00
01140              20.00    -4600.00
01141              20.00    -4600.00
01142              20.00    -4200.00
01143              40.00    -4000.00
01144              20.00    -3800.00
01145              60.00    -3600.00
01146              60.00    -3400.00
01147              20.00    -3200.00
01148              40.00    -3000.00
01149              60.00    -2800.00
01150              60.00    -2600.00
01151              40.00    -2400.00
01152              20.00    -2200.00
01153              60.00    -2200.00
01154              60.00    -2000.00
01155              60.00    -1800.00
01156              60.00    -1400.00
01157              20.00    -1200.00
01158              20.00     -800.00
01159              40.00     -600.00
01160              60.00     -600.00
01161              60.00     -400.00
01162              40.00     -200.00
01163              40.00      200.00
01164              60.00      200.00
01165             100.00      400.00
01166             220.00      600.00
01167             220.00     1000.00
01168             180.00     1000.00
01169             140.00     1200.00
01170             100.00     1400.00
01171             160.00     1600.00
01172             700.00     1800.00
01173            1280.00     2200.00
01174             580.00     2200.00
01175            -700.00     2600.00
01176           -1340.00     2600.00
01177           -1420.00     3000.00
01178            -100.00     3400.00
01179             900.00     3200.00
01180             220.00     3400.00
01181             480.00     3800.00
01182             300.00     3600.00
01183            -180.00     4400.00
01184             220.00     4400.00
01185             -80.00     4200.00
01186             240.00     5200.00
01187             300.00     4600.00
01188            -160.00     5200.00
01189              20.00     5400.00
01190             -60.00     5400.00
01191             100.00     6000.00
01192              80.00     5800.00
01193             140.00     6200.00
01194             160.00     6200.00
01195             -60.00     6200.00
01196             160.00     6800.00
01197              80.00     6600.00
01198              60.00     7000.00
01199              60.00     7000.00
01200              80.00     7200.00
01201              60.00     7800.00
01202               0.00     7600.00
01203              80.00     7800.00
01204              80.00     7800.00
01205             160.00     8200.00
01206              60.00     8200.00
01207              80.00     8400.00
01208              20.00     8600.00
01209              40.00     8600.00
01210              80.00     8800.00
01211              60.00     8800.00
01212              60.00     9200.00
01213              20.00     9200.00
01214              80.00     9400.00
01215              60.00     9400.00
01216             100.00     9400.00
01217              60.00     9800.00
01218              20.00     9800.00
01219              20.00    10000.00
01220              60.00    10000.00
01221              80.00    10000.00
01222              60.00    10200.00
01223              40.00    10400.00
01224               0.00    10200.00
01225              20.00    10200.00
01226              80.00    10600.00
01227              60.00    10600.00
01228              60.00    10600.00
01229              40.00    10600.00
01230               0.00    10800.00
01231              20.00    11000.00
01232               0.00    11000.00
01233              40.00    11000.00
01234              60.00    11000.00
01235              60.00    11000.00
01236              60.00    11000.00
01237              40.00    11400.00
01238               0.00    11000.00
01239               0.00    11200.00
01240              60.00    11400.00
01241              20.00    11400.00
01242              20.00    11600.00
01243              20.00    11400.00
01244              20.00    11400.00
01245               0.00    11400.00
01246              20.00    11400.00
01247              20.00    11400.00
01248              60.00    11400.00
01249              20.00    11400.00
01250              20.00    11400.00
01251               0.00    11400.00
01252               0.00    11200.00
01253               0.00    11200.00
01254              40.00    11000.00
01255              60.00    11200.00
01256               0.00    11000.00
01257              20.00    11000.00
01258               0.00    11000.00
01259               0.00    11000.00
01260               0.00    11000.00
01261              20.00    10800.00
01262              20.00    11000.00
01263              20.00    10600.00
01264               0.00    10600.00
01265               0.00    10800.00
01266               0.00    10600.00
01267              20.00    10600.00
01268              20.00    10400.00
01269               0.00    10200.00
01270               0.00    10200.00
01271               0.00    10000.00
01272               0.00    10000.00
01273               0.00     9800.00
01274               0.00     9800.00
01275               0.00     9800.00
01276             -20.00     9800.00
01277             -20.00     9400.00
01278               0.00     9400.00
01279               0.00     9200.00
01280              20.00     9200.00
01281              20.00     9000.00
01282               0.00     9000.00
01283             -20.00     8800.00
01284             -40.00     8600.00
01285             -20.00     8400.00
01286             -20.00     8400.00
01287             -20.00     8200.00
01288             -20.00     8200.00
01289             -20.00     7800.00
01290             -20.00     7600.00
01291               0.00     7400.00
01292             -20.00     7400.00
01293             -20.00     7200.00
01294             -20.00     7000.00
01295               0.00     6800.00
01296               0.00     6800.00
01297             -60.00     6600.00
01298             -60.00     6200.00
01299             -80.00     6000.00
01300             -60.00     6200.00
01301               0.00     5800.00
01302               0.00     5800.00
01303             -20.00     5400.00
01304             -20.00     5200.00
01305             -40.00     5200.00
01306             -60.00     4800.00
01307             -20.00     4800.00
01308             -20.00     4400.00
01309             -20.00     4400.00
01310             -20.00     4000.00
01311             -80.00     4000.00
01312             -80.00     3600.00
01313             -20.00     3600.00
01314             -20.00     3400.00
01315               0.00     3000.00
01316             -20.00     3000.00
01317             -20.00     2800.00
01318             -60.00     2400.00
01319             -60.00     2200.00
01320             -20.00     2200.00
01321             -20.00     2000.00
01322             -20.00     1800.00
01323             -40.00     1400.00
01324             -20.00     1400.00
01325             -20.00     1000.00
01326             -60.00     1000.00
01327             -60.00      600.00
01328             -80.00      400.00
01329             -60.00      200.00
01330             -20.00        0.00
01331               0.00     -200.00
01332              60.00     -400.00
01333             100.00     -600.00
01334             100.00     -600.00
01335              60.00    -1000.00
01336              20.00    -1200.00
01337               0.00    -1200.00
01338               0.00    -1800.00
01339             160.00    -1800.00
01340             720.00    -2000.00
01341             960.00    -2600.00
01342             140.00    -2600.00
01343            -800.00    -2800.00
01344           -1060.00    -3000.00
01345           -1120.00    -2800.00
01346            -460.00    -3000.00
01347             500.00    -3600.00
01348              80.00    -3600.00
01349             260.00    -3800.00
01350             320.00    -4400.00
01351            -220.00    -4000.00
01352             100.00    -4400.00
01353               0.00    -4600.00
01354             -20.00    -4800.00
01355             240.00    -5400.00
01356             -20.00    -5000.00
01357            -260.00    -5800.00
01358            -240.00    -5600.00
01359               0.00    -5800.00
01360             -60.00    -6200.00
01361             -40.00    -6000.00
01362              80.00    -6600.00
01363            -100.00    -6400.00
01364             -60.00    -6800.00
01365               0.00    -6800.00
01366             -20.00    -6800.00
01367             -20.00    -7400.00
01368             -20.00    -7200.00
01369             -20.00    -7600.00
01370            -100.00    -7600.00
01371            -100.00    -7800.00
01372             -20.00    -8000.00
01373               0.00    -8000.00
01374             -60.00    -8400.00
01375             -60.00    -8200.00
01376             -40.00    -8600.00
01377             -60.00    -8600.00
01378             -20.00    -8800.00
01379             -20.00    -9000.00
01380             -40.00    -9000.00
01381             -80.00    -9400.00
01382             -20.00    -9200.00
01383             -20.00    -9400.00
01384             -60.00    -9400.00
01385             -60.00    -9800.00
01386             -60.00    -9800.00
01387             -60.00    -9800.00
01388             -20.00   -10000.00
01389               0.00   -10000.00
01390             -20.00   -10200.00
01391             -60.00   -10400.00
01392             -80.00   -10600.00
01393             -60.00   -10600.00
01394             -40.00   -10600.00
01395               0.00   -10800.00
01396               0.00   -10800.00
01397             -60.00   -10600.00
01398             -80.00   -11000.00
01399             -60.00   -10800.00
01400             -40.00   -11000.00
01401             -20.00   -11000.00
01402               0.00   -11000.00
01403             -20.00   -11200.00
01404             -60.00   -11200.00
01405             -60.00   -11200.00
01406             -20.00   -11200.00
01407             -20.00   -11400.00
01408               0.00   -11400.00
01409               0.00   -11200.00
01410             -20.00   -11400.00
01411             -60.00   -11400.00
01412             -60.00   -11200.00
01413             -60.00   -11200.00
01414             -20.00   -11400.00
01415               0.00   -11400.00
01416               0.00   -11400.00
01417             -20.00   -11400.00
01418             -60.00   -11400.00
01419             -60.00   -11200.00
01420             -20.00   -11400.00
01421             -20.00   -11200.00
01422               0.00   -11000.00
01423               0.00   -11200.00
01424             -20.00   -11200.00
01425             -20.00   -11000.00
01426             -20.00   -11000.00
01427             -20.00   -11000.00
01428             -20.00   -11000.00
01429               0.00   -10800.00
01430               0.00   -11000.00
01431               0.00   -10600.00
01432             -20.00   -10600.00
01433             -20.00   -10600.00
01434             -20.00   -10600.00
01435               0.00   -10400.00
01436               0.00   -10200.00
01437               0.00   -10200.00
01438               0.00   -10200.00
01439             -20.00   -10000.00
01440             -20.00   -10000.00
01441             -20.00    -9800.00
01442               0.00    -9800.00
01443               0.00    -9400.00
01444              20.00    -9400.00
01445               0.00    -9400.00
01446               0.00    -9200.00
01447               0.00    -9000.00
01448               0.00    -9000.00
01449               0.00    -9000.00
01450               0.00    -8600.00
01451               0.00    -8600.00
01452               0.00    -8400.00
01453              20.00    -8200.00
01454               0.00    -8200.00
01455              20.00    -8200.00
01456              20.00    -7800.00
01457               0.00    -7600.00
01458               0.00    -7600.00
01459              20.00    -7400.00
01460              20.00    -7200.00
01461              20.00    -7000.00
01462              20.00    -6800.00
01463              20.00    -6800.00
01464               0.00    -6600.00
01465              20.00    -6400.00
01466              20.00    -6200.00
01467              20.00    -6200.00
01468              40.00    -6000.00
01469              20.00    -5800.00
01470              20.00    -5400.00
01471              20.00    -5400.00
01472              20.00    -5200.00
01473              20.00    -5000.00
01474              20.00    -4600.00
01475              60.00    -4400.00
01476              60.00    -4400.00
01477              20.00    -4200.00
01478              20.00    -4200.00
01479              20.00    -3600.00
01480              20.00    -3600.00
01481              20.00    -3400.00
01482              60.00    -3200.00
01483              40.00    -2800.00
01484              20.00    -2800.00
01485              20.00    -2600.00
01486              20.00    -2200.00
01487              40.00    -2200.00
01488              60.00    -1800.00
01489              60.00    -1800.00
01490              60.00    -1600.00
01491              40.00    -1200.00
01492              20.00    -1000.00
01493              40.00     -800.00
01494              40.00     -600.00
01495              60.00     -400.00
01496              60.00     -200.00
01497              60.00        0.00
01498              60.00      200.00
01499              80.00      400.00
01500             180.00      600.00
01501             220.00      600.00
01502             220.00     1000.00
01503             160.00     1200.00
01504             140.00     1200.00
01505             140.00     1800.00
01506             400.00     1800.00
01507            1180.00     2200.00
01508            1020.00     2200.00
01509            -160.00     2600.00
01510           -1140.00     2600.00
01511           -1460.00     2800.00
01512            -860.00     3200.00
01513             780.00     3400.00
01514             520.00     3200.00
01515             260.00     3800.00
01516             540.00     3600.00
01517            -140.00     4000.00
01518              80.00     4600.00
01519              80.00     4000.00
01520              20.00     4800.00
01521             460.00     5000.00
01522             -20.00     4800.00
01523             -60.00     5400.00
01524               0.00     5200.00
01525               0.00     5800.00
01526             140.00     5800.00
01527              60.00     5800.00
01528             220.00     6600.00
01529               0.00     6200.00
01530              80.00     6600.00
01531             140.00     6600.00
01532              40.00     6800.00
01533              80.00     7400.00
01534              60.00     7000.00
01535             100.00     7600.00
01536               0.00     7400.00
01537              60.00     7800.00
01538              80.00     7800.00
01539             140.00     7800.00
01540             100.00     8200.00
01541              60.00     8200.00
01542              80.00     8600.00
01543               0.00     8400.00
01544             100.00     8600.00
01545              60.00     8800.00
01546              60.00     9000.00
01547               0.00     9200.00
01548              20.00     9200.00
01549              60.00     9400.00
01550              80.00     9400.00
01551              80.00     9800.00
01552              40.00     9800.00
01553               0.00    10000.00
01554              20.00    10000.00
01555              80.00    10000.00
01556              60.00    10200.00
01557              60.00    10200.00
01558              20.00    10200.00
01559              20.00    10400.00
01560              60.00    10600.00
01561              60.00    10400.00
01562              80.00    10600.00
01563              20.00    10800.00
01564              20.00    10800.00
01565              20.00    11000.00
01566               0.00    10800.00
01567              20.00    11000.00
01568              60.00    11000.00
01569              60.00    11000.00
01570              60.00    11400.00
01571              40.00    11000.00
01572              20.00    11200.00
01573              20.00    11200.00
01574              60.00    11400.00
01575              60.00    11400.00
01576              20.00    11400.00
01577              40.00    11400.00
01578               0.00    11400.00
01579              20.00    11400.00
01580              20.00    11400.00
01581              20.00    11400.00
01582              60.00    11400.00
01583              20.00    11400.00
01584              20.00    11400.00
01585              20.00    11200.00
01586              20.00    11400.00
01587               0.00    11400.00
01588              20.00    11200.00
01589              40.00    11400.00
01590              20.00    11000.00
01591               0.00    11200.00
01592              20.00    11000.00
01593              20.00    11000.00
01594              20.00    11000.00
01595              20.00    11000.00
01596              20.00    11000.00
01597               0.00    10800.00
01598               0.00    10800.00
01599               0.00    10600.00
01600               0.00    10600.00
01601              20.00    10600.00
01602              20.00    10400.00
01603              20.00    10400.00
01604               0.00    10200.00
01605               0.00    10200.00
01606               0.00    10200.00
01607               0.00    10000.00
01608               0.00    10000.00
01609               0.00     9800.00
01610               0.00     9600.00
01611             -20.00     9400.00
01612               0.00     9400.00
01613             -20.00     9400.00
01614               0.00     9200.00
01615               0.00     9200.00
01616             -20.00     9000.00
01617             -20.00     8600.00
01618             -20.00     8600.00
01619             -20.00     8400.00
01620             -20.00     8400.00
01621               0.00     8200.00
01622               0.00     8200.00
01623             -20.00     7800.00
01624             -20.00     7600.00
01625             -20.00     7600.00
01626             -40.00     7400.00
01627             -20.00     7200.00
01628             -20.00     7000.00
01629             -20.00     7000.00
01630             -20.00     7000.00
01631             -20.00     6600.00
01632             -60.00     6600.00
01633             -20.00     6200.00
01634             -20.00     6000.00
01635             -20.00     6000.00
01636             -20.00     5800.00
01637             -20.00     5800.00
01638             -20.00     5400.00
01639             -20.00     5200.00
01640             -20.00     5000.00
01641             -20.00     5000.00
01642             -20.00     4600.00
01643             -60.00     4400.00
01644             -20.00     4200.00
01645             -20.00     4200.00
01646             -20.00     3800.00
01647             -20.00     3600.00
01648             -20.00     3400.00
01649             -20.00     3400.00
01650             -40.00     3000.00
01651             -80.00     2800.00
01652             -20.00     2800.00
01653             -60.00     2200.00
01654             -20.00     2000.00
01655             -20.00     2000.00
01656             -20.00     1800.00
01657             -40.00     1400.00
01658             -20.00     1400.00
01659             -60.00     1200.00
01660             -60.00      800.00
01661             -60.00      800.00
01662             -20.00      400.00
01663             -60.00      200.00
01664             -60.00      200.00
01665             -20.00     -200.00
01666             -20.00     -200.00
01667              80.00     -600.00
01668             140.00     -600.00
01669              80.00    -1000.00
01670              20.00    -1000.00
01671               0.00    -1200.00
01672               0.00    -1600.00
01673              60.00    -1800.00
01674             420.00    -1800.00
01675            1020.00    -2200.00
01676             560.00    -2600.00
01677            -460.00    -2800.00
01678           -1040.00    -2800.00
01679           -1140.00    -3000.00
01680            -900.00    -2800.00
01681             260.00    -3400.00
01682             380.00    -3800.00
01683              80.00    -3600.00
01684             460.00    -4200.00
01685             -60.00    -4200.00
01686             -60.00    -4200.00
01687             140.00    -4600.00
01688            -140.00    -4600.00
01689             100.00    -5200.00
01690              80.00    -5000.00
01691            -180.00    -5400.00
01692            -240.00    -5800.00
01693             -80.00    -5400.00
01694              20.00    -6000.00
01695            -100.00    -6000.00
01696              20.00    -6200.00
01697             -20.00    -6400.00
01698            -100.00    -6600.00
01699               0.00    -7000.00
01700             -20.00    -6800.00
01701             -20.00    -7000.00
01702             -60.00    -7200.00
01703             -20.00    -7400.00
01704             -60.00    -7600.00
01705            -100.00    -7600.00
01706             -60.00    -8000.00
01707               0.00    -8000.00
01708             -40.00    -8400.00
01709             -80.00    -8400.00
01710             -60.00    -8400.00
01711             -20.00    -8600.00
01712             -20.00    -8800.00
01713             -20.00    -9000.00
01714             -60.00    -9000.00
01715            -100.00    -9200.00
01716             -60.00    -9200.00
01717             -20.00    -9400.00
01718             -40.00    -9400.00
01719             -20.00    -9600.00
01720             -20.00    -9800.00
01721             -60.00    -9800.00
01722             -80.00   -10000.00
01723             -20.00   -10000.00
01724             -20.00   -10200.00
01725             -60.00   -10200.00
01726             -60.00   -10400.00
01727             -60.00   -10400.00
01728             -20.00   -10600.00
01729             -20.00   -10600.00
01730               0.00   -10600.00
01731             -20.00   -10800.00
01732             -60.00   -10800.00
01733             -60.00   -10800.00
01734             -20.00   -11000.00
01735             -60.00   -11000.00
01736             -20.00   -10800.00
01737               0.00   -11200.00
01738             -60.00   -11000.00
01739             -60.00   -11200.00
01740             -60.00   -11000.00
01741             -60.00   -11200.00
01742             -40.00   -11400.00
01743             -20.00   -11400.00
01744             -20.00   -11400.00
01745             -20.00   -11400.00
01746             -20.00   -11400.00
01747             -20.00   -11400.00
01748             -40.00   -11400.00
01749               0.00   -11400.00
01750             -20.00   -11200.00
01751             -20.00   -11400.00
01752             -20.00   -11400.00
01753             -40.00   -11400.00
01754             -20.00   -11200.00
01755             -20.00   -11200.00
01756               0.00   -11200.00
01757               0.00   -11000.00
01758             -20.00   -11200.00
01759             -20.00   -11000.00
01760             -20.00   -11000.00
01761             -20.00   -11000.00
01762               0.00   -11000.00
01763               0.00   -11000.00
01764               0.00   -10800.00
01765               0.00   -10800.00
01766               0.00   -10800.00
01767               0.00   -10600.00
01768               0.00   -10400.00
01769               0.00   -10600.00
01770               0.00   -10600.00
01771               0.00   -10400.00
01772               0.00   -10200.00
01773             -20.00   -10000.00
01774             -20.00   -10000.00
01775               0.00    -9800.00
01776              20.00    -9800.00
01777               0.00    -9600.00
01778              20.00    -9400.00
01779               0.00    -9400.00
01780               0.00    -9400.00
01781               0.00    -9200.00
01782               0.00    -9200.00
01783               0.00    -9000.00
01784              20.00    -8800.00
01785               0.00    -8600.00
01786               0.00    -8600.00
01787               0.00    -8400.00
01788               0.00    -8400.00
01789              20.00    -8200.00
01790              60.00    -7800.00
01791               0.00    -7800.00
01792               0.00    -7600.00
01793               0.00    -7400.00
01794               0.00    -7200.00
01795              20.00    -7000.00
01796              20.00    -7000.00
01797               0.00    -6800.00
01798               0.00    -6800.00
01799              20.00    -6400.00
01800               0.00    -6200.00
01801              20.00    -6200.00
01802              20.00    -6000.00
01803              40.00    -5800.00
01804              20.00    -5400.00
01805              20.00    -5400.00
01806               0.00    -5200.00
01807              20.00    -5000.00
01808              20.00    -4800.00
01809              20.00    -4600.00
01810              20.00    -4400.00
01811              60.00    -4400.00
01812              20.00    -4200.00
01813              60.00    -3800.00
01814              20.00    -3600.00
01815              40.00    -3400.00
01816              20.00    -3200.00
01817              40.00    -3000.00
01818              20.00    -2800.00
01819              20.00    -2600.00
01820              20.00    -2400.00
01821              40.00    -2200.00
01822              60.00    -2200.00
01823              60.00    -1800.00
01824              60.00    -1600.00
01825              40.00    -1400.00
01826              20.00    -1200.00
01827              20.00     -800.00
01828              20.00     -800.00
01829              60.00     -600.00
01830              60.00     -200.00
01831              60.00     -200.00
01832              60.00        0.00
01833              80.00      400.00
01834             160.00      600.00
01835             220.00      600.00
01836             220.00     1000.00
01837             160.00     1000.00
01838             140.00     1200.00
01839             100.00     1400.00
01840             220.00     1800.00
01841             840.00     2000.00
01842            1260.00     2200.00
01843             400.00     2200.00
01844            -860.00     2600.00
01845           -1380.00     2800.00
01846           -1340.00     3000.00
01847             180.00     3400.00
01848             860.00     3000.00
01849             160.00     3400.00
01850             560.00     3800.00
01851             160.00     3600.00
01852            -180.00     4600.00
01853             200.00     4200.00
01854             -80.00     4400.00
01855             340.00     5200.00
01856             220.00     4600.00
01857            -160.00     5400.00
01858              20.00     5600.00
01859             -60.00     5400.00
01860             140.00     6000.00
01861              60.00     5600.00
01862             160.00     6200.00
01863             100.00     6200.00
01864             -20.00     6200.00
01865             160.00     6800.00
01866              20.00     6600.00
01867              60.00     7200.00
01868              60.00     6800.00
01869             100.00     7400.00
01870              20.00     7600.00
01871               0.00     7400.00
01872              60.00     7800.00
01873              80.00     7800.00
01874             140.00     8000.00
01875              40.00     8200.00
01876              80.00     8400.00
01877               0.00     8600.00
01878              60.00     8600.00
01879              80.00     9000.00
01880              60.00     9000.00
01881              60.00     9000.00
01882               0.00     9200.00
01883              60.00     9400.00
01884              60.00     9400.00
01885              80.00     9600.00
01886              60.00     9800.00
01887               0.00     9800.00
01888               0.00     9800.00
01889              60.00    10000.00
01890              80.00    10000.00
01891              60.00    10200.00
01892              60.00    10200.00
01893               0.00    10200.00
01894              20.00    10400.00
01895              60.00    10600.00
01896              80.00    10600.00
01897              60.00    10600.00
01898              60.00    10800.00
01899              20.00    11000.00
01900               0.00    10800.00
01901               0.00    11000.00
01902              60.00    11000.00
01903              60.00    11000.00
01904              60.00    11000.00
01905              60.00    11200.00
01906              20.00    11400.00
01907               0.00    11400.00
01908              20.00    11200.00
01909              60.00    11200.00
01910              60.00    11400.00
01911              20.00    11400.00
01912              20.00    11400.00
01913               0.00    11400.00
01914              20.00    11400.00
01915              40.00    11400.00
01916              60.00    11400.00
01917              20.00    11400.00
01918              20.00    11600.00
01919              20.00    11400.00
01920              20.00    11200.00
01921              20.00    11400.00
01922              20.00    11400.00
01923              20.00    11400.00
01924              20.00    11200.00
01925              60.00    11200.00
01926              20.00    11000.00
01927               0.00    11000.00
01928               0.00    11000.00
01929              20.00    11000.00
01930              20.00    10800.00
01931              20.00    10800.00
01932              20.00    10600.00
01933               0.00    10800.00
01934               0.00    10600.00
01935               0.00    10600.00
01936               0.00    10600.00
01937               0.00    10400.00
01938               0.00    10200.00
01939               0.00    10200.00
01940               0.00    10000.00
01941               0.00    10000.00
01942               0.00    10000.00
01943               0.00     9800.00
01944               0.00     9800.00
01945               0.00     9600.00
01946             -20.00     9400.00
01947             -20.00     9400.00
01948               0.00     9200.00
01949               0.00     9200.00
01950               0.00     9000.00
01951               0.00     8800.00
01952             -20.00     8600.00
01953             -20.00     8600.00
01954             -20.00     8400.00
01955             -20.00     8200.00
01956               0.00     8200.00
01957               0.00     7800.00
01958             -20.00     7800.00
01959             -20.00     7600.00
01960             -20.00     7400.00
01961             -20.00     7400.00
01962               0.00     7000.00
01963               0.00     7000.00
01964             -20.00     7000.00
01965             -60.00     6800.00
01966             -60.00     6600.00
01967             -20.00     6600.00
01968             -20.00     6200.00
01969               0.00     6000.00
01970               0.00     6000.00
01971             -20.00     5800.00
01972             -60.00     5400.00
01973             -40.00     5200.00
01974             -60.00     5200.00
01975             -20.00     5000.00
01976             -20.00     4600.00
01977             -20.00     4600.00
01978             -20.00     4200.00
01979             -20.00     4200.00
01980             -60.00     3800.00
01981             -60.00     3800.00
01982             -20.00     3400.00
01983             -20.00     3400.00
01984             -20.00     3000.00
01985             -60.00     3000.00
01986             -60.00     2600.00
01987             -60.00     2400.00
01988             -20.00     2400.00
01989             -20.00     2000.00
01990             -20.00     1800.00
01991             -60.00     1600.00
01992             -20.00     1400.00
01993             -40.00     1200.00
01994             -20.00     1000.00
01995             -40.00      600.00
01996             -60.00      600.00
01997             -20.00      400.00
01998             -60.00      200.00
01999             -40.00        0.00
02000             -20.00     -200.00
02001              40.00     -600.00
02002             100.00     -600.00
02003             100.00     -800.00
02004              20.00    -1000.00
02005               0.00    -1200.00
02006               0.00    -1400.00
02007               0.00    -1600.00
02008             220.00    -1800.00
02009             820.00    -2200.00
02010             880.00    -2600.00
02011             -20.00    -2600.00
02012            -900.00    -2800.00
02013           -1100.00    -3000.00
02014           -1120.00    -2800.00
02015            -260.00    -3000.00
02016             540.00    -3800.00
02017              80.00    -3600.00
02018             340.00    -4000.00
02019             240.00    -4400.00
02020            -180.00    -3800.00
02021             160.00    -4600.00
02022             -60.00    -4600.00
02023             -20.00    -5000.00
02024             160.00    -5200.00
02025            -100.00    -5200.00
02026            -220.00    -5800.00
02027            -180.00    -5400.00
02028              60.00    -5800.00
02029            -100.00    -6200.00
02030             -40.00    -6000.00
02031              20.00    -6600.00
02032            -100.00    -6200.00
02033               0.00    -6800.00
02034               0.00    -6800.00
02035             -40.00    -7000.00
02036             -60.00    -7400.00
02037             -40.00    -7200.00
02038             -20.00    -7400.00
02039             -80.00    -7800.00
02040             -80.00    -7800.00
02041               0.00    -8000.00
02042               0.00    -8200.00
02043             -80.00    -8400.00
02044             -40.00    -8400.00
02045             -20.00    -8600.00
02046             -60.00    -8600.00
02047             -60.00    -9000.00
02048             -60.00    -9000.00
02049             -80.00    -9200.00
02050             -60.00    -9400.00
02051               0.00    -9400.00
02052               0.00    -9600.00
02053             -40.00    -9600.00
02054             -40.00    -9800.00
02055             -60.00    -9800.00
02056             -80.00   -10000.00
02057             -20.00   -10000.00
02058               0.00   -10000.00
02059             -20.00   -10200.00
02060             -80.00   -10200.00
02061             -80.00   -10600.00
02062             -80.00   -10600.00
02063             -20.00   -10600.00
02064               0.00   -10600.00
02065              20.00   -10800.00
02066             -60.00   -11000.00
02067             -80.00   -11000.00
02068            -100.00   -10800.00
02069             -60.00   -11000.00
02070             -40.00   -11000.00
02071               0.00   -11000.00
02072               0.00   -11200.00
02073             -60.00   -11200.00
02074             -60.00   -11400.00
02075             -60.00   -11200.00
02076             -80.00   -11200.00
02077             -20.00   -11400.00
02078             -20.00   -11400.00
02079             -20.00   -11400.00
02080             -20.00   -11400.00
02081             -20.00   -11400.00
02082             -60.00   -11200.00
02083             -80.00   -11400.00
02084             -40.00   -11400.00
02085             -20.00   -11400.00
02086               0.00   -11400.00
02087             -20.00   -11400.00
02088             -20.00   -11200.00
02089             -40.00   -11200.00
02090             -60.00   -11200.00
02091             -20.00   -11000.00
02092               0.00   -11000.00
02093             -20.00   -11000.00
02094             -20.00   -11000.00
02095             -20.00   -11000.00
02096             -20.00   -11000.00
02097               0.00   -11000.00
02098               0.00   -10800.00
02099               0.00   -10800.00
02100             -20.00   -10600.00
02101             -20.00   -10600.00
02102             -20.00   -10600.00
02103               0.00   -10600.00
02104              20.00   -10200.00
02105               0.00   -10200.00
02106               0.00   -10200.00
02107             -20.00   -10200.00
02108               0.00   -10000.00
02109               0.00   -10000.00
02110               0.00    -9800.00
02111              20.00    -9800.00
02112               0.00    -9600.00
02113               0.00    -9400.00
02114               0.00    -9400.00
02115               0.00    -9200.00
02116               0.00    -9000.00
02117              20.00    -9000.00
02118              20.00    -9000.00
02119              20.00    -8800.00
02120             -20.00    -8800.00
02121               0.00    -8600.00
02122               0.00    -8200.00
02123               0.00    -8200.00
02124              20.00    -8200.00
02125              20.00    -7800.00
02126               0.00    -7600.00
02127               0.00    -7600.00
02128               0.00    -7400.00
02129               0.00    -7200.00
02130              40.00    -7000.00
02131              60.00    -6800.00
02132              20.00    -6600.00
02133               0.00    -6600.00
02134               0.00    -6400.00
02135               0.00    -6200.00
02136               0.00    -6000.00
02137               0.00    -5800.00
02138              20.00    -5800.00
02139              20.00    -5400.00
02140              20.00    -5400.00
02141               0.00    -5200.00
02142               0.00    -5000.00
02143              20.00    -4600.00
02144              80.00    -4600.00
02145              40.00    -4400.00
02146              20.00    -4200.00
02147              60.00    -3800.00
02148               0.00    -3600.00
02149              20.00    -3400.00
02150              20.00    -3400.00
02151              20.00    -3200.00
02152              40.00    -2800.00
02153              60.00    -2800.00
02154              40.00    -2600.00
02155              60.00    -2200.00
02156              60.00    -2200.00
02157              20.00    -2000.00
02158              20.00    -1800.00
02159              60.00    -1400.00
02160              60.00    -1200.00
02161              60.00     -800.00
02162              60.00     -800.00
02163              40.00     -600.00
02164              60.00     -400.00
02165              60.00     -200.00
02166              60.00        0.00
02167              80.00      400.00
02168             100.00      400.00
02169             180.00      600.00
02170             220.00      800.00
02171             180.00     1000.00
02172             140.00     1200.00
02173             100.00     1400.00
02174             140.00     1600.00
02175             480.00     1800.00
02176            1220.00     2200.00
02177             900.00     2200.00
02178            -340.00     2600.00
02179           -1200.00     2600.00
02180           -1480.00     2800.00
02181            -620.00     3400.00
02182             880.00     3400.00
02183             380.00     3000.00
02184             340.00     3800.00
02185             500.00     3600.00
02186            -180.00     4200.00
02187             140.00     4600.00
02188              20.00     4200.00
02189              80.00     5000.00
02190             420.00     5000.00
02191            -100.00     4800.00
02192             -20.00     5600.00
02193             -20.00     5200.00
02194              20.00     6000.00
02195             140.00     5800.00
02196              60.00     6000.00
02197             220.00     6400.00
02198             -40.00     6000.00
02199             100.00     6800.00
02200             100.00     6600.00
02201              20.00     6800.00
02202              60.00     7200.00
02203              60.00     7000.00
02204              80.00     7400.00
02205             -20.00     7400.00
02206              80.00     7800.00
02207              60.00     7800.00
02208             140.00     8000.00
02209             100.00     8200.00
02210              40.00     8200.00
02211              20.00     8600.00
02212               0.00     8400.00
02213              80.00     9000.00
02214              60.00     8800.00
02215              60.00     9000.00
02216               0.00     9200.00
02217              60.00     9400.00
02218              60.00     9600.00
02219             100.00     9400.00
02220             100.00     9800.00
02221              20.00     9600.00
02222               0.00     9800.00
02223              20.00    10000.00
02224              60.00    10000.00
02225              60.00    10200.00
02226              60.00    10200.00
02227               0.00    10400.00
02228              20.00    10600.00
02229              60.00    10600.00
02230              80.00    10600.00
02231              80.00    10600.00
02232              60.00    10600.00
02233              20.00    10800.00
02234              20.00    10800.00
02235               0.00    11000.00
02236              40.00    11000.00
02237              80.00    11000.00
02238              80.00    11000.00
02239              80.00    11000.00
02240              60.00    11200.00
02241              20.00    11000.00
02242              20.00    11400.00
02243              60.00    11400.00
02244              60.00    11400.00
02245              20.00    11400.00
02246              20.00    11400.00
02247              20.00    11400.00
02248              20.00    11400.00
02249              20.00    11200.00
02250              60.00    11400.00
02251              20.00    11400.00
02252              20.00    11400.00
02253              20.00    11400.00
02254              20.00    11200.00
02255               0.00    11400.00
02256              20.00    11400.00
02257              20.00    11400.00
02258              20.00    11400.00
02259              20.00    11200.00
02260               0.00    11200.00
02261             -20.00    11000.00
02262               0.00    11000.00
02263               0.00    11000.00
02264              20.00    10800.00
02265               0.00    10800.00
02266               0.00    10800.00
02267               0.00    10800.00
02268               0.00    10800.00
02269               0.00    10600.00
02270               0.00    10400.00
02271              20.00    10400.00
02272               0.00    10200.00
02273             -20.00    10200.00
02274               0.00    10200.00
02275               0.00    10000.00
02276               0.00    10000.00
02277               0.00     9800.00
02278             -20.00     9800.00
02279               0.00     9600.00
02280               0.00     9600.00
02281               0.00     9400.00
02282             -20.00     9400.00
02283             -20.00     9200.00
02284               0.00     9000.00
02285               0.00     8800.00
02286             -20.00     8800.00
02287             -20.00     8400.00
02288             -20.00     8400.00
02289               0.00     8400.00
02290               0.00     8200.00
02291               0.00     8000.00
02292             -20.00     7800.00
02293             -20.00     7800.00
02294             -40.00     7600.00
02295             -20.00     7400.00
02296             -20.00     7400.00
02297             -20.00     7000.00
02298             -20.00     6800.00
02299             -20.00     6800.00
02300             -20.00     6600.00
02301             -20.00     6600.00
02302             -20.00     6200.00
02303             -20.00     6200.00
02304             -20.00     5800.00
02305             -20.00     5800.00
02306             -60.00     5400.00
02307             -60.00     5600.00
02308             -20.00     5200.00
02309             -20.00     5000.00
02310             -40.00     4600.00
02311             -60.00     4600.00
02312             -20.00     4400.00
02313             -20.00     4200.00
02314             -20.00     4000.00
02315             -20.00     3800.00
02316             -40.00     3600.00
02317             -60.00     3400.00
02318             -20.00     3200.00
02319             -20.00     3000.00
02320             -20.00     3000.00
02321             -60.00     2600.00
02322             -60.00     2400.00
02323             -20.00     2200.00
02324             -20.00     1800.00
02325             -40.00     1800.00
02326             -60.00     1400.00
02327             -20.00     1400.00
02328             -60.00     1200.00
02329             -60.00      800.00
02330             -60.00      600.00
02331             -60.00      600.00
02332             -60.00      200.00
02333             -20.00      200.00
02334             -20.00     -200.00
02335               0.00     -400.00
02336              80.00     -600.00
02337             100.00     -600.00
02338              80.00     -800.00
02339              20.00    -1200.00
02340               0.00    -1400.00
02341               0.00    -1400.00
02342              80.00    -1800.00
02343             540.00    -2000.00
02344            1020.00    -2400.00
02345             400.00    -2600.00
02346            -580.00    -2600.00
02347           -1060.00    -2800.00
02348           -1140.00    -3000.00
02349            -780.00    -2800.00
02350             400.00    -3400.00
02351             280.00    -3600.00
02352             160.00    -3600.00
02353             420.00    -4400.00
02354            -140.00    -4200.00
02355              60.00    -4200.00
02356             100.00    -4600.00
02357            -100.00    -4600.00
02358             160.00    -5200.00
02359              20.00    -5000.00
02360            -180.00    -5400.00
02361            -240.00    -5600.00
02362             -40.00    -5400.00
02363               0.00    -6000.00
02364            -100.00    -6000.00
02365              60.00    -6200.00
02366             -60.00    -6600.00
02367             -60.00    -6600.00
02368              20.00    -7000.00
02369             -20.00    -6800.00
02370             -20.00    -7400.00
02371             -40.00    -7200.00
02372             -20.00    -7400.00
02373             -80.00    -7600.00
02374             -80.00    -7800.00
02375             -20.00    -8200.00
02376               0.00    -8000.00
02377             -60.00    -8400.00
02378             -60.00    -8400.00
02379               0.00    -8400.00
02380             -20.00    -8600.00
02381             -20.00    -8800.00
02382             -60.00    -9000.00
02383             -80.00    -9200.00
02384            -100.00    -9200.00
02385             -20.00    -9200.00
02386              20.00    -9400.00
02387             -20.00    -9400.00
02388             -20.00    -9800.00
02389             -60.00    -9800.00
02390             -80.00   -10000.00
02391            -100.00   -10000.00
02392             -20.00   -10000.00
02393               0.00   -10000.00
02394             -60.00   -10400.00
02395             -60.00   -10600.00
02396             -60.00   -10600.00
02397             -60.00   -10600.00
02398             -20.00   -10800.00
02399               0.00   -10800.00
02400             -20.00   -10800.00
02401             -80.00   -10800.00
02402             -60.00   -11000.00
02403             -20.00   -11000.00
02404             -20.00   -11000.00
02405               0.00   -11000.00
02406               0.00   -11200.00
02407             -60.00   -11200.00
02408             -60.00   -11200.00
02409             -60.00   -11400.00
02410             -20.00   -11200.00
02411             -60.00   -11200.00
02412             -20.00   -11400.00
02413             -20.00   -11400.00
02414             -60.00   -11400.00
02415             -40.00   -11400.00
02416             -20.00   -11400.00
02417             -40.00   -11200.00
02418               0.00   -11400.00
02419             -20.00   -11400.00
02420               0.00   -11400.00
02421             -20.00   -11400.00
02422             -20.00   -11400.00
02423             -20.00   -11200.00
02424             -20.00   -11200.00
02425               0.00   -11400.00
02426               0.00   -11200.00
02427             -20.00   -11000.00
02428             -20.00   -11000.00
02429             -20.00   -11000.00
02430             -20.00   -11000.00
02431               0.00   -10800.00
02432               0.00   -10800.00
02433               0.00   -10800.00
02434             -20.00   -10800.00
02435               0.00   -10600.00
02436             -20.00   -10600.00
02437             -20.00   -10600.00
02438               0.00   -10600.00
02439               0.00   -10600.00
02440               0.00   -10200.00
02441               0.00   -10200.00
02442             -20.00   -10000.00
02443               0.00   -10000.00
02444               0.00    -9800.00
02445               0.00    -9800.00
02446              20.00    -9800.00
02447               0.00    -9400.00
02448               0.00    -9400.00
02449               0.00    -9200.00
02450             -20.00    -9200.00
02451               0.00    -9000.00
02452               0.00    -9000.00
02453              20.00    -8600.00
02454              20.00    -8600.00
02455              20.00    -8600.00
02456               0.00    -8400.00
02457               0.00    -8200.00
02458               0.00    -8200.00
02459               0.00    -8000.00
02460              20.00    -7800.00
02461               0.00    -7600.00
02462               0.00    -7400.00
02463               0.00    -7200.00
02464               0.00    -7000.00
02465              20.00    -7000.00
02466              20.00    -6800.00
02467              20.00    -6600.00
02468               0.00    -6600.00
02469               0.00    -6600.00
02470              20.00    -6200.00
02471              20.00    -6000.00
02472              60.00    -5800.00
02473              20.00    -5400.00
02474               0.00    -5400.00
02475              20.00    -5200.00
02476              20.00    -5000.00
02477              20.00    -4600.00
02478              40.00    -4600.00
02479              20.00    -4400.00
02480               0.00    -4200.00
02481              20.00    -4200.00
02482              20.00    -3800.00
02483              40.00    -3400.00
02484              20.00    -3400.00
02485              20.00    -3200.00
02486              60.00    -3000.00
02487              20.00    -2800.00
02488              40.00    -2400.00
02489              20.00    -2200.00
02490              20.00    -2200.00
02491              40.00    -2000.00
02492              40.00    -1800.00
02493              60.00    -1400.00
02494              60.00    -1200.00
02495              60.00    -1200.00
02496              20.00     -800.00
02497              40.00     -600.00
02498              60.00     -400.00
02499              60.00     -400.00
02500              80.00        0.00
02501              80.00      200.00
02502              80.00      400.00
02503             160.00      600.00
02504             180.00      600.00
02505             200.00     1000.00
02506             160.00     1200.00
02507             140.00     1200.00
02508             120.00     1400.00
02509             280.00     1800.00
02510             960.00     2000.00
02511            1220.00     2200.00
02512             220.00     2400.00
02513            -960.00     2400.00
02514           -1420.00     2600.00
02515           -1220.00     3000.00
02516             400.00     3400.00
02517             740.00     3200.00
02518             160.00     3800.00
02519             580.00     3800.00
02520              20.00     3800.00
02521            -100.00     4600.00
02522             160.00     4200.00
02523            -100.00     4400.00
02524             380.00     5200.00
02525             100.00     4600.00
02526            -140.00     5400.00
02527              20.00     5200.00
02528             -60.00     5600.00
02529             140.00     5800.00
02530              20.00     5600.00
02531             160.00     6200.00
02532              60.00     6000.00
02533               0.00     6600.00
02534             180.00     6800.00
02535              20.00     6600.00
02536              60.00     7200.00
02537              60.00     7000.00
02538             100.00     7400.00
02539               0.00     7600.00
02540              20.00     7600.00
02541              60.00     8000.00
02542              80.00     7800.00
02543             140.00     8200.00
02544              20.00     8200.00
02545              80.00     8400.00
02546               0.00     8600.00
02547              80.00     8600.00
02548              80.00     8600.00
02549              60.00     9000.00
02550              60.00     9200.00
02551              20.00     9200.00
02552              60.00     9400.00
02553              80.00     9400.00
02554             120.00     9800.00
02555              20.00     9800.00
02556              20.00     9800.00
02557              20.00    10000.00
02558              60.00    10000.00
02559              60.00    10200.00
02560              60.00    10200.00
02561              60.00    10400.00
02562               0.00    10600.00
02563              40.00    10600.00
02564              80.00    10600.00
02565              80.00    10600.00
02566              80.00    10600.00
02567              40.00    10800.00
02568              60.00    10800.00
02569               0.00    10800.00
02570              60.00    11000.00
02571              60.00    11000.00
02572              60.00    11000.00
02573              60.00    11000.00
02574              20.00    11200.00
02575               0.00    11200.00
02576              20.00    11200.00
02577              60.00    11200.00
02578              80.00    11400.00
02579              60.00    11400.00
02580              20.00    11400.00
02581              20.00    11400.00
02582               0.00    11400.00
02583               0.00    11400.00
02584              20.00    11400.00
02585              20.00    11400.00
02586              40.00    11400.00
02587              60.00    11400.00
02588              20.00    11400.00
02589               0.00    11200.00
02590              20.00    11400.00
02591              20.00    11400.00
02592              20.00    11400.00
02593               0.00    11200.00
02594               0.00    11000.00
02595               0.00    11200.00
02596               0.00    11000.00
02597              20.00    11000.00
02598               0.00    11000.00
02599              20.00    11000.00
02600               0.00    10800.00
02601               0.00    10800.00
02602             -20.00    10600.00
02603               0.00    10600.00
02604               0.00    10600.00
02605              20.00    10600.00
02606              20.00    10400.00
02607              20.00    10200.00
02608               0.00    10200.00
02609             -20.00    10000.00
02610               0.00    10000.00
02611               0.00     9800.00
02612             -20.00     9800.00
02613               0.00     9800.00
02614               0.00     9600.00
02615               0.00     9400.00
02616               0.00     9400.00
02617               0.00     9200.00
02618               0.00     9200.00
02619               0.00     9000.00
02620               0.00     8600.00
02621             -20.00     8600.00
02622             -20.00     8600.00
02623             -20.00     8400.00
02624               0.00     8200.00
02625               0.00     8200.00
02626               0.00     7800.00
02627             -20.00     7800.00
02628             -20.00     7600.00
02629             -20.00     7400.00
02630             -20.00     7400.00
02631             -20.00     7000.00
02632             -20.00     7000.00
02633             -20.00     6800.00
02634             -20.00     6600.00
02635             -20.00     6600.00
02636             -40.00     6400.00
02637             -20.00     6200.00
02638             -20.00     6000.00
02639             -20.00     5800.00
02640             -20.00     5400.00
02641             -20.00     5400.00
02642             -20.00     5200.00
02643             -40.00     5000.00
02644             -20.00     4800.00
02645             -60.00     4600.00
02646             -40.00     4400.00
02647             -20.00     4200.00
02648             -20.00     4200.00
02649             -20.00     3800.00
02650             -60.00     3800.00
02651             -20.00     3400.00
02652             -20.00     3400.00
02653             -40.00     3000.00
02654             -60.00     3000.00
02655             -60.00     2800.00
02656             -80.00     2200.00
02657             -60.00     2200.00
02658             -40.00     2000.00
02659             -40.00     1800.00
02660             -60.00     1600.00
02661             -40.00     1400.00
02662             -20.00     1200.00
02663             -40.00     1000.00
02664             -60.00      800.00
02665             -20.00      600.00
02666             -60.00      400.00
02667             -60.00      200.00
02668             -20.00     -200.00
02669             -20.00     -400.00
02670              60.00     -600.00
02671             100.00     -400.00
02672              80.00    -1000.00
02673              20.00    -1000.00
02674               0.00    -1200.00
02675               0.00    -1400.00
02676              40.00    -1600.00
02677             300.00    -1800.00
02678             900.00    -2200.00
02679             780.00    -2600.00
02680            -160.00    -2600.00
02681            -960.00    -3000.00
02682           -1120.00    -3000.00
02683           -1060.00    -3000.00
02684             -80.00    -3200.00
02685             540.00    -3800.00
02686              60.00    -3600.00
02687             400.00    -4000.00
02688             140.00    -4200.00
02689            -160.00    -3800.00
02690             180.00    -4600.00
02691             -80.00    -4600.00
02692               0.00    -5000.00
02693             160.00    -5000.00
02694            -100.00    -5000.00
02695            -240.00    -5800.00
02696            -140.00    -5400.00
02697              60.00    -6000.00
02698            -100.00    -6000.00
02699             -20.00    -6000.00
02700              20.00    -6600.00
02701            -100.00    -6200.00
02702               0.00    -6800.00
02703               0.00    -6800.00
02704             -20.00    -7000.00
02705             -60.00    -7400.00
02706             -20.00    -7200.00
02707             -20.00    -7800.00
02708            -100.00    -7600.00
02709             -80.00    -8000.00
02710             -20.00    -8000.00
02711               0.00    -8200.00
02712             -80.00    -8600.00
02713             -20.00    -8400.00
02714             -20.00    -8600.00
02715             -20.00    -8600.00
02716             -60.00    -9000.00
02717             -60.00    -9000.00
02718             -80.00    -9200.00
02719             -80.00    -9400.00
02720               0.00    -9400.00
02721             -20.00    -9400.00
02722             -60.00    -9400.00
02723             -20.00    -9800.00
02724             -80.00    -9800.00
02725             -80.00   -10000.00
02726             -60.00   -10000.00
02727             -40.00   -10200.00
02728             -60.00   -10400.00
02729             -80.00   -10200.00
02730             -60.00   -10600.00
02731             -60.00   -10800.00
02732             -20.00   -10600.00
02733               0.00   -10800.00
02734             -20.00   -10800.00
02735             -60.00   -10800.00
02736             -80.00   -11000.00
02737             -60.00   -11000.00
02738             -80.00   -11000.00
02739             -20.00   -11000.00
02740               0.00   -11000.00
02741               0.00   -11400.00
02742             -40.00   -11400.00
02743             -20.00   -11400.00
02744             -20.00   -11200.00
02745             -40.00   -11400.00
02746             -20.00   -11400.00
02747             -20.00   -11400.00
02748             -60.00   -11200.00
02749             -60.00   -11400.00
02750             -20.00   -11400.00
02751             -20.00   -11400.00
02752             -20.00   -11400.00
02753               0.00   -11400.00
02754               0.00   -11400.00
02755             -20.00   -11400.00
02756             -20.00   -11400.00
02757             -20.00   -11400.00
02758             -20.00   -11400.00
02759             -20.00   -11000.00
02760               0.00   -11000.00
02761               0.00   -11000.00
02762               0.00   -11000.00
02763             -20.00   -11000.00
02764             -20.00   -11000.00
02765             -20.00   -11000.00
02766               0.00   -11000.00
02767               0.00   -10800.00
02768               0.00   -10800.00
02769             -20.00   -10600.00
02770             -20.00   -10600.00
02771             -20.00   -10600.00
02772               0.00   -10600.00
02773               0.00   -10200.00
02774               0.00   -10200.00
02775               0.00   -10200.00
02776               0.00   -10000.00
02777               0.00   -10000.00
02778               0.00   -10000.00
02779               0.00    -9800.00
02780               0.00    -9800.00
02781               0.00    -9600.00
02782             -20.00    -9400.00
02783             -20.00    -9400.00
02784               0.00    -9200.00
02785               0.00    -9200.00
02786               0.00    -9000.00
02787              20.00    -8800.00
02788               0.00    -8800.00
02789               0.00    -8600.00
02790               0.00    -8400.00
02791               0.00    -8400.00
02792               0.00    -8200.00
02793              20.00    -8200.00
02794              20.00    -7800.00
02795               0.00    -7600.00
02796               0.00    -7600.00
02797               0.00    -7400.00
02798               0.00    -7200.00
02799               0.00    -7000.00
02800              20.00    -6800.00
02801               0.00    -6600.00
02802               0.00    -6600.00
02803               0.00    -6400.00
02804               0.00    -6200.00
02805              20.00    -6000.00
02806              20.00    -5800.00
02807              20.00    -5800.00
02808              20.00    -5400.00
02809               0.00    -5200.00
02810              20.00    -5200.00
02811               0.00    -4800.00
02812              20.00    -4600.00
02813              60.00    -4400.00
02814              60.00    -4200.00
02815              20.00    -4200.00
02816              20.00    -3800.00
02817              20.00    -3800.00
02818              60.00    -3600.00
02819              20.00    -3400.00
02820              20.00    -3000.00
02821              20.00    -2800.00
02822              20.00    -2600.00
02823              20.00    -2400.00
02824              20.00    -2200.00
02825              60.00    -2000.00
02826              60.00    -1800.00
02827              60.00    -1800.00
02828              20.00    -1400.00
02829              20.00    -1200.00
02830              60.00     -800.00
02831              40.00     -800.00
02832              60.00     -600.00
02833              60.00     -200.00
02834              60.00     -200.00
02835              80.00        0.00
02836              80.00      200.00
02837             120.00      400.00
02838             220.00      400.00
02839             220.00     1000.00
02840             180.00     1000.00
02841             140.00     1200.00
02842             140.00     1400.00
02843             140.00     1400.00
02844             620.00     2000.00
02845            1280.00     2200.00
02846             740.00     2400.00
02847            -560.00     2600.00
02848           -1300.00     2600.00
02849           -1460.00     3000.00
02850            -340.00     3400.00
02851             940.00     3400.00
02852             280.00     3400.00
02853             420.00     3800.00
02854             380.00     3600.00
02855            -240.00     4200.00
02856             160.00     4600.00
02857             -20.00     4200.00
02858             160.00     5200.00
02859             380.00     4800.00
02860            -140.00     5000.00
02861               0.00     5600.00
02862             -60.00     5400.00
02863              60.00     6000.00
02864              80.00     5800.00
02865              80.00     6000.00
02866             160.00     6400.00
02867             -60.00     6000.00
02868             160.00     6800.00
02869              80.00     6600.00
02870              20.00     7000.00
02871              60.00     7000.00
02872              60.00     7200.00
02873              80.00     7600.00
02874               0.00     7200.00
02875              80.00     7800.00
02876              60.00     7800.00
02877             140.00     8200.00
02878              80.00     8200.00
02879              80.00     8200.00
02880              20.00     8400.00
02881              60.00     8600.00
02882             100.00     9000.00
02883              60.00     9000.00
02884              20.00     9200.00
02885               0.00     9200.00
02886              60.00     9400.00
02887              60.00     9400.00
02888             100.00     9400.00
02889              80.00     9800.00
02890              20.00     9800.00
02891              20.00    10000.00
02892              60.00    10000.00
02893              80.00    10000.00
02894              60.00    10200.00
02895              60.00    10200.00
02896               0.00    10400.00
02897               0.00    10200.00
02898              40.00    10600.00
02899              80.00    10600.00
02900              80.00    10600.00
02901              60.00    10800.00
02902              20.00    10600.00
02903              20.00    11000.00
02904              20.00    11000.00
02905              20.00    11000.00
02906              60.00    11000.00
02907              60.00    11200.00
02908              60.00    11200.00
02909              20.00    11200.00
02910              20.00    11400.00
02911              20.00    11200.00
02912              80.00    11400.00
02913              80.00    11400.00
02914              20.00    11400.00
02915               0.00    11400.00
02916               0.00    11400.00
02917               0.00    11400.00
02918              20.00    11400.00
02919              40.00    11400.00
02920              20.00    11400.00
02921              20.00    11400.00
02922              20.00    11200.00
02923               0.00    11400.00
02924               0.00    11200.00
02925               0.00    11400.00
02926              20.00    11200.00
02927              60.00    11400.00
02928              20.00    11200.00
02929               0.00    11000.00
02930               0.00    11000.00
02931               0.00    10800.00
02932               0.00    11000.00
02933               0.00    10800.00
02934              20.00    10800.00
02935              20.00    10800.00
02936               0.00    10600.00
02937               0.00    10600.00
02938             -20.00    10600.00
02939               0.00    10600.00
02940               0.00    10400.00
02941              20.00    10400.00
02942              20.00    10200.00
02943               0.00    10200.00
02944             -20.00    10000.00
02945             -20.00    10000.00
02946               0.00    10000.00
02947               0.00     9800.00
02948               0.00     9800.00
02949               0.00     9600.00
02950             -20.00     9400.00
02951               0.00     9400.00
02952             -20.00     9000.00
02953               0.00     9200.00
02954               0.00     8800.00
02955               0.00     8800.00
02956             -20.00     8600.00
02957             -20.00     8400.00
02958             -20.00     8200.00
02959               0.00     8200.00
02960               0.00     8200.00
02961             -20.00     7800.00
02962             -20.00     7800.00
02963             -20.00     7600.00
02964             -20.00     7600.00
02965               0.00     7200.00
02966               0.00     7000.00
02967             -20.00     6800.00
02968             -20.00     6600.00
02969             -20.00     6600.00
02970             -20.00     6400.00
02971               0.00     6000.00
02972               0.00     6000.00
02973             -20.00     6000.00
02974             -20.00     5800.00
02975             -60.00     5600.00
02976             -40.00     5400.00
02977             -40.00     5200.00
02978             -40.00     5000.00
02979             -20.00     4600.00
02980             -20.00     4600.00
02981             -40.00     4400.00
02982             -60.00     4200.00
02983             -60.00     3800.00
02984             -60.00     3800.00
02985             -20.00     3600.00
02986             -20.00     3400.00
02987             -20.00     3200.00
02988             -60.00     3000.00
02989             -80.00     2800.00
02990             -60.00     2400.00
02991             -60.00     2200.00
02992             -20.00     2200.00
02993             -20.00     1800.00
02994             -20.00     1800.00
02995             -60.00     1400.00
02996             -60.00     1200.00
02997             -60.00     1000.00
02998             -60.00      800.00
02999             -20.00      600.00
03000             -40.00      400.00
03001             -40.00      200.00
03002             -60.00        0.00
03003             -60.00     -200.00
03004               0.00     -400.00
03005              80.00     -600.00
03006             140.00     -800.00
03007              80.00     -800.00
03008               0.00    -1200.00
03009               0.00    -1400.00
03010               0.00    -1400.00
03011             120.00    -1800.00
03012             640.00    -2000.00
03013            1000.00    -2600.00
03014             260.00    -2600.00
03015            -720.00    -2800.00
03016           -1060.00    -3000.00
03017           -1140.00    -3000.00
03018            -620.00    -2800.00
03019             480.00    -3600.00
03020             160.00    -3600.00
03021             220.00    -3600.00
03022             400.00    -4400.00
03023            -160.00    -4000.00
03024             100.00    -4600.00
03025              60.00    -4600.00
03026            -100.00    -4600.00
03027             160.00    -5200.00
03028               0.00    -5000.00
03029            -200.00    -5400.00
03030            -220.00    -5400.00
03031             -20.00    -5600.00
03032             -40.00    -6200.00
03033            -100.00    -6000.00
03034              80.00    -6400.00
03035             -60.00    -6200.00
03036             -20.00    -6600.00
03037              20.00    -7000.00
03038             -40.00    -6800.00
03039             -60.00    -7400.00
03040             -80.00    -7200.00
03041               0.00    -7600.00
03042             -80.00    -7600.00
03043             -80.00    -7800.00
03044             -20.00    -8200.00
03045              20.00    -8200.00
03046             -60.00    -8400.00
03047             -80.00    -8400.00
03048             -40.00    -8600.00
03049             -60.00    -8800.00
03050             -80.00    -9000.00
03051             -60.00    -9000.00
03052             -60.00    -9000.00
03053            -100.00    -9400.00
03054             -60.00    -9400.00
03055             -20.00    -9400.00
03056             -40.00    -9600.00
03057             -40.00    -9800.00
03058             -40.00    -9800.00
03059             -80.00   -10000.00
03060             -60.00   -10200.00
03061             -20.00   -10000.00
03062             -40.00   -10400.00
03063             -60.00   -10400.00
03064             -60.00   -10400.00
03065             -60.00   -10600.00
03066             -60.00   -10600.00
03067             -20.00   -10800.00
03068               0.00   -10600.00
03069             -60.00   -10800.00
03070             -60.00   -11000.00
03071             -60.00   -11000.00
03072             -20.00   -11000.00
03073             -20.00   -11000.00
03074               0.00   -11000.00
03075             -20.00   -11000.00
03076             -60.00   -11200.00
03077             -60.00   -11000.00
03078             -20.00   -11200.00
03079             -20.00   -11400.00
03080             -20.00   -11400.00
03081             -20.00   -11200.00
03082             -20.00   -11400.00
03083             -20.00   -11400.00
03084             -20.00   -11200.00
03085             -60.00   -11400.00
03086             -40.00   -11200.00
03087             -20.00   -11400.00
03088               0.00   -11200.00
03089               0.00   -11400.00
03090             -20.00   -11400.00
03091             -20.00   -11400.00
03092             -20.00   -11200.00
03093               0.00   -11000.00
03094               0.00   -11200.00
03095               0.00   -11000.00
03096             -20.00   -11000.00
03097             -60.00   -11000.00
03098             -60.00   -11000.00
03099             -20.00   -11000.00
03100              20.00   -11000.00
03101              20.00   -10800.00
03102               0.00   -10800.00
03103               0.00   -10800.00
03104             -20.00   -10800.00
03105               0.00   -10600.00
03106               0.00   -10600.00
03107               0.00   -10600.00
03108               0.00   -10400.00
03109               0.00   -10200.00
03110             -20.00   -10200.00
03111             -40.00   -10000.00
03112             -20.00   -10000.00
03113             -20.00   -10000.00
03114               0.00    -9800.00
03115              20.00    -9800.00
03116              20.00    -9600.00
03117               0.00    -9400.00
03118             -20.00    -9200.00
03119             -20.00    -9000.00
03120               0.00    -9200.00
03121               0.00    -9000.00
03122              20.00    -8800.00
03123               0.00    -8600.00
03124               0.00    -8600.00
03125               0.00    -8200.00
03126               0.00    -8200.00
03127               0.00    -7800.00
03128              20.00    -7800.00
03129              20.00    -7800.00
03130               0.00    -7600.00
03131               0.00    -7400.00
03132               0.00    -7200.00
03133              20.00    -7000.00
03134              20.00    -7000.00
03135              20.00    -6800.00
03136              20.00    -6600.00
03137              20.00    -6600.00
03138               0.00    -6200.00
03139               0.00    -6200.00
03140              20.00    -6000.00
03141              20.00    -5800.00
03142              20.00    -5400.00
03143              20.00    -5400.00
03144              20.00    -5200.00
03145              20.00    -5000.00
03146               0.00    -4800.00
03147              40.00    -4600.00
03148              20.00    -4400.00
03149              20.00    -4200.00
03150              20.00    -4000.00
03151              20.00    -3800.00
03152              60.00    -3400.00
03153              40.00    -3400.00
03154              60.00    -3200.00
03155              40.00    -3000.00
03156              60.00    -2800.00
03157              20.00    -2600.00
03158              60.00    -2400.00
03159              20.00    -2000.00
03160              20.00    -2000.00
03161              60.00    -1800.00
03162              60.00    -1600.00
03163              20.00    -1200.00
03164              20.00    -1200.00
03165              40.00     -800.00
03166              60.00     -600.00
03167              80.00     -400.00
03168              80.00     -400.00
03169              80.00     -200.00
03170              60.00      200.00
03171              80.00      400.00
03172             160.00      600.00
03173             220.00      600.00
03174             220.00     1000.00
03175             140.00     1000.00
03176             100.00     1400.00
03177             140.00     1400.00
03178             320.00     1800.00
03179            1100.00     2200.00
03180            1120.00     2200.00
03181               0.00     2600.00
03182           -1100.00     2600.00
03183           -1460.00     2600.00
03184           -1060.00     3000.00
03185             620.00     3400.00
03186             620.00     3000.00
03187             220.00     3600.00
03188             560.00     3600.00
03189             -80.00     3800.00
03190             -20.00     4600.00
03191             100.00     4000.00
03192             -40.00     4600.00
03193             440.00     5000.00
03194              20.00     4600.00
03195             -80.00     5600.00
03196               0.00     5200.00
03197             -60.00     5600.00
03198             160.00     6000.00
03199              20.00     5800.00
03200             220.00     6600.00
03201              20.00     6000.00
03202              20.00     6600.00
03203             160.00     6600.00
03204              20.00     6800.00
03205              80.00     7000.00
03206              60.00     7000.00
03207             140.00     7600.00
03208               0.00     7400.00
03209              60.00     7800.00
03210              60.00     7800.00
03211             100.00     7800.00
03212             120.00     8200.00
03213              60.00     8200.00
03214              60.00     8600.00
03215               0.00     8600.00
03216              80.00     8800.00
03217              80.00     8800.00
03218              80.00     9000.00
03219              20.00     9200.00
03220              20.00     9200.00
03221              60.00     9400.00
03222              80.00     9400.00
03223             120.00     9800.00
03224              60.00     9800.00
03225               0.00     9800.00
03226               0.00    10000.00
03227              80.00    10000.00
03228              80.00    10200.00
03229              80.00    10200.00
03230              60.00    10200.00
03231               0.00    10400.00
03232              20.00    10600.00
03233              60.00    10400.00
03234              80.00    10600.00
03235              80.00    10800.00
03236             100.00    10800.00
03237              60.00    10800.00
03238               0.00    11000.00
03239             -20.00    11000.00
03240              20.00    11000.00
03241              60.00    11000.00
03242              80.00    11000.00
03243              40.00    11400.00
03244             -20.00    11400.00
03245               0.00    11000.00
03246              80.00    11200.00
03247             100.00    11400.00
03248              60.00    11400.00
03249             -20.00    11400.00
03250             -20.00    11400.00
03251               0.00    11400.00
03252              20.00    11400.00
03253              60.00    11400.00
03254              60.00    11400.00
03255              20.00    11400.00
03256               0.00    11400.00
03257              20.00    11200.00
03258               0.00    11200.00
03259               0.00    11400.00
03260              20.00    11400.00
03261               0.00    11400.00
03262               0.00    11200.00
03263              20.00    11000.00
03264              20.00    11000.00
03265              20.00    11000.00
03266              20.00    11000.00
03267               0.00    11000.00
03268               0.00    10800.00
03269              20.00    10800.00
03270               0.00    10800.00
03271              20.00    10800.00
03272               0.00    10600.00
03273              20.00    10600.00
03274              20.00    10600.00
03275              20.00    10400.00
03276               0.00    10400.00
03277               0.00    10200.00
03278               0.00    10200.00
03279               0.00    10000.00
03280              20.00     9800.00
03281               0.00     9800.00
03282               0.00     9800.00
03283             -20.00     9600.00
03284             -20.00     9400.00
03285               0.00     9400.00
03286               0.00     9200.00
03287              20.00     9200.00
03288               0.00     9000.00
03289               0.00     8800.00
03290             -20.00     8600.00
03291             -20.00     8400.00
03292               0.00     8400.00
03293               0.00     8200.00
03294               0.00     8000.00
03295             -20.00     8200.00
03296             -60.00     7800.00
03297             -40.00     7800.00
03298               0.00     7600.00
03299               0.00     7200.00
03300               0.00     7200.00
03301               0.00     7000.00
03302             -20.00     6800.00
03303             -60.00     6600.00
03304             -60.00     6600.00
03305             -40.00     6200.00
03306             -20.00     6200.00
03307             -20.00     6000.00
03308             -20.00     5800.00
03309             -60.00     5600.00
03310             -60.00     5200.00
03311             -60.00     5200.00
03312             -60.00     5000.00
03313             -20.00     4800.00
03314             -20.00     4600.00
03315             -40.00     4200.00
03316             -40.00     4200.00
03317             -80.00     4000.00
03318             -20.00     3800.00
03319             -40.00     3600.00
03320             -20.00     3400.00
03321             -20.00     3400.00
03322             -20.00     3000.00
03323             -60.00     2800.00
03324             -60.00     2600.00
03325             -60.00     2200.00
03326             -60.00     2200.00
03327             -20.00     2000.00
03328             -20.00     2000.00
03329             -20.00     1600.00
03330             -40.00     1200.00
03331             -60.00     1200.00
03332             -80.00     1000.00
03333             -60.00     1000.00
03334             -20.00      400.00
03335             -40.00      400.00
03336             -20.00      200.00
03337             -20.00     -200.00
03338             -20.00     -400.00
03339              60.00     -400.00
03340             100.00     -600.00
03341              80.00    -1000.00
03342              60.00    -1200.00
03343              20.00    -1200.00
03344              20.00    -1400.00
03345              60.00    -1600.00
03346             340.00    -1800.00
03347             960.00    -2200.00
03348             660.00    -2600.00
03349            -340.00    -2800.00
03350            -980.00    -2800.00
03351           -1120.00    -3000.00
03352            -980.00    -2800.00
03353             140.00    -3400.00
03354             460.00    -3800.00
03355              60.00    -3400.00
03356             440.00    -4200.00
03357              20.00    -4200.00
03358            -100.00    -4000.00
03359             160.00    -4800.00
03360            -100.00    -4600.00
03361              60.00    -5000.00
03362             100.00    -5000.00
03363            -160.00    -5200.00
03364            -240.00    -5800.00
03365            -100.00    -5400.00
03366              60.00    -6000.00
03367            -100.00    -6000.00
03368               0.00    -6200.00
03369             -20.00    -6600.00
03370            -100.00    -6400.00
03371               0.00    -6800.00
03372             -20.00    -6800.00
03373             -20.00    -7200.00
03374             -60.00    -7400.00
03375             -20.00    -7200.00
03376             -60.00    -7800.00
03377            -100.00    -7600.00
03378             -80.00    -8000.00
03379               0.00    -7800.00
03380             -20.00    -8200.00
03381             -80.00    -8400.00
03382             -20.00    -8400.00
03383             -40.00    -8600.00
03384             -60.00    -8800.00
03385             -60.00    -9000.00
03386             -60.00    -9000.00
03387            -100.00    -9200.00
03388             -60.00    -9400.00
03389               0.00    -9400.00
03390             -60.00    -9600.00
03391             -60.00    -9800.00
03392             -60.00    -9800.00
03393             -60.00   -10000.00
03394             -60.00   -10000.00
03395             -20.00   -10000.00
03396             -20.00   -10200.00
03397             -60.00   -10200.00
03398             -80.00   -10600.00
03399             -60.00   -10600.00
03400             -40.00   -10600.00
03401             -20.00   -10600.00
03402               0.00   -10800.00
03403             -20.00   -10800.00
03404             -60.00   -11000.00
03405             -60.00   -10800.00
03406             -60.00   -10800.00
03407             -60.00   -11000.00
03408             -20.00   -11000.00
03409               0.00   -11000.00
03410               0.00   -11200.00
03411             -60.00   -11200.00
03412             -60.00   -11400.00
03413             -60.00   -11200.00
03414             -20.00   -11400.00
03415             -20.00   -11400.00
03416               0.00   -11400.00
03417             -20.00   -11400.00
03418             -20.00   -11400.00
03419               0.00   -11400.00
03420             -20.00   -11400.00
03421             -20.00   -11400.00
03422               0.00   -11400.00
03423             -20.00   -11400.00
03424             -20.00   -11000.00
03425             -20.00   -11400.00
03426             -20.00   -11200.00
03427             -20.00   -11000.00
03428               0.00   -11200.00
03429               0.00   -11200.00
03430             -20.00   -11200.00
03431             -20.00   -11000.00
03432             -20.00   -11000.00
03433               0.00   -11000.00
03434             -20.00   -11000.00
03435               0.00   -10800.00
03436               0.00   -10800.00
03437               0.00   -10800.00
03438             -20.00   -10600.00
03439             -20.00   -10600.00
03440               0.00   -10600.00
03441               0.00   -10400.00
03442               0.00   -10600.00
03443               0.00   -10200.00
03444               0.00   -10200.00
03445             -20.00   -10200.00
03446             -20.00   -10000.00
03447             -20.00   -10000.00
03448               0.00    -9800.00
03449              20.00    -9800.00
03450               0.00    -9600.00
03451               0.00    -9400.00
03452             -20.00    -9400.00
03453               0.00    -9200.00
03454             -20.00    -9200.00
03455               0.00    -9000.00
03456               0.00    -8800.00
03457               0.00    -8600.00
03458               0.00    -8600.00
03459              40.00    -8400.00
03460              20.00    -8400.00
03461              40.00    -8200.00
03462              20.00    -7800.00
03463             -20.00    -7800.00
03464             -60.00    -7600.00
03465             -80.00    -7400.00
03466             -40.00    -7200.00
03467               0.00    -7000.00
03468              60.00    -7000.00
03469             100.00    -6800.00
03470              80.00    -6600.00
03471              60.00    -6600.00
03472               0.00    -6200.00
03473             -60.00    -6200.00
03474             -20.00    -6000.00
03475               0.00    -5800.00
03476              20.00    -5800.00
03477              60.00    -5400.00
03478              60.00    -5200.00
03479              80.00    -5000.00
03480              60.00    -4800.00
03481              60.00    -4600.00
03482              20.00    -4400.00
03483               0.00    -4200.00
03484               0.00    -4200.00
03485               0.00    -3600.00
03486               0.00    -3800.00
03487              20.00    -3400.00
03488              80.00    -3200.00
03489              80.00    -3000.00
03490              80.00    -2800.00
03491              80.00    -2600.00
03492              40.00    -2400.00
03493              20.00    -2200.00
03494               0.00    -2000.00
03495               0.00    -1800.00
03496               0.00    -1800.00
03497              40.00    -1400.00
03498              60.00    -1200.00
03499             100.00    -1000.00
03500             100.00     -800.00
03501              80.00     -600.00
03502              60.00     -400.00
03503               0.00     -200.00
03504               0.00      200.00
03505              20.00      200.00
03506             120.00      400.00
03507             220.00      600.00
03508             240.00      800.00
03509             220.00     1200.00
03510             140.00     1200.00
03511             140.00     1400.00
03512             160.00     1600.00
03513             700.00     1800.00
03514            1260.00     2200.00
03515             540.00     2200.00
03516            -720.00     2600.00
03517           -1340.00     2600.00
03518           -1400.00     2800.00
03519             -80.00     3400.00
03520             940.00     3200.00
03521             220.00     3400.00
03522             500.00     3800.00
03523             240.00     3600.00
03524            -220.00     4600.00
03525             180.00     4400.00
03526             -80.00     4200.00
03527             260.00     5200.00
03528             300.00     4600.00
03529            -140.00     5200.00
03530              20.00     5600.00
03531             -60.00     5400.00
03532             100.00     6000.00
03533              60.00     5600.00
03534             120.00     6200.00
03535             140.00     6200.00
03536             -60.00     6200.00
03537             160.00     6800.00
03538              60.00     6600.00
03539              60.00     7200.00
03540              60.00     7000.00
03541              80.00     7400.00
03542              60.00     7400.00
03543               0.00     7400.00
03544              80.00     8000.00
03545              60.00     7800.00
03546             160.00     8200.00
03547              60.00     8200.00
03548              80.00     8400.00
03549              20.00     8600.00
03550              60.00     8600.00
03551             100.00     9000.00
03552              60.00     8600.00
03553              60.00     9000.00
03554               0.00     9200.00
03555              80.00     9400.00
03556              60.00     9400.00
03557             100.00     9600.00
03558              80.00     9800.00
03559              20.00     9800.00
03560              20.00     9800.00
03561              60.00    10000.00
03562              60.00    10000.00
03563              60.00    10200.00
03564              20.00    10200.00
03565              20.00    10400.00
03566              20.00    10400.00
03567              60.00    10600.00
03568              80.00    10600.00
03569              60.00    10600.00
03570              20.00    10800.00
03571              20.00    10800.00
03572               0.00    10800.00
03573              20.00    11000.00
03574              40.00    10800.00
03575              80.00    11000.00
03576              60.00    11000.00
03577              60.00    11000.00
03578               0.00    11200.00
03579               0.00    11000.00
03580              20.00    11400.00
03581              20.00    11400.00
03582              40.00    11400.00
03583              20.00    11400.00
03584              20.00    11200.00
03585              20.00    11400.00
03586              20.00    11400.00
03587              20.00    11400.00
03588              60.00    11400.00
03589              20.00    11400.00
03590               0.00    11400.00
03591              20.00    11400.00
03592               0.00    11400.00
03593               0.00    11400.00
03594               0.00    11400.00
03595               0.00    11400.00
03596              20.00    11400.00
03597              20.00    11200.00
03598              20.00    11000.00
03599              20.00    11000.00
03600               0.00    10800.00
03601               0.00    11000.00
03602               0.00    11000.00
03603               0.00    10800.00
03604              20.00    10800.00
03605              20.00    10600.00
03606               0.00    10600.00
03607               0.00    10600.00
03608              20.00    10600.00
03609               0.00    10400.00
03610              20.00    10200.00
03611               0.00    10200.00
03612               0.00    10200.00
03613               0.00    10000.00
03614               0.00    10000.00
03615              20.00     9800.00
03616               0.00     9600.00
03617               0.00     9600.00
03618               0.00     9600.00
03619             -20.00     9400.00
03620               0.00     9400.00
03621              20.00     9200.00
03622               0.00     9000.00
03623               0.00     8800.00
03624             -20.00     8800.00
03625             -20.00     8600.00
03626             -20.00     8400.00
03627               0.00     8400.00
03628               0.00     8200.00
03629               0.00     8200.00
03630               0.00     7800.00
03631             -40.00     7800.00
03632             -20.00     7400.00
03633             -20.00     7400.00
03634             -20.00     7200.00
03635             -20.00     7000.00
03636             -20.00     6800.00
03637             -40.00     6600.00
03638             -40.00     6600.00
03639             -60.00     6200.00
03640             -40.00     6200.00
03641             -20.00     6000.00
03642             -20.00     5800.00
03643             -20.00     5800.00
03644             -20.00     5600.00
03645             -60.00     5200.00
03646             -60.00     5200.00
03647             -20.00     5000.00
03648             -20.00     4600.00
03649             -60.00     4400.00
03650             -20.00     4200.00
03651             -40.00     4200.00
03652             -20.00     3800.00
03653             -40.00     3600.00
03654             -20.00     3600.00
03655             -40.00     3400.00
03656             -40.00     3200.00
03657             -60.00     2800.00
03658             -60.00     2800.00
03659             -60.00     2600.00
03660             -60.00     2400.00
03661             -20.00     2000.00
03662             -20.00     2000.00
03663             -40.00     1800.00
03664             -20.00     1400.00
03665             -60.00     1400.00
03666             -60.00     1000.00
03667             -40.00      800.00
03668             -60.00      600.00
03669             -60.00      400.00
03670             -40.00      200.00
03671             -60.00        0.00
03672             -20.00     -200.00
03673              20.00     -400.00
03674             100.00     -600.00
03675             120.00     -600.00
03676              80.00    -1000.00
03677              20.00    -1200.00
03678               0.00    -1400.00
03679               0.00    -1400.00
03680             160.00    -1800.00
03681             740.00    -1800.00
03682             960.00    -2600.00
03683             100.00    -2600.00
03684            -820.00    -2800.00
03685           -1100.00    -3000.00
03686           -1140.00    -2800.00
03687            -420.00    -3000.00
03688             540.00    -3600.00
03689             100.00    -3600.00
03690             300.00    -3800.00
03691             320.00    -4400.00
03692            -180.00    -4000.00
03693             140.00    -4400.00
03694               0.00    -4600.00
03695             -80.00    -4800.00
03696             160.00    -5200.00
03697             -60.00    -5000.00
03698            -240.00    -5800.00
03699            -180.00    -5400.00
03700              20.00    -5800.00
03701             -80.00    -6200.00
03702             -80.00    -6000.00
03703              60.00    -6600.00
03704            -100.00    -6400.00
03705             -20.00    -6800.00
03706               0.00    -6800.00
03707             -20.00    -6800.00
03708             -60.00    -7400.00
03709             -60.00    -7200.00
03710             -20.00    -7600.00
03711            -100.00    -7600.00
03712            -100.00    -8200.00
03713               0.00    -8000.00
03714             -20.00    -8200.00
03715             -80.00    -8400.00
03716             -60.00    -8400.00
03717             -20.00    -8600.00
03718             -60.00    -8800.00
03719             -60.00    -9000.00
03720             -20.00    -9000.00
03721             -80.00    -9200.00
03722             -80.00    -9200.00
03723             -20.00    -9400.00
03724             -20.00    -9600.00
03725             -40.00    -9600.00
03726             -20.00    -9800.00
03727             -40.00    -9800.00
03728             -60.00   -10000.00
03729             -60.00   -10200.00
03730             -20.00   -10000.00
03731             -20.00   -10200.00
03732             -60.00   -10400.00
03733             -60.00   -10400.00
03734             -20.00   -10600.00
03735             -60.00   -10600.00
03736               0.00   -10600.00
03737               0.00   -10800.00
03738             -40.00   -10800.00
03739             -60.00   -10800.00
03740             -60.00   -11000.00
03741             -60.00   -11000.00
03742             -20.00   -11000.00
03743               0.00   -11200.00
03744             -20.00   -11000.00
03745             -60.00   -11000.00
03746             -60.00   -11400.00
03747             -20.00   -11400.00
03748             -40.00   -11200.00
03749             -20.00   -11400.00
03750               0.00   -11400.00
03751             -20.00   -11400.00
03752             -40.00   -11400.00
03753             -20.00   -11400.00
03754             -20.00   -11400.00
03755             -40.00   -11400.00
03756             -20.00   -11400.00
03757               0.00   -11400.00
03758             -20.00   -11400.00
03759             -20.00   -11400.00
03760             -20.00   -11400.00
03761             -40.00   -11200.00
03762             -20.00   -11400.00
03763               0.00   -11200.00
03764               0.00   -11200.00
03765             -20.00   -11200.00
03766             -20.00   -11000.00
03767             -20.00   -11000.00
03768             -20.00   -11000.00
03769               0.00   -10800.00
03770               0.00   -11000.00
03771               0.00   -11000.00
03772             -20.00   -10800.00
03773             -20.00   -10600.00
03774             -20.00   -10600.00
03775               0.00   -10600.00
03776               0.00   -10400.00
03777               0.00   -10400.00
03778               0.00   -10200.00
03779               0.00   -10200.00
03780               0.00   -10200.00
03781             -20.00   -10000.00
03782             -20.00    -9800.00
03783               0.00    -9800.00
03784               0.00    -9800.00
03785              20.00    -9400.00
03786               0.00    -9400.00
03787               0.00    -9200.00
03788               0.00    -9200.00
03789               0.00    -9000.00
03790              20.00    -9000.00
03791              20.00    -9000.00
03792               0.00    -8600.00
03793               0.00    -8400.00
03794              20.00    -8400.00
03795               0.00    -8200.00
03796              20.00    -8200.00
03797              20.00    -7800.00
03798               0.00    -7600.00
03799               0.00    -7400.00
03800               0.00    -7600.00
03801              60.00    -7200.00
03802              20.00    -7000.00
03803              20.00    -6800.00
03804               0.00    -6600.00
03805               0.00    -6600.00
03806              20.00    -6200.00
03807              40.00    -6200.00
03808              20.00    -6000.00
03809              20.00    -6000.00
03810               0.00    -5600.00
03811              20.00    -5400.00
03812              20.00    -5400.00
03813              20.00    -5200.00
03814              40.00    -5000.00
03815              60.00    -4600.00
03816              40.00    -4600.00
03817              20.00    -4400.00
03818              20.00    -4200.00
03819              20.00    -4000.00
03820              20.00    -3800.00
03821              20.00    -3400.00
03822              60.00    -3400.00
03823              60.00    -3200.00
03824              60.00    -3000.00
03825              20.00    -2600.00
03826              20.00    -2600.00
03827              20.00    -2200.00
03828              40.00    -2200.00
03829              60.00    -2000.00
03830              60.00    -1800.00
03831              60.00    -1400.00
03832              40.00    -1200.00
03833              20.00     -800.00
03834              20.00     -800.00
03835              40.00     -600.00
03836              60.00     -400.00
03837              60.00     -200.00
03838              60.00        0.00
03839              60.00      200.00
03840             100.00      400.00
03841             160.00      600.00
03842             220.00      600.00
03843             180.00     1000.00
03844             140.00     1000.00
03845             120.00     1200.00
03846             140.00     1400.00
03847             400.00     1800.00
03848            1180.00     2200.00
03849            1020.00     2200.00
03850            -200.00     2400.00
03851           -1180.00     2600.00
03852           -1480.00     2800.00
03853            -820.00     3200.00
03854             800.00     3400.00
03855             500.00     3200.00
03856             280.00     3800.00
03857             540.00     3800.00
03858            -140.00     4000.00
03859              60.00     4600.00
03860              80.00     4000.00
03861               0.00     4600.00
03862             460.00     5000.00
03863             -40.00     4800.00
03864             -60.00     5600.00
03865             -20.00     5200.00
03866               0.00     5800.00
03867             160.00     5800.00
03868              60.00     5800.00
03869             220.00     6600.00
03870             -20.00     6000.00
03871              60.00     6800.00
03872             120.00     6600.00
03873              20.00     7000.00
03874              80.00     7200.00
03875              60.00     7000.00
03876             120.00     7600.00
03877               0.00     7400.00
03878              60.00     7800.00
03879              60.00     7800.00
03880             140.00     7800.00
03881             100.00     8200.00
03882              60.00     8200.00
03883              60.00     8600.00
03884               0.00     8600.00
03885              80.00     8600.00
03886              80.00     8600.00
03887              60.00     9000.00
03888              20.00     9200.00
03889              60.00     9400.00
03890              60.00     9400.00
03891              80.00     9400.00
03892             100.00     9800.00
03893              20.00     9800.00
03894               0.00     9800.00
03895              20.00    10000.00
03896              80.00    10200.00
03897              40.00    10200.00
03898              60.00    10200.00
03899              20.00    10200.00
03900              20.00    10600.00
03901              40.00    10400.00
03902              60.00    10600.00
03903              60.00    10600.00
03904              20.00    10800.00
03905              20.00    10800.00
03906               0.00    10800.00
03907              20.00    10800.00
03908              20.00    11000.00
03909              60.00    11000.00
03910              60.00    11000.00
03911              60.00    11000.00
03912              20.00    11200.00
03913               0.00    11200.00
03914              20.00    11400.00
03915              20.00    11400.00
03916              40.00    11400.00
03917              20.00    11400.00
03918              20.00    11400.00
03919              20.00    11400.00
03920              60.00    11400.00
03921              40.00    11400.00
03922              40.00    11400.00
03923              20.00    11400.00
03924               0.00    11400.00
03925              20.00    11200.00
03926              20.00    11400.00
03927              20.00    11400.00
03928              20.00    11200.00
03929              20.00    11200.00
03930              60.00    11400.00
03931              20.00    11200.00
03932              20.00    11000.00
03933              20.00    11000.00
03934              20.00    11000.00
03935              20.00    11000.00
03936              20.00    11000.00
03937              20.00    10800.00
03938              20.00    10800.00
03939               0.00    10800.00
03940               0.00    10600.00
03941               0.00    10600.00
03942               0.00    10600.00
03943              20.00    10400.00
03944              20.00    10400.00
03945               0.00    10200.00
03946             -20.00    10000.00
03947               0.00    10200.00
03948              20.00    10000.00
03949              40.00    10000.00
03950              20.00     9800.00
03951               0.00     9800.00
03952             -60.00     9400.00
03953             -60.00     9400.00
03954             -20.00     9400.00
03955              20.00     9200.00
03956              60.00     9000.00
03957               0.00     8800.00
03958             -20.00     8800.00
03959             -60.00     8600.00
03960             -60.00     8400.00
03961             -20.00     8400.00
03962               0.00     8200.00
03963               0.00     8000.00
03964             -20.00     7800.00
03965             -20.00     7800.00
03966             -40.00     7800.00
03967             -20.00     7600.00
03968             -20.00     7200.00
03969             -20.00     7200.00
03970               0.00     7000.00
03971             -20.00     6800.00
03972             -20.00     6600.00
03973             -20.00     6600.00
03974             -80.00     6200.00
03975             -60.00     6200.00
03976             -20.00     6000.00
03977               0.00     5800.00
03978               0.00     5600.00
03979             -20.00     5400.00
03980             -60.00     5400.00
03981             -60.00     5000.00
03982             -60.00     5000.00
03983             -20.00     4600.00
03984             -20.00     4400.00
03985             -20.00     4200.00
03986             -60.00     4000.00
03987             -60.00     3800.00
03988             -60.00     3600.00
03989             -20.00     3400.00
03990             -20.00     3200.00
03991             -40.00     3200.00
03992             -40.00     2800.00
03993             -20.00     2600.00
03994             -60.00     2200.00
03995             -60.00     2200.00
03996             -60.00     2000.00
03997             -40.00     1800.00
03998             -40.00     1400.00
03999             -20.00     1200.00
04000             -20.00     1200.00
04001             -60.00     1000.00
04002             -20.00      600.00
04003             -60.00      400.00
04004             -60.00      400.00
04005             -60.00      200.00
04006             -20.00     -200.00
04007               0.00     -400.00
04008             100.00     -400.00
04009             120.00     -600.00
04010              80.00    -1000.00
04011               0.00    -1200.00
04012               0.00    -1200.00
04013               0.00    -1400.00
04014              60.00    -1800.00
04015             460.00    -1800.00
04016             980.00    -2200.00
04017             560.00    -2600.00
04018            -480.00    -2600.00
04019           -1040.00    -3000.00
04020           -1140.00    -2800.00
04021            -900.00    -3000.00
04022             300.00    -3400.00
04023             380.00    -3800.00
04024              80.00    -3400.00
04025             420.00    -4400.00
04026             -80.00    -4200.00
04027             -20.00    -4200.00
04028             140.00    -4800.00
04029            -100.00    -4600.00
04030             100.00    -5200.00
04031              60.00    -5000.00
04032            -180.00    -5200.00
04033            -260.00    -5600.00
04034             -80.00    -5400.00
04035              20.00    -6000.00
04036            -140.00    -6000.00
04037              40.00    -6200.00
04038             -20.00    -6200.00
04039            -100.00    -6600.00
04040               0.00    -6800.00
04041             -20.00    -6800.00
04042             -40.00    -7000.00
04043             -60.00    -7200.00
04044             -20.00    -7400.00
04045             -60.00    -7800.00
04046            -100.00    -7800.00
04047             -60.00    -8000.00
04048               0.00    -8000.00
04049             -20.00    -8200.00
04050             -80.00    -8400.00
04051             -20.00    -8400.00
04052             -20.00    -8800.00
04053             -20.00    -8800.00
04054             -60.00    -9000.00
04055             -60.00    -9000.00
04056             -80.00    -9200.00
04057             -60.00    -9200.00
04058               0.00    -9400.00
04059             -60.00    -9400.00
04060             -40.00    -9800.00
04061             -20.00    -9800.00
04062             -60.00   -10000.00
04063             -60.00   -10000.00
04064             -20.00   -10000.00
04065             -40.00   -10000.00
04066             -80.00   -10200.00
04067             -60.00   -10400.00
04068             -40.00   -10400.00
04069             -20.00   -10600.00
04070             -20.00   -10600.00
04071               0.00   -10600.00
04072             -20.00   -10800.00
04073             -60.00   -11000.00
04074             -60.00   -10800.00
04075             -20.00   -11000.00
04076             -60.00   -11000.00
04077               0.00   -11000.00
04078               0.00   -11000.00
04079             -20.00   -11000.00
04080             -60.00   -11200.00
04081             -60.00   -11000.00
04082             -60.00   -11200.00
04083             -20.00   -11400.00
04084             -20.00   -11200.00
04085             -20.00   -11200.00
04086             -20.00   -11400.00
04087             -40.00   -11400.00
04088             -40.00   -11400.00
04089             -60.00   -11400.00
04090             -20.00   -11400.00
04091             -20.00   -11200.00
04092               0.00   -11400.00
04093               0.00   -11400.00
04094             -20.00   -11200.00
04095             -20.00   -11400.00
04096             -20.00   -11200.00
04097             -20.00   -11400.00
04098               0.00   -11000.00
04099             -20.00   -11200.00
04100             -20.00   -11000.00
04101             -20.00   -11000.00
04102             -20.00   -11000.00
04103             -20.00   -11000.00
04104               0.00   -10800.00
04105               0.00   -10800.00
04106               0.00   -10800.00
04107             -20.00   -10800.00
04108             -20.00   -10600.00
04109               0.00   -10600.00
04110               0.00   -10600.00
04111               0.00   -10600.00
04112              20.00   -10200.00
04113               0.00   -10200.00
04114             -20.00   -10200.00
04115               0.00   -10000.00
04116               0.00   -10000.00
04117               0.00    -9800.00
04118               0.00    -9600.00
04119               0.00    -9600.00
04120             -20.00    -9400.00
04121               0.00    -9400.00
04122               0.00    -9200.00
04123              20.00    -9200.00
04124              20.00    -9000.00
04125              20.00    -8800.00
04126               0.00    -8600.00
04127               0.00    -8600.00
04128               0.00    -8600.00
04129              20.00    -8200.00
04130              20.00    -8200.00
04131              20.00    -8000.00
04132               0.00    -7800.00
04133              20.00    -7600.00
04134               0.00    -7400.00
04135               0.00    -7200.00
04136              20.00    -7000.00
04137              20.00    -6800.00
04138              20.00    -6800.00
04139              20.00    -6800.00
04140               0.00    -6400.00
04141               0.00    -6400.00
04142              20.00    -6200.00
04143              20.00    -6000.00
04144              20.00    -5800.00
04145              60.00    -5800.00
04146              20.00    -5400.00
04147               0.00    -5200.00
04148              20.00    -5000.00
04149              20.00    -4800.00
04150              20.00    -4600.00
04151              60.00    -4400.00
04152              20.00    -4400.00
04153              20.00    -4200.00
04154              20.00    -3800.00
04155              20.00    -3600.00
04156              20.00    -3400.00
04157              60.00    -3400.00
04158              40.00    -3000.00
04159              20.00    -2800.00
04160              20.00    -2600.00
04161              20.00    -2400.00
04162              20.00    -2200.00
04163              20.00    -2000.00
04164              60.00    -1800.00
04165              20.00    -1800.00
04166              40.00    -1400.00
04167              20.00    -1200.00
04168              20.00    -1000.00
04169              60.00     -600.00
04170              60.00     -400.00
04171              60.00     -400.00
04172              60.00     -200.00
04173              60.00      200.00
04174              60.00      400.00
04175             140.00      400.00
04176             180.00      600.00
04177             220.00      800.00
04178             160.00     1000.00
04179             140.00     1200.00
04180             100.00     1400.00
04181             220.00     1800.00
04182             860.00     2200.00
04183            1280.00     2200.00
04184             380.00     2400.00
04185            -880.00     2600.00
04186           -1380.00     2600.00
04187           -1320.00     3000.00
04188             200.00     3400.00
04189             860.00     3200.00
04190             160.00     3600.00
04191             560.00     3800.00
04192             160.00     3600.00
04193            -140.00     4600.00
04194             220.00     4200.00
04195             -80.00     4400.00
04196             320.00     5200.00
04197             180.00     4600.00
04198            -160.00     5400.00
04199              60.00     5400.00
04200             -20.00     5400.00
04201             140.00     6000.00
04202              60.00     5600.00
04203             160.00     6200.00
04204             100.00     6200.00
04205             -60.00     6200.00
04206             160.00     6800.00
04207              40.00     6600.00
04208              60.00     7000.00
04209              60.00     7000.00
04210             140.00     7400.00
04211              60.00     7400.00
04212               0.00     7400.00
04213              80.00     7800.00
04214              80.00     7800.00
04215             140.00     8200.00
04216              40.00     8200.00
04217              80.00     8200.00
04218               0.00     8600.00
04219              60.00     8600.00
04220              80.00     8800.00
04221              60.00     8800.00
04222              40.00     9000.00
04223               0.00     9200.00
04224              60.00     9400.00
04225              60.00     9400.00
04226             100.00     9600.00
04227              60.00     9800.00
04228              20.00     9800.00
04229               0.00     9800.00
04230              60.00    10000.00
04231              80.00    10200.00
04232              60.00    10200.00
04233              60.00    10200.00
04234               0.00    10600.00
04235              20.00    10600.00
04236              40.00    10400.00
04237              60.00    10600.00
04238              60.00    10600.00
04239              20.00    10800.00
04240              20.00    10800.00
04241               0.00    10800.00
04242               0.00    11000.00
04243              60.00    10800.00
04244              60.00    11000.00
04245              60.00    11200.00
04246              60.00    11000.00
04247              20.00    11400.00
04248               0.00    11200.00
04249              20.00    11400.00
04250              60.00    11400.00
04251              20.00    11200.00
04252               0.00    11400.00
04253              20.00    11400.00
04254              20.00    11400.00
04255              40.00    11400.00
04256              40.00    11400.00
04257              20.00    11200.00
04258              20.00    11400.00
04259              40.00    11400.00
04260              60.00    11400.00
04261              20.00    11200.00
04262               0.00    11400.00
04263              20.00    11200.00
04264              60.00    11200.00
04265              40.00    11000.00
04266               0.00    11200.00
04267               0.00    11000.00
04268              40.00    11000.00
04269              20.00    11000.00
04270              60.00    11000.00
04271              20.00    10800.00
04272               0.00    10800.00
04273               0.00    10800.00
04274             -20.00    10600.00
04275              20.00    10600.00
04276              60.00    10400.00
04277              40.00    10600.00
04278              20.00    10400.00
04279               0.00    10200.00
04280             -20.00    10200.00
04281             -20.00    10000.00
04282               0.00    10000.00
04283               0.00    10000.00
04284              20.00     9800.00
04285               0.00     9800.00
04286               0.00     9800.00
04287               0.00     9600.00
04288             -20.00     9200.00
04289             -20.00     9400.00
04290             -20.00     9200.00
04291               0.00     9000.00
04292               0.00     9000.00
04293               0.00     8600.00
04294             -20.00     8600.00
04295               0.00     8400.00
04296             -20.00     8200.00
04297             -20.00     8200.00
04298             -20.00     8000.00
04299             -20.00     7800.00
04300               0.00     7600.00
04301             -20.00     7600.00
04302             -20.00     7400.00
04303             -20.00     7200.00
04304             -20.00     7000.00
04305             -20.00     6800.00
04306             -20.00     6600.00
04307             -20.00     6600.00
04308             -40.00     6200.00
04309             -60.00     6000.00
04310             -20.00     6000.00
04311             -20.00     5800.00
04312             -20.00     5800.00
04313             -20.00     5400.00
04314             -20.00     5400.00
04315             -20.00     5200.00
04316             -20.00     5000.00
04317             -20.00     4600.00
04318             -20.00     4400.00
04319             -20.00     4400.00
04320             -40.00     4000.00
04321             -40.00     3800.00
04322             -40.00     3600.00
04323             -20.00     3400.00
04324             -20.00     3200.00
04325             -40.00     3000.00
04326             -60.00     3000.00
04327             -60.00     2800.00
04328             -60.00     2600.00
04329             -20.00     2200.00
04330             -20.00     2000.00
04331             -40.00     1800.00
04332             -40.00     1600.00
04333             -60.00     1400.00
04334             -40.00     1200.00
04335             -60.00     1000.00
04336             -20.00      800.00
04337             -60.00      600.00
04338             -40.00      400.00
04339             -20.00      200.00
04340             -40.00        0.00
04341             -20.00     -200.00
04342              60.00     -400.00
04343             120.00     -600.00
04344             120.00     -800.00
04345              60.00    -1000.00
04346               0.00    -1200.00
04347               0.00    -1400.00
04348               0.00    -1600.00
04349             220.00    -1800.00
04350             820.00    -2000.00
04351             860.00    -2600.00
04352             -60.00    -2600.00
04353            -900.00    -2800.00
04354           -1100.00    -3000.00
04355           -1120.00    -2800.00
04356            -240.00    -3000.00
04357             540.00    -3800.00
04358              60.00    -3600.00
04359             340.00    -3800.00
04360             220.00    -4400.00
04361            -180.00    -4200.00
04362             180.00    -4600.00
04363             -60.00    -4600.00
04364             -20.00    -5000.00
04365             160.00    -5200.00
04366            -100.00    -5000.00
04367            -260.00    -5800.00
04368            -160.00    -5400.00
04369              60.00    -5800.00
04370            -100.00    -6000.00
04371             -20.00    -6000.00
04372              20.00    -6600.00
04373            -140.00    -6400.00
04374             -20.00    -6800.00
04375               0.00    -6800.00
04376             -20.00    -6800.00
04377             -60.00    -7400.00
04378             -20.00    -7200.00
04379             -20.00    -7600.00
04380            -100.00    -7600.00
04381             -80.00    -7800.00
04382             -20.00    -7800.00
04383               0.00    -8200.00
04384             -60.00    -8400.00
04385             -20.00    -8400.00
04386               0.00    -8600.00
04387             -20.00    -8800.00
04388             -40.00    -9000.00
04389             -60.00    -9000.00
04390             -80.00    -9200.00
04391             -80.00    -9200.00
04392             -20.00    -9200.00
04393             -20.00    -9600.00
04394             -40.00    -9400.00
04395             -20.00    -9600.00
04396             -60.00   -10000.00
04397             -60.00   -10000.00
04398             -20.00   -10000.00
04399             -20.00   -10000.00
04400             -20.00   -10200.00
04401             -60.00   -10200.00
04402             -60.00   -10200.00
04403             -80.00   -10600.00
04404             -60.00   -10600.00
04405               0.00   -10600.00
04406               0.00   -10800.00
04407             -20.00   -10800.00
04408             -20.00   -10800.00
04409             -60.00   -11000.00
04410             -60.00   -11000.00
04411             -20.00   -11000.00
04412             -20.00   -11000.00
04413             -20.00   -11000.00
04414             -80.00   -11200.00
04415             -60.00   -11200.00
04416             -60.00   -11000.00
04417             -20.00   -11400.00
04418               0.00   -11400.00
04419             -20.00   -11200.00
04420             -40.00   -11400.00
04421             -60.00   -11400.00
04422             -20.00   -11400.00
04423             -40.00   -11400.00
04424             -60.00   -11400.00
04425             -20.00   -11400.00
04426             -20.00   -11400.00
04427             -20.00   -11400.00
04428             -20.00   -11400.00
04429               0.00   -11400.00
04430             -20.00   -11400.00
04431               0.00   -11400.00
04432             -20.00   -11200.00
04433             -20.00   -11000.00
04434             -20.00   -11000.00
04435               0.00   -11200.00
04436             -20.00   -11000.00
04437               0.00   -11000.00
04438               0.00   -11000.00
04439               0.00   -10800.00
04440             -20.00   -10600.00
04441             -20.00   -10600.00
04442               0.00   -10600.00
04443               0.00   -10600.00
04444               0.00   -10600.00
04445               0.00   -10600.00
04446               0.00   -10400.00
04447               0.00   -10200.00
04448               0.00   -10000.00
04449               0.00   -10000.00
04450               0.00    -9800.00
04451               0.00    -9800.00
04452               0.00    -9800.00
04453               0.00    -9600.00
04454               0.00    -9400.00
04455               0.00    -9400.00
04456               0.00    -9400.00
04457               0.00    -9000.00
04458              20.00    -9200.00
04459              20.00    -9000.00
04460               0.00    -8600.00
04461               0.00    -8600.00
04462               0.00    -8600.00
04463               0.00    -8200.00
04464              20.00    -8400.00
04465              60.00    -8000.00
04466              20.00    -7800.00
04467               0.00    -7600.00
04468               0.00    -7400.00
04469              20.00    -7400.00
04470               0.00    -7200.00
04471              20.00    -7000.00
04472              20.00    -6800.00
04473               0.00    -6800.00
04474               0.00    -6600.00
04475               0.00    -6600.00
04476               0.00    -6200.00
04477              20.00    -6000.00
04478              60.00    -6000.00
04479              40.00    -5800.00
04480              40.00    -5400.00
04481              20.00    -5400.00
04482               0.00    -5000.00
04483              20.00    -4800.00
04484              20.00    -4600.00
04485               0.00    -4600.00
04486              20.00    -4400.00
04487              20.00    -4200.00
04488              20.00    -3800.00
04489              40.00    -3800.00
04490              60.00    -3600.00
04491              20.00    -3400.00
04492              40.00    -3200.00
04493              40.00    -2800.00
04494              40.00    -2800.00
04495              20.00    -2600.00
04496              20.00    -2400.00
04497              40.00    -2200.00
04498              20.00    -2000.00
04499              20.00    -1800.00
04500              40.00    -1400.00
04501              60.00    -1200.00
04502              40.00    -1000.00
04503              60.00     -800.00
04504              60.00     -600.00
04505              60.00     -400.00
04506              60.00     -200.00
04507              60.00      200.00
04508              60.00      200.00
04509             100.00      400.00
04510             200.00      600.00
04511             220.00      800.00
04512             180.00     1000.00
04513             140.00     1000.00
04514             100.00     1400.00
04515             140.00     1400.00
04516             520.00     1800.00
04517            1260.00     2200.00
04518             880.00     2400.00
04519            -400.00     2600.00
04520           -1220.00     2600.00
04521           -1480.00     3000.00
04522            -580.00     3400.00
04523             880.00     3400.00
04524             380.00     3400.00
04525             380.00     3800.00
04526             480.00     3600.00
04527            -220.00     4200.00
04528             140.00     4600.00
04529              20.00     4200.00
04530             100.00     5000.00
04531             440.00     5000.00
04532            -100.00     5000.00
04533             -20.00     5800.00
04534             -60.00     5200.00
04535              20.00     6000.00
04536             140.00     5800.00
04537              60.00     6000.00
04538             180.00     6400.00
04539             -60.00     6200.00
04540             120.00     6600.00
04541             100.00     6600.00
04542              20.00     6800.00
04543              80.00     7000.00
04544              60.00     7200.00
04545              80.00     7600.00
04546               0.00     7400.00
04547              60.00     7800.00
04548              60.00     7800.00
04549             140.00     8000.00
04550              80.00     8200.00
04551              60.00     8400.00
04552              40.00     8600.00
04553              20.00     8600.00
04554             100.00     8800.00
04555              40.00     8800.00
04556              60.00     9000.00
04557               0.00     9200.00
04558              40.00     9200.00
04559              20.00     9400.00
04560              80.00     9600.00
04561              60.00     9800.00
04562              20.00     9800.00
04563              20.00     9800.00
04564              20.00    10000.00
04565              80.00    10000.00
04566              60.00    10000.00
04567              40.00    10200.00
04568              20.00    10400.00
04569              20.00    10200.00
04570              60.00    10600.00
04571              80.00    10600.00
04572              60.00    10600.00
04573              20.00    10800.00
04574              20.00    10800.00
04575              20.00    11000.00
04576              20.00    11000.00
04577              20.00    11000.00
04578              60.00    11000.00
04579              80.00    11000.00
04580              60.00    11200.00
04581              20.00    11400.00
04582              20.00    11200.00
04583              20.00    11200.00
04584              20.00    11400.00
04585              60.00    11400.00
04586              20.00    11400.00
04587               0.00    11400.00
04588              40.00    11400.00
04589              20.00    11400.00
04590              20.00    11400.00
04591              20.00    11400.00
04592              60.00    11400.00
04593              20.00    11400.00
04594              20.00    11400.00
04595               0.00    11400.00
04596               0.00    11400.00
04597               0.00    11400.00
04598              60.00    11400.00
04599              60.00    11000.00
04600              20.00    11000.00
04601              20.00    11000.00
04602               0.00    11000.00
04603              20.00    11000.00
04604               0.00    11000.00
04605              20.00    10800.00
04606               0.00    11000.00
04607               0.00    10800.00
04608               0.00    10800.00
04609               0.00    10800.00
04610               0.00    10600.00
04611              20.00    10600.00
04612               0.00    10200.00
04613              20.00    10200.00
04614               0.00    10200.00
04615               0.00    10000.00
04616               0.00    10000.00
04617               0.00    10000.00
04618               0.00     9800.00
04619               0.00     9800.00
04620               0.00     9800.00
04621             -20.00     9600.00
04622             -20.00     9200.00
04623             -20.00     9400.00
04624               0.00     9200.00
04625               0.00     9000.00
04626               0.00     9000.00
04627             -20.00     8800.00
04628             -20.00     8600.00
04629             -20.00     8400.00
04630             -20.00     8400.00
04631             -20.00     8200.00
04632               0.00     8000.00
04633               0.00     7800.00
04634             -20.00     7800.00
04635               0.00     7400.00
04636             -20.00     7400.00
04637             -20.00     7000.00
04638             -20.00     7200.00
04639             -20.00     7000.00
04640             -40.00     6600.00
04641             -60.00     6600.00
04642             -40.00     6400.00
04643             -20.00     6200.00
04644             -20.00     6200.00
04645             -20.00     6000.00
04646             -20.00     5800.00
04647             -20.00     5400.00
04648             -20.00     5400.00
04649             -60.00     5200.00
04650             -20.00     5000.00
04651             -20.00     4800.00
04652             -20.00     4600.00
04653             -20.00     4400.00
04654             -40.00     4200.00
04655             -20.00     4000.00
04656             -20.00     3800.00
04657             -20.00     3600.00
04658             -20.00     3400.00
04659             -20.00     3200.00
04660             -60.00     3000.00
04661             -60.00     2600.00
04662             -60.00     2600.00
04663             -60.00     2200.00
04664             -20.00     2200.00
04665             -20.00     2000.00
04666             -20.00     1800.00
04667             -20.00     1400.00
04668             -40.00     1200.00
04669             -20.00     1000.00
04670             -40.00     1000.00
04671             -20.00      600.00
04672             -20.00      400.00
04673             -60.00      200.00
04674             -60.00        0.00
04675             -60.00     -200.00
04676               0.00     -400.00
04677              80.00     -600.00
04678             100.00     -600.00
04679              60.00    -1000.00
04680              20.00    -1200.00
04681               0.00    -1200.00
04682             -20.00    -1400.00
04683              80.00    -1800.00
04684             540.00    -1800.00
04685            1020.00    -2400.00
04686             400.00    -2600.00
04687            -620.00    -2800.00
04688           -1060.00    -3000.00
04689           -1140.00    -2800.00
04690            -740.00    -2800.00
04691             420.00    -3400.00
04692             260.00    -3800.00
04693             140.00    -3600.00
04694             420.00    -4400.00
04695            -140.00    -4200.00
04696              20.00    -4400.00
04697              80.00    -4600.00
04698            -140.00    -4600.00
04699             140.00    -5200.00
04700              20.00    -5000.00
04701            -180.00    -5400.00
04702            -240.00    -5800.00
04703             -20.00    -5400.00
04704               0.00    -6000.00
04705            -100.00    -6000.00
04706              60.00    -6400.00
04707             -80.00    -6600.00
04708             -80.00    -6600.00
04709              20.00    -7000.00
04710             -20.00    -6800.00
04711             -20.00    -7400.00
04712             -60.00    -7200.00
04713             -20.00    -7400.00
04714             -80.00    -7800.00
04715            -100.00    -7600.00
04716             -60.00    -8200.00
04717               0.00    -7800.00
04718             -60.00    -8400.00
04719             -60.00    -8400.00
04720             -20.00    -8400.00
04721             -40.00    -8600.00
04722             -40.00    -9000.00
04723             -40.00    -8800.00
04724             -60.00    -9000.00
04725             -80.00    -9200.00
04726             -40.00    -9200.00
04727               0.00    -9400.00
04728             -40.00    -9400.00
04729             -40.00    -9800.00
04730             -60.00    -9800.00
04731             -60.00    -9800.00
04732             -20.00   -10000.00
04733               0.00   -10000.00
04734             -20.00   -10200.00
04735             -60.00   -10200.00
04736             -60.00   -10600.00
04737             -60.00   -10400.00
04738             -60.00   -10600.00
04739             -20.00   -10600.00
04740             -20.00   -10600.00
04741             -80.00   -11000.00
04742             -60.00   -11000.00
04743             -60.00   -11000.00
04744             -20.00   -11000.00
04745             -40.00   -11000.00
04746             -20.00   -11000.00
04747               0.00   -11000.00
04748             -20.00   -11400.00
04749             -60.00   -11200.00
04750             -60.00   -11400.00
04751             -60.00   -11400.00
04752             -20.00   -11400.00
04753             -20.00   -11400.00
04754             -40.00   -11200.00
04755             -60.00   -11400.00
04756             -40.00   -11400.00
04757             -40.00   -11400.00
04758             -20.00   -11400.00
04759             -20.00   -11400.00
04760               0.00   -11400.00
04761             -20.00   -11400.00
04762             -20.00   -11400.00
04763             -20.00   -11400.00
04764             -20.00   -11400.00
04765             -20.00   -11400.00
04766             -20.00   -11000.00
04767               0.00   -11000.00
04768             -20.00   -11000.00
04769             -20.00   -11000.00
04770             -20.00   -11000.00
04771             -20.00   -11000.00
04772               0.00   -11000.00
04773               0.00   -10800.00
04774               0.00   -10800.00
04775               0.00   -10800.00
04776             -20.00   -10600.00
04777               0.00   -10600.00
04778             -20.00   -10600.00
04779               0.00   -10600.00
04780              20.00   -10400.00
04781               0.00   -10200.00
04782             -20.00   -10200.00
04783               0.00   -10000.00
04784               0.00   -10000.00
04785               0.00    -9800.00
04786               0.00    -9800.00
04787              20.00    -9600.00
04788               0.00    -9400.00
04789               0.00    -9400.00
04790               0.00    -9200.00
04791               0.00    -9200.00
04792               0.00    -9000.00
04793              20.00    -9000.00
04794              20.00    -9000.00
04795               0.00    -8600.00
04796               0.00    -8400.00
04797               0.00    -8400.00
04798               0.00    -8200.00
04799              20.00    -8200.00
04800              20.00    -8000.00
04801              20.00    -7800.00
04802               0.00    -7600.00
04803               0.00    -7600.00
04804              20.00    -7200.00
04805               0.00    -7200.00
04806              20.00    -7000.00
04807              20.00    -6800.00
04808               0.00    -6600.00
04809               0.00    -6400.00
04810               0.00    -6600.00
04811               0.00    -6200.00
04812              20.00    -6000.00
04813              20.00    -5800.00
04814              40.00    -5600.00
04815               0.00    -5400.00
04816               0.00    -5200.00
04817               0.00    -5200.00
04818               0.00    -5000.00
04819              40.00    -4600.00
04820              20.00    -4600.00
04821              40.00    -4200.00
04822              20.00    -4200.00
04823              20.00    -3800.00
04824               0.00    -3600.00
04825              20.00    -3400.00
04826              20.00    -3200.00
04827              60.00    -3000.00
04828              40.00    -2800.00
04829              20.00    -2600.00
04830              20.00    -2400.00
04831              60.00    -2200.00
04832              60.00    -2000.00
04833              80.00    -1800.00
04834              60.00    -1800.00
04835              20.00    -1400.00
04836               0.00     -800.00
04837              20.00     -800.00
04838              40.00     -600.00
04839              60.00     -400.00
04840              80.00     -400.00
04841              60.00        0.00
04842              60.00      200.00
04843              80.00      200.00
04844             160.00      600.00
04845             220.00      800.00
04846             180.00     1000.00
04847             140.00     1000.00
04848             140.00     1200.00
04849             140.00     1600.00
04850             300.00     1800.00
04851             980.00     2000.00
04852            1200.00     2200.00
04853             180.00     2400.00
04854            -960.00     2600.00
04855           -1420.00     2600.00
04856           -1200.00     3200.00
04857             440.00     3400.00
04858             740.00     3200.00
04859             160.00     3600.00
04860             560.00     3800.00
04861              60.00     3800.00
04862             -80.00     4600.00
04863             180.00     4200.00
04864             -80.00     4600.00
04865             400.00     5000.00
04866             100.00     4600.00
04867            -100.00     5400.00
04868              60.00     5200.00
04869             -20.00     5600.00
04870             140.00     5800.00
04871               0.00     5800.00
04872             160.00     6400.00
04873              60.00     6000.00
04874               0.00     6400.00
04875             160.00     6800.00
04876              20.00     6600.00
04877              60.00     7200.00
04878              60.00     7000.00
04879             100.00     7600.00
04880               0.00     7400.00
04881               0.00     7600.00
04882              60.00     7800.00
04883              80.00     7800.00
04884             140.00     8200.00
04885              60.00     8200.00
04886             100.00     8400.00
04887               0.00     8400.00
04888              60.00     8600.00
04889              60.00     8800.00
04890              60.00     9000.00
04891              40.00     9200.00
04892              40.00     9200.00
04893              60.00     9400.00
04894              60.00     9400.00
04895              80.00     9800.00
04896              60.00     9800.00
04897              20.00     9800.00
04898              20.00     9800.00
04899              80.00    10200.00
04900             100.00    10000.00
04901              60.00    10200.00
04902              20.00    10200.00
04903               0.00    10400.00
04904              20.00    10600.00
04905              80.00    10600.00
04906             100.00    10600.00
04907              60.00    10600.00
04908              20.00    10800.00
04909              20.00    11000.00
04910              20.00    11000.00
04911              60.00    11000.00
04912              80.00    11000.00
04913              60.00    11000.00
04914              60.00    11000.00
04915              20.00    11200.00
04916              20.00    11200.00
04917              20.00    11200.00
04918              20.00    11400.00
04919              60.00    11400.00
04920              20.00    11400.00
04921              20.00    11400.00
04922              20.00    11400.00
04923              40.00    11400.00
04924              60.00    11400.00
04925              60.00    11400.00
04926              40.00    11200.00
04927              20.00    11400.00
04928              20.00    11400.00
04929              20.00    11400.00
04930               0.00    11400.00
04931              20.00    11400.00
04932              40.00    11200.00
04933              60.00    11400.00
04934               0.00    11000.00
04935               0.00    11000.00
04936             -20.00    11000.00
04937               0.00    11000.00
04938              20.00    11000.00
04939              60.00    11000.00
04940              20.00    11000.00
04941              20.00    10800.00
04942               0.00    10800.00
04943               0.00    10600.00
04944             -20.00    10600.00
04945             -20.00    10600.00
04946               0.00    10400.00
04947               0.00    10400.00
04948               0.00    10400.00
04949               0.00    10200.00
04950               0.00    10000.00
04951               0.00    10000.00
04952               0.00    10000.00
04953             -20.00     9800.00
04954               0.00     9800.00
04955               0.00     9600.00
04956             -20.00     9400.00
04957             -20.00     9400.00
04958             -20.00     9200.00
04959               0.00     9000.00
04960               0.00     9000.00
04961               0.00     8800.00
04962             -20.00     8600.00
04963             -20.00     8600.00
04964               0.00     8400.00
04965               0.00     8400.00
04966              20.00     8200.00
04967               0.00     8000.00
04968             -40.00     7800.00
04969             -40.00     7600.00
04970             -20.00     7400.00
04971             -20.00     7400.00
04972               0.00     7200.00
04973             -20.00     7000.00
04974               0.00     6800.00
04975             -20.00     6600.00
04976             -20.00     6600.00
04977             -20.00     6400.00
04978             -20.00     6200.00
04979               0.00     6000.00
04980             -20.00     5800.00
04981             -20.00     5600.00
04982             -60.00     5400.00
04983             -60.00     5400.00
04984             -20.00     5200.00
04985             -20.00     4800.00
04986             -20.00     4600.00
04987             -20.00     4600.00
04988             -20.00     4400.00
04989             -20.00     4200.00
04990             -20.00     3800.00
04991             -40.00     3600.00
04992             -20.00     3600.00
04993             -20.00     3400.00
04994             -20.00     3200.00
04995             -60.00     2800.00
04996             -60.00     2600.00
04997             -60.00     2600.00
04998             -60.00     2200.00
04999             -60.00     2000.00
05000             -20.00     2000.00
