Unit:(mV)
                     CH1         CH2
Frequency              ? 298.970 kHz
00001              60.00    -1400.00
00002             260.00    -1600.00
00003             860.00    -1800.00
00004             820.00    -2200.00
00005            -100.00    -2600.00
00006            -900.00    -2600.00
00007           -1220.00    -2600.00
00008            -980.00    -2400.00
00009             380.00    -3000.00
00010             460.00    -3200.00
00011              20.00    -3000.00
00012             520.00    -3600.00
00013             140.00    -3600.00
00014             -20.00    -3400.00
00015             220.00    -4400.00
00016            -100.00    -4000.00
00017             180.00    -4400.00
00018             260.00    -4400.00
00019            -140.00    -4600.00
00020            -140.00    -5000.00
00021               0.00    -4800.00
00022             100.00    -5200.00
00023              20.00    -5400.00
00024             100.00    -5400.00
00025              60.00    -5800.00
00026             -40.00    -5800.00
00027             160.00    -6000.00
00028              80.00    -6000.00
00029               0.00    -6200.00
00030             100.00    -6600.00
00031             100.00    -6400.00
00032              60.00    -6800.00
00033               0.00    -6800.00
00034              80.00    -6800.00
00035             140.00    -7000.00
00036             100.00    -7000.00
00037              80.00    -7400.00
00038              80.00    -7200.00
00039             100.00    -7600.00
00040              80.00    -7600.00
00041             100.00    -7800.00
00042              80.00    -7800.00
00043              60.00    -8000.00
00044             100.00    -8200.00
00045             140.00    -8200.00
00046             100.00    -8400.00
00047             120.00    -8400.00
00048             140.00    -8600.00
00049             100.00    -8600.00
00050             100.00    -8600.00
00051             140.00    -8600.00
00052             140.00    -9000.00
00053             120.00    -9000.00
00054             100.00    -9000.00
00055             140.00    -9000.00
00056             100.00    -9200.00
00057             140.00    -9200.00
00058             160.00    -9400.00
00059             160.00    -9200.00
00060             140.00    -9400.00
00061             120.00    -9400.00
00062             140.00    -9400.00
00063             140.00    -9600.00
00064             160.00    -9600.00
00065             180.00    -9800.00
00066             160.00    -9600.00
00067             160.00    -9800.00
00068             140.00    -9800.00
00069             140.00    -9800.00
00070             160.00    -9800.00
00071             160.00    -9800.00
00072             180.00    -9800.00
00073             160.00    -9800.00
00074             160.00    -9800.00
00075             140.00    -9800.00
00076             160.00    -9800.00
00077             160.00    -9800.00
00078             180.00    -9800.00
00079             160.00    -9800.00
00080             160.00    -9800.00
00081             140.00    -9800.00
00082             140.00    -9800.00
00083             160.00    -9800.00
00084             160.00    -9600.00
00085             200.00    -9800.00
00086             180.00    -9600.00
00087             160.00    -9800.00
00088             160.00    -9400.00
00089             140.00    -9600.00
00090             160.00    -9400.00
00091             160.00    -9400.00
00092             160.00    -9400.00
00093             160.00    -9400.00
00094             160.00    -9400.00
00095             160.00    -9200.00
00096             160.00    -9200.00
00097             160.00    -9200.00
00098             180.00    -9000.00
00099             180.00    -9000.00
00100             180.00    -9000.00
00101             160.00    -8800.00
00102             160.00    -9000.00
00103             160.00    -8800.00
00104             160.00    -8600.00
00105             160.00    -8600.00
00106             140.00    -8400.00
00107             160.00    -8200.00
00108             140.00    -8400.00
00109             160.00    -8200.00
00110             140.00    -8000.00
00111             160.00    -7800.00
00112             160.00    -7800.00
00113             160.00    -7600.00
00114             140.00    -7400.00
00115             140.00    -7200.00
00116             140.00    -7200.00
00117             140.00    -7000.00
00118             140.00    -6800.00
00119             160.00    -6800.00
00120             160.00    -6600.00
00121             140.00    -6600.00
00122             140.00    -6400.00
00123             160.00    -6200.00
00124             140.00    -6200.00
00125             140.00    -6000.00
00126             140.00    -5800.00
00127             140.00    -5800.00
00128             100.00    -5400.00
00129             100.00    -5400.00
00130             140.00    -5200.00
00131             140.00    -5000.00
00132             140.00    -4800.00
00133             120.00    -4600.00
00134             140.00    -4600.00
00135             100.00    -4400.00
00136             100.00    -4200.00
00137             120.00    -4000.00
00138             140.00    -4000.00
00139             100.00    -3800.00
00140             100.00    -3600.00
00141             100.00    -3400.00
00142              80.00    -3200.00
00143              80.00    -3000.00
00144             100.00    -2800.00
00145              80.00    -2600.00
00146              80.00    -2400.00
00147              80.00    -2200.00
00148              80.00    -2000.00
00149              60.00    -2000.00
00150              80.00    -1800.00
00151              80.00    -1400.00
00152              80.00    -1400.00
00153              60.00    -1200.00
00154              60.00    -1000.00
00155              60.00     -800.00
00156              60.00     -600.00
00157              60.00     -400.00
00158              60.00     -200.00
00159              20.00        0.00
00160              60.00      200.00
00161              60.00      400.00
00162             120.00      400.00
00163             180.00      600.00
00164             180.00      600.00
00165             140.00     1000.00
00166              80.00     1000.00
00167              80.00     1200.00
00168             100.00     1400.00
00169             500.00     1800.00
00170            1200.00     2000.00
00171             740.00     2200.00
00172            -540.00     2200.00
00173           -1440.00     2200.00
00174           -1620.00     2400.00
00175              60.00     3000.00
00176             900.00     2800.00
00177             -60.00     3000.00
00178             400.00     3400.00
00179             320.00     3000.00
00180            -340.00     4000.00
00181             100.00     3800.00
00182            -140.00     3600.00
00183             140.00     4600.00
00184             320.00     4200.00
00185            -340.00     4400.00
00186             -20.00     5000.00
00187             -80.00     4400.00
00188            -160.00     5000.00
00189              80.00     5000.00
00190               0.00     5400.00
00191              40.00     5800.00
00192            -160.00     5400.00
00193              20.00     5800.00
00194              60.00     5800.00
00195            -160.00     6000.00
00196               0.00     6200.00
00197             -80.00     6200.00
00198             -80.00     6600.00
00199            -120.00     6600.00
00200             -80.00     6800.00
00201             -20.00     7000.00
00202             -20.00     7000.00
00203             -20.00     7200.00
00204            -100.00     7200.00
00205            -100.00     7600.00
00206            -140.00     7400.00
00207             -60.00     7600.00
00208             -80.00     7800.00
00209            -100.00     7800.00
00210            -100.00     8000.00
00211            -140.00     8000.00
00212            -100.00     8200.00
00213            -100.00     8400.00
00214             -80.00     8400.00
00215            -160.00     8600.00
00216            -120.00     8600.00
00217            -100.00     8600.00
00218            -100.00     8600.00
00219            -100.00     9000.00
00220            -140.00     9000.00
00221            -160.00     9000.00
00222            -160.00     9000.00
00223            -100.00     9200.00
00224            -100.00     9400.00
00225            -100.00     9200.00
00226            -160.00     9400.00
00227            -160.00     9400.00
00228            -160.00     9400.00
00229            -180.00     9600.00
00230            -140.00     9600.00
00231            -140.00     9600.00
00232            -140.00     9600.00
00233            -140.00     9800.00
00234            -160.00     9800.00
00235            -180.00     9800.00
00236            -160.00     9800.00
00237            -140.00     9800.00
00238            -160.00     9800.00
00239            -160.00     9800.00
00240            -160.00     9800.00
00241            -160.00     9800.00
00242            -160.00    10000.00
00243            -160.00     9800.00
00244            -160.00     9800.00
00245            -160.00     9800.00
00246            -160.00    10000.00
00247            -160.00     9800.00
00248            -180.00     9800.00
00249            -180.00     9800.00
00250            -180.00     9800.00
00251            -160.00     9800.00
00252            -140.00     9800.00
00253            -160.00     9800.00
00254            -160.00     9800.00
00255            -160.00     9600.00
00256            -160.00     9800.00
00257            -160.00     9600.00
00258            -160.00     9400.00
00259            -160.00     9400.00
00260            -160.00     9400.00
00261            -160.00     9400.00
00262            -160.00     9200.00
00263            -160.00     9200.00
00264            -160.00     9200.00
00265            -140.00     9000.00
00266            -160.00     9000.00
00267            -160.00     9000.00
00268            -160.00     8800.00
00269            -160.00     8600.00
00270            -160.00     8600.00
00271            -160.00     8400.00
00272            -160.00     8400.00
00273            -160.00     8400.00
00274            -180.00     8200.00
00275            -160.00     8200.00
00276            -160.00     7800.00
00277            -160.00     8000.00
00278            -160.00     7800.00
00279            -140.00     7800.00
00280            -160.00     7600.00
00281            -180.00     7400.00
00282            -160.00     7400.00
00283            -140.00     7200.00
00284            -160.00     7000.00
00285            -160.00     7000.00
00286            -160.00     6800.00
00287            -160.00     6600.00
00288            -160.00     6600.00
00289            -140.00     6400.00
00290            -160.00     6200.00
00291            -160.00     6000.00
00292            -140.00     6000.00
00293            -140.00     5800.00
00294            -160.00     5800.00
00295            -160.00     5400.00
00296            -140.00     5400.00
00297            -100.00     5200.00
00298            -120.00     5000.00
00299            -140.00     5000.00
00300            -140.00     4800.00
00301            -140.00     4600.00
00302            -120.00     4400.00
00303            -120.00     4200.00
00304            -140.00     4000.00
00305            -100.00     4000.00
00306            -100.00     3800.00
00307            -100.00     3800.00
00308            -100.00     3400.00
00309            -100.00     3400.00
00310             -80.00     3000.00
00311             -80.00     3000.00
00312            -100.00     2800.00
00313            -100.00     2600.00
00314            -100.00     2200.00
00315             -80.00     2200.00
00316             -80.00     2000.00
00317             -80.00     1800.00
00318             -80.00     1600.00
00319             -80.00     1400.00
00320             -60.00     1200.00
00321             -80.00     1200.00
00322             -60.00     1000.00
00323             -60.00      800.00
00324             -60.00      600.00
00325             -60.00      400.00
00326             -60.00      200.00
00327             -20.00        0.00
00328             -20.00     -200.00
00329              20.00     -400.00
00330             100.00     -600.00
00331             100.00     -600.00
00332              80.00     -800.00
00333              20.00    -1000.00
00334               0.00    -1200.00
00335              40.00    -1400.00
00336             100.00    -1400.00
00337             560.00    -1800.00
00338             980.00    -2200.00
00339             400.00    -2400.00
00340            -580.00    -2600.00
00341           -1100.00    -2600.00
00342           -1260.00    -2600.00
00343            -300.00    -2600.00
00344             700.00    -3200.00
00345             100.00    -3000.00
00346             300.00    -3400.00
00347             460.00    -3800.00
00348            -140.00    -3400.00
00349             180.00    -4000.00
00350              40.00    -4200.00
00351             -60.00    -4200.00
00352             320.00    -4400.00
00353              20.00    -4600.00
00354            -160.00    -5000.00
00355             -80.00    -5000.00
00356              60.00    -5000.00
00357              60.00    -5400.00
00358              60.00    -5200.00
00359             140.00    -5600.00
00360             -20.00    -5600.00
00361              60.00    -5800.00
00362             180.00    -6000.00
00363               0.00    -6000.00
00364              60.00    -6200.00
00365              80.00    -6400.00
00366             100.00    -6600.00
00367              20.00    -6800.00
00368              20.00    -6800.00
00369             120.00    -7000.00
00370             120.00    -7000.00
00371             100.00    -7400.00
00372              80.00    -7200.00
00373             100.00    -7400.00
00374             100.00    -7600.00
00375              80.00    -7600.00
00376             100.00    -7800.00
00377              60.00    -8000.00
00378              80.00    -8200.00
00379             140.00    -8200.00
00380             140.00    -8200.00
00381             100.00    -8400.00
00382             140.00    -8400.00
00383             140.00    -8600.00
00384             100.00    -8600.00
00385             120.00    -9000.00
00386             160.00    -8800.00
00387             140.00    -9000.00
00388             100.00    -9000.00
00389             100.00    -9000.00
00390             120.00    -9200.00
00391             140.00    -9200.00
00392             160.00    -9400.00
00393             160.00    -9400.00
00394             140.00    -9400.00
00395             140.00    -9400.00
00396             140.00    -9400.00
00397             140.00    -9400.00
00398             140.00    -9600.00
00399             180.00    -9600.00
00400             180.00    -9800.00
00401             160.00    -9800.00
00402             160.00    -9800.00
00403             160.00    -9800.00
00404             140.00    -9800.00
00405             160.00    -9800.00
00406             160.00    -9800.00
00407             160.00    -9800.00
00408             140.00    -9800.00
00409             160.00    -9800.00
00410             180.00   -10000.00
00411             140.00    -9800.00
00412             160.00    -9800.00
00413             160.00    -9800.00
00414             160.00    -9800.00
00415             160.00    -9800.00
00416             140.00    -9800.00
00417             140.00    -9800.00
00418             160.00    -9800.00
00419             180.00    -9800.00
00420             180.00    -9800.00
00421             180.00    -9800.00
00422             160.00    -9600.00
00423             140.00    -9400.00
00424             160.00    -9600.00
00425             200.00    -9400.00
00426             180.00    -9400.00
00427             140.00    -9400.00
00428             100.00    -9200.00
00429             120.00    -9200.00
00430             160.00    -9200.00
00431             180.00    -9000.00
00432             220.00    -9000.00
00433             180.00    -9200.00
00434             160.00    -9000.00
00435             140.00    -9000.00
00436             160.00    -8800.00
00437             160.00    -8600.00
00438             180.00    -8600.00
00439             160.00    -8600.00
00440             160.00    -8400.00
00441             140.00    -8200.00
00442             140.00    -8400.00
00443             160.00    -8200.00
00444             160.00    -7800.00
00445             160.00    -7800.00
00446             160.00    -7800.00
00447             160.00    -7600.00
00448             160.00    -7600.00
00449             140.00    -7200.00
00450             140.00    -7200.00
00451             140.00    -7200.00
00452             160.00    -7000.00
00453             160.00    -6800.00
00454             140.00    -6800.00
00455             140.00    -6600.00
00456             140.00    -6600.00
00457             140.00    -6200.00
00458             140.00    -6200.00
00459             140.00    -6000.00
00460             140.00    -5800.00
00461             140.00    -5800.00
00462             140.00    -5400.00
00463             100.00    -5400.00
00464             120.00    -5200.00
00465             140.00    -5000.00
00466             140.00    -5000.00
00467             140.00    -4800.00
00468             100.00    -4600.00
00469              80.00    -4600.00
00470             100.00    -4400.00
00471             100.00    -4200.00
00472             100.00    -3800.00
00473             140.00    -3800.00
00474             140.00    -3600.00
00475             100.00    -3600.00
00476              80.00    -3400.00
00477              80.00    -3000.00
00478              80.00    -3000.00
00479              80.00    -2600.00
00480              80.00    -2600.00
00481              80.00    -2400.00
00482              80.00    -2200.00
00483              60.00    -2000.00
00484              60.00    -2000.00
00485              80.00    -1800.00
00486              60.00    -1400.00
00487              80.00    -1400.00
00488              60.00    -1000.00
00489              60.00     -800.00
00490              60.00     -600.00
00491              60.00     -600.00
00492              80.00     -400.00
00493              60.00     -200.00
00494              60.00     -200.00
00495              60.00      200.00
00496              80.00      400.00
00497             140.00      600.00
00498             180.00      600.00
00499             160.00      800.00
00500             100.00     1000.00
00501              80.00     1200.00
00502              60.00     1400.00
00503             220.00     1600.00
00504             920.00     1800.00
00505            1100.00     2000.00
00506             100.00     2200.00
00507           -1060.00     2200.00
00508           -1700.00     2200.00
00509            -940.00     2800.00
00510             860.00     3000.00
00511             400.00     2800.00
00512              20.00     3400.00
00513             580.00     3200.00
00514            -140.00     3600.00
00515            -140.00     4200.00
00516              40.00     3600.00
00517            -160.00     4200.00
00518             420.00     4400.00
00519             -80.00     3800.00
00520            -260.00     5000.00
00521              80.00     4600.00
00522            -220.00     4600.00
00523               0.00     5200.00
00524              20.00     5000.00
00525              40.00     5800.00
00526             -60.00     5400.00
00527            -140.00     5800.00
00528             100.00     6000.00
00529            -140.00     5800.00
00530             -80.00     6200.00
00531               0.00     6200.00
00532             -80.00     6400.00
00533             -80.00     6800.00
00534            -140.00     6600.00
00535             -40.00     7000.00
00536             -80.00     6800.00
00537             -20.00     7000.00
00538             -80.00     7200.00
00539            -100.00     7400.00
00540            -100.00     7400.00
00541             -80.00     7800.00
00542             -60.00     7800.00
00543            -140.00     7800.00
00544             -80.00     8000.00
00545            -140.00     8000.00
00546            -100.00     8200.00
00547             -80.00     8400.00
00548             -80.00     8200.00
00549            -120.00     8400.00
00550            -160.00     8400.00
00551            -140.00     8600.00
00552            -120.00     8600.00
00553             -80.00     8600.00
00554            -100.00     8800.00
00555            -140.00     9000.00
00556            -160.00     9000.00
00557            -140.00     9200.00
00558            -100.00     9200.00
00559            -120.00     9200.00
00560            -140.00     9200.00
00561            -140.00     9400.00
00562            -160.00     9400.00
00563            -160.00     9400.00
00564            -140.00     9600.00
00565            -140.00     9600.00
00566            -160.00     9800.00
00567            -140.00     9600.00
00568            -160.00     9800.00
00569            -180.00     9800.00
00570            -180.00     9800.00
00571            -140.00     9800.00
00572            -100.00     9800.00
00573            -160.00     9800.00
00574            -160.00     9800.00
00575            -160.00    10000.00
00576            -180.00    10000.00
00577            -160.00    10000.00
00578            -140.00     9800.00
00579            -160.00     9800.00
00580            -160.00     9800.00
00581            -160.00    10000.00
00582            -160.00     9800.00
00583            -180.00     9800.00
00584            -180.00     9800.00
00585            -140.00     9800.00
00586            -160.00    10000.00
00587            -160.00     9600.00
00588            -160.00     9800.00
00589            -160.00     9600.00
00590            -160.00     9600.00
00591            -180.00     9600.00
00592            -160.00     9400.00
00593            -140.00     9400.00
00594            -160.00     9400.00
00595            -160.00     9400.00
00596            -160.00     9400.00
00597            -180.00     9200.00
00598            -160.00     9200.00
00599            -160.00     9200.00
00600            -160.00     9000.00
00601            -160.00     9000.00
00602            -160.00     9000.00
00603            -180.00     8800.00
00604            -160.00     8600.00
00605            -160.00     8600.00
00606            -160.00     8400.00
00607            -140.00     8400.00
00608            -160.00     8400.00
00609            -160.00     8200.00
00610            -180.00     7800.00
00611            -160.00     8000.00
00612            -160.00     7800.00
00613            -160.00     7600.00
00614            -160.00     7600.00
00615            -160.00     7400.00
00616            -180.00     7400.00
00617            -160.00     7200.00
00618            -140.00     7400.00
00619            -140.00     6800.00
00620            -160.00     6800.00
00621            -160.00     6800.00
00622            -140.00     6600.00
00623            -140.00     6600.00
00624            -140.00     6400.00
00625            -140.00     6000.00
00626            -140.00     6000.00
00627            -140.00     5800.00
00628            -140.00     5800.00
00629            -140.00     5800.00
00630            -160.00     5400.00
00631            -140.00     5200.00
00632            -120.00     5200.00
00633            -140.00     5000.00
00634            -140.00     4800.00
00635            -140.00     4600.00
00636            -140.00     4400.00
00637            -100.00     4400.00
00638            -100.00     4200.00
00639            -100.00     4000.00
00640            -100.00     3800.00
00641            -100.00     3800.00
00642            -100.00     3400.00
00643            -100.00     3400.00
00644            -100.00     3000.00
00645            -100.00     3000.00
00646             -80.00     2800.00
00647            -100.00     2600.00
00648            -100.00     2400.00
00649            -100.00     2200.00
00650             -80.00     2000.00
00651             -80.00     2000.00
00652             -60.00     1800.00
00653             -80.00     1600.00
00654             -60.00     1200.00
00655             -60.00     1200.00
00656             -60.00     1000.00
00657             -60.00      800.00
00658             -60.00      600.00
00659             -60.00      400.00
00660             -60.00      200.00
00661             -40.00      200.00
00662             -20.00        0.00
00663             -20.00     -400.00
00664              60.00     -400.00
00665             120.00     -600.00
00666             100.00     -600.00
00667              40.00    -1000.00
00668              20.00    -1200.00
00669               0.00    -1200.00
00670              60.00    -1400.00
00671             300.00    -1600.00
00672             880.00    -1800.00
00673             800.00    -2200.00
00674            -140.00    -2400.00
00675            -900.00    -2600.00
00676           -1220.00    -2600.00
00677            -980.00    -2600.00
00678             420.00    -3000.00
00679             440.00    -3400.00
00680               0.00    -3000.00
00681             540.00    -3800.00
00682             100.00    -3600.00
00683             -20.00    -3600.00
00684             220.00    -4400.00
00685            -140.00    -4000.00
00686             180.00    -4400.00
00687             240.00    -4400.00
00688            -160.00    -4600.00
00689            -140.00    -5000.00
00690               0.00    -4600.00
00691             100.00    -5200.00
00692              20.00    -5400.00
00693             140.00    -5400.00
00694              60.00    -5800.00
00695             -20.00    -5600.00
00696             160.00    -6000.00
00697              80.00    -6000.00
00698              20.00    -6200.00
00699             100.00    -6600.00
00700              80.00    -6200.00
00701              80.00    -6600.00
00702               0.00    -6600.00
00703              80.00    -7000.00
00704             140.00    -7000.00
00705             100.00    -7200.00
00706              80.00    -7600.00
00707             100.00    -7200.00
00708             100.00    -7600.00
00709             100.00    -7600.00
00710             140.00    -7600.00
00711              80.00    -7800.00
00712              80.00    -8000.00
00713             100.00    -8200.00
00714             140.00    -8200.00
00715             120.00    -8400.00
00716             140.00    -8400.00
00717             140.00    -8600.00
00718              80.00    -8600.00
00719             100.00    -8600.00
00720             140.00    -8800.00
00721             140.00    -9000.00
00722             140.00    -9200.00
00723             100.00    -9000.00
00724             100.00    -9200.00
00725             100.00    -9000.00
00726             160.00    -9400.00
00727             180.00    -9200.00
00728             160.00    -9400.00
00729             140.00    -9400.00
00730             140.00    -9400.00
00731             140.00    -9400.00
00732             140.00    -9400.00
00733             160.00    -9600.00
00734             180.00    -9600.00
00735             160.00    -9800.00
00736             140.00    -9800.00
00737             140.00    -9800.00
00738             140.00    -9800.00
00739             140.00    -9800.00
00740             160.00   -10000.00
00741             160.00   -10000.00
00742             160.00    -9800.00
00743             140.00    -9800.00
00744             160.00    -9800.00
00745             140.00    -9800.00
00746             160.00   -10000.00
00747             180.00    -9800.00
00748             180.00    -9800.00
00749             160.00    -9800.00
00750             160.00    -9800.00
00751             160.00    -9800.00
00752             160.00    -9600.00
00753             160.00    -9800.00
00754             180.00    -9800.00
00755             160.00    -9600.00
00756             160.00    -9800.00
00757             160.00    -9600.00
00758             140.00    -9600.00
00759             160.00    -9400.00
00760             180.00    -9400.00
00761             180.00    -9400.00
00762             180.00    -9400.00
00763             160.00    -9400.00
00764             140.00    -9400.00
00765             140.00    -9200.00
00766             160.00    -9200.00
00767             180.00    -9200.00
00768             180.00    -9000.00
00769             160.00    -9000.00
00770             160.00    -8800.00
00771             160.00    -8600.00
00772             160.00    -8600.00
00773             160.00    -8600.00
00774             160.00    -8600.00
00775             160.00    -8400.00
00776             140.00    -8200.00
00777             140.00    -8200.00
00778             160.00    -8200.00
00779             160.00    -7800.00
00780             160.00    -7800.00
00781             160.00    -7600.00
00782             180.00    -7600.00
00783             140.00    -7400.00
00784             160.00    -7200.00
00785             160.00    -7200.00
00786             160.00    -7000.00
00787             140.00    -7000.00
00788             140.00    -6800.00
00789             140.00    -6600.00
00790             140.00    -6600.00
00791             140.00    -6400.00
00792             140.00    -6200.00
00793             160.00    -6200.00
00794             140.00    -6200.00
00795             140.00    -5800.00
00796             140.00    -5800.00
00797             140.00    -5400.00
00798             100.00    -5400.00
00799              80.00    -5200.00
00800              80.00    -5000.00
00801             140.00    -5000.00
00802             160.00    -4800.00
00803             140.00    -4600.00
00804             140.00    -4400.00
00805             100.00    -4200.00
00806             100.00    -4000.00
00807             100.00    -3800.00
00808             100.00    -3600.00
00809              80.00    -3600.00
00810              60.00    -3400.00
00811              60.00    -3200.00
00812              80.00    -3000.00
00813             100.00    -2800.00
00814             120.00    -2800.00
00815             100.00    -2600.00
00816              80.00    -2200.00
00817              60.00    -2200.00
00818              60.00    -2000.00
00819              60.00    -2000.00
00820              60.00    -1800.00
00821              60.00    -1400.00
00822              60.00    -1200.00
00823              60.00    -1000.00
00824              60.00     -800.00
00825              60.00     -600.00
00826              80.00     -400.00
00827              60.00     -400.00
00828              20.00     -200.00
00829              20.00      200.00
00830              60.00      200.00
00831             120.00      400.00
00832             180.00      600.00
00833             160.00      800.00
00834             140.00     1000.00
00835             100.00     1000.00
00836              80.00     1200.00
00837             140.00     1400.00
00838             540.00     1800.00
00839            1180.00     1800.00
00840             680.00     2000.00
00841            -580.00     2200.00
00842           -1460.00     2200.00
00843           -1600.00     2600.00
00844             100.00     3000.00
00845             880.00     2800.00
00846             -60.00     3000.00
00847             420.00     3400.00
00848             300.00     3000.00
00849            -320.00     4000.00
00850             100.00     3600.00
00851            -160.00     3400.00
00852             180.00     4600.00
00853             320.00     3800.00
00854            -340.00     4400.00
00855             -20.00     5000.00
00856             -80.00     4400.00
00857            -160.00     5200.00
00858              80.00     5000.00
00859             -20.00     5400.00
00860              40.00     5600.00
00861            -180.00     5400.00
00862              60.00     6000.00
00863              20.00     5800.00
00864            -160.00     6000.00
00865               0.00     6200.00
00866             -80.00     6200.00
00867             -60.00     6600.00
00868            -140.00     6400.00
00869             -80.00     6800.00
00870             -20.00     7000.00
00871             -20.00     6800.00
00872             -20.00     7400.00
00873            -120.00     7200.00
00874             -80.00     7600.00
00875            -120.00     7400.00
00876             -40.00     7600.00
00877            -100.00     7800.00
00878            -100.00     7800.00
00879            -140.00     8000.00
00880            -160.00     8000.00
00881            -100.00     8200.00
00882            -100.00     8200.00
00883             -80.00     8400.00
00884            -160.00     8400.00
00885            -120.00     8600.00
00886            -100.00     8600.00
00887            -100.00     8600.00
00888            -100.00     9000.00
00889            -140.00     9000.00
00890            -160.00     9000.00
00891            -160.00     9000.00
00892            -100.00     9200.00
00893            -120.00     9400.00
00894            -140.00     9200.00
00895            -160.00     9400.00
00896            -160.00     9400.00
00897            -160.00     9400.00
00898            -160.00     9400.00
00899            -140.00     9600.00
00900            -160.00     9600.00
00901            -140.00     9800.00
00902            -140.00     9800.00
00903            -140.00     9800.00
00904            -160.00     9800.00
00905            -140.00     9800.00
00906            -120.00     9800.00
00907            -140.00     9800.00
00908            -160.00    10000.00
00909            -180.00     9800.00
00910            -180.00    10000.00
00911            -180.00    10000.00
00912            -160.00     9800.00
00913            -160.00    10000.00
00914            -140.00     9800.00
00915            -160.00    10000.00
00916            -160.00     9800.00
00917            -160.00     9800.00
00918            -180.00     9800.00
00919            -160.00     9800.00
00920            -160.00     9800.00
00921            -160.00     9800.00
00922            -180.00     9800.00
00923            -160.00     9800.00
00924            -160.00     9800.00
00925            -160.00     9600.00
00926            -160.00     9800.00
00927            -160.00     9400.00
00928            -160.00     9400.00
00929            -160.00     9400.00
00930            -180.00     9200.00
00931            -180.00     9400.00
00932            -180.00     9200.00
00933            -160.00     9200.00
00934            -160.00     9000.00
00935            -160.00     8800.00
00936            -160.00     8600.00
00937            -160.00     8800.00
00938            -160.00     8600.00
00939            -160.00     8600.00
00940            -160.00     8600.00
00941            -160.00     8600.00
00942            -160.00     8400.00
00943            -160.00     8200.00
00944            -180.00     8200.00
00945            -160.00     8000.00
00946            -160.00     8000.00
00947            -140.00     7800.00
00948            -160.00     7600.00
00949            -160.00     7600.00
00950            -160.00     7400.00
00951            -180.00     7400.00
00952            -160.00     7000.00
00953            -160.00     7200.00
00954            -160.00     7000.00
00955            -160.00     6800.00
00956            -160.00     6600.00
00957            -140.00     6600.00
00958            -140.00     6400.00
00959            -140.00     6200.00
00960            -140.00     6000.00
00961            -160.00     6000.00
00962            -140.00     5800.00
00963            -140.00     5800.00
00964            -160.00     5400.00
00965            -140.00     5400.00
00966            -120.00     5200.00
00967            -100.00     5000.00
00968            -100.00     4800.00
00969            -120.00     4600.00
00970            -140.00     4600.00
00971            -100.00     4400.00
00972            -100.00     4200.00
00973            -100.00     4200.00
00974            -100.00     4000.00
00975            -100.00     3800.00
00976            -100.00     3600.00
00977            -100.00     3400.00
00978             -80.00     3200.00
00979             -80.00     3000.00
00980             -80.00     2800.00
00981             -80.00     2800.00
00982             -80.00     2600.00
00983            -100.00     2400.00
00984            -100.00     2200.00
00985             -80.00     2000.00
00986             -80.00     1800.00
00987             -80.00     1800.00
00988             -60.00     1400.00
00989             -60.00     1200.00
00990             -60.00     1000.00
00991             -80.00     1000.00
00992             -60.00      600.00
00993             -60.00      600.00
00994             -20.00      400.00
00995             -40.00      200.00
00996             -20.00        0.00
00997             -20.00     -200.00
00998              20.00     -400.00
00999             100.00     -600.00
01000             100.00     -800.00
01001              80.00     -800.00
01002              20.00    -1000.00
01003               0.00    -1200.00
01004               0.00    -1400.00
01005             140.00    -1600.00
01006             580.00    -1800.00
01007             960.00    -2200.00
01008             340.00    -2200.00
01009            -620.00    -2600.00
01010           -1100.00    -2600.00
01011           -1260.00    -2400.00
01012            -240.00    -2600.00
01013             700.00    -3200.00
01014              60.00    -3000.00
01015             300.00    -3400.00
01016             420.00    -3800.00
01017            -140.00    -3400.00
01018             180.00    -4000.00
01019               0.00    -4200.00
01020             -40.00    -4200.00
01021             340.00    -4600.00
01022               0.00    -4400.00
01023            -160.00    -4800.00
01024             -60.00    -4800.00
01025              80.00    -5000.00
01026              60.00    -5400.00
01027              60.00    -5400.00
01028             140.00    -5800.00
01029             -20.00    -5400.00
01030              80.00    -5800.00
01031             180.00    -6000.00
01032              20.00    -6000.00
01033              80.00    -6600.00
01034             100.00    -6200.00
01035             100.00    -6600.00
01036              20.00    -7000.00
01037              20.00    -6800.00
01038             140.00    -7000.00
01039             140.00    -7000.00
01040             100.00    -7200.00
01041              80.00    -7400.00
01042             120.00    -7400.00
01043             100.00    -7600.00
01044             100.00    -7600.00
01045             100.00    -7800.00
01046              80.00    -7800.00
01047              80.00    -8200.00
01048             120.00    -8200.00
01049             140.00    -8400.00
01050             100.00    -8400.00
01051             140.00    -8600.00
01052             140.00    -8600.00
01053             100.00    -8600.00
01054             140.00    -8800.00
01055             160.00    -9000.00
01056             140.00    -9000.00
01057             100.00    -9000.00
01058             100.00    -9000.00
01059             100.00    -9200.00
01060             140.00    -9200.00
01061             180.00    -9400.00
01062             180.00    -9200.00
01063             140.00    -9400.00
01064             140.00    -9400.00
01065             140.00    -9400.00
01066             100.00    -9400.00
01067             140.00    -9400.00
01068             160.00    -9600.00
01069             160.00    -9800.00
01070             160.00    -9800.00
01071             160.00    -9800.00
01072             140.00    -9800.00
01073             140.00    -9800.00
01074             140.00   -10000.00
01075             160.00    -9800.00
01076             140.00    -9800.00
01077             160.00    -9800.00
01078             140.00   -10000.00
01079             140.00    -9800.00
01080             160.00   -10000.00
01081             180.00    -9800.00
01082             180.00    -9800.00
01083             160.00    -9800.00
01084             140.00    -9800.00
01085             140.00    -9600.00
01086             140.00    -9800.00
01087             160.00    -9800.00
01088             180.00    -9800.00
01089             180.00    -9800.00
01090             160.00    -9800.00
01091             160.00    -9600.00
01092             160.00    -9600.00
01093             160.00    -9400.00
01094             160.00    -9400.00
01095             160.00    -9400.00
01096             180.00    -9400.00
01097             160.00    -9400.00
01098             160.00    -9400.00
01099             160.00    -9200.00
01100             160.00    -9200.00
01101             180.00    -9200.00
01102             180.00    -9000.00
01103             160.00    -9000.00
01104             160.00    -8800.00
01105             160.00    -8600.00
01106             180.00    -8600.00
01107             180.00    -8600.00
01108             160.00    -8400.00
01109             160.00    -8400.00
01110             160.00    -8400.00
01111             180.00    -8200.00
01112             160.00    -8200.00
01113             140.00    -8200.00
01114             140.00    -7800.00
01115             160.00    -7600.00
01116             220.00    -7600.00
01117             160.00    -7600.00
01118             140.00    -7400.00
01119             140.00    -7000.00
01120             140.00    -7000.00
01121             160.00    -7000.00
01122             180.00    -6800.00
01123             160.00    -6800.00
01124             140.00    -6600.00
01125             100.00    -6400.00
01126             140.00    -6400.00
01127             160.00    -6200.00
01128             160.00    -6200.00
01129             160.00    -5800.00
01130             120.00    -5800.00
01131             100.00    -5600.00
01132              80.00    -5400.00
01133             100.00    -5200.00
01134             120.00    -5200.00
01135             160.00    -5000.00
01136             140.00    -4800.00
01137             100.00    -4600.00
01138             100.00    -4400.00
01139             100.00    -4400.00
01140             100.00    -4200.00
01141             100.00    -3800.00
01142             100.00    -3800.00
01143              80.00    -3600.00
01144              80.00    -3600.00
01145             100.00    -3400.00
01146             100.00    -3000.00
01147             100.00    -3000.00
01148              80.00    -2800.00
01149              60.00    -2600.00
01150              80.00    -2400.00
01151              80.00    -2200.00
01152              80.00    -2000.00
01153              80.00    -1800.00
01154              80.00    -1800.00
01155              60.00    -1400.00
01156              60.00    -1200.00
01157              60.00    -1200.00
01158              60.00     -800.00
01159              60.00     -600.00
01160              60.00     -600.00
01161              80.00     -400.00
01162              60.00     -200.00
01163              60.00        0.00
01164              60.00      200.00
01165              80.00      400.00
01166             160.00      600.00
01167             180.00      800.00
01168             160.00      600.00
01169             120.00     1000.00
01170              80.00     1200.00
01171              80.00     1400.00
01172             240.00     1400.00
01173             960.00     1800.00
01174            1100.00     2200.00
01175              60.00     2200.00
01176           -1120.00     2200.00
01177           -1720.00     2200.00
01178            -860.00     3000.00
01179             900.00     3000.00
01180             340.00     2600.00
01181              60.00     3400.00
01182             580.00     3000.00
01183            -160.00     3600.00
01184            -100.00     4200.00
01185              20.00     3400.00
01186            -140.00     4200.00
01187             400.00     4400.00
01188            -140.00     4000.00
01189            -260.00     5000.00
01190             100.00     4600.00
01191            -160.00     5000.00
01192              20.00     5200.00
01193               0.00     5000.00
01194               0.00     5800.00
01195            -100.00     5400.00
01196            -100.00     5600.00
01197             140.00     6000.00
01198            -160.00     5800.00
01199             -80.00     6200.00
01200             -20.00     6000.00
01201            -100.00     6600.00
01202            -100.00     6600.00
01203            -140.00     6600.00
01204             -40.00     7000.00
01205             -60.00     6600.00
01206               0.00     7000.00
01207            -100.00     7200.00
01208            -100.00     7400.00
01209            -120.00     7400.00
01210            -100.00     7600.00
01211             -60.00     7600.00
01212            -100.00     7600.00
01213            -100.00     8000.00
01214            -140.00     8000.00
01215            -120.00     8200.00
01216            -100.00     8200.00
01217             -80.00     8400.00
01218            -100.00     8400.00
01219            -160.00     8600.00
01220            -140.00     8600.00
01221            -100.00     8600.00
01222            -100.00     8800.00
01223            -140.00     9000.00
01224            -140.00     9000.00
01225            -160.00     9000.00
01226            -100.00     9200.00
01227             -80.00     9400.00
01228            -120.00     9200.00
01229            -160.00     9400.00
01230            -160.00     9400.00
01231            -160.00     9400.00
01232            -180.00     9400.00
01233            -140.00     9800.00
01234            -120.00     9400.00
01235            -100.00     9800.00
01236            -120.00     9800.00
01237            -140.00     9800.00
01238            -160.00     9800.00
01239            -180.00     9800.00
01240            -140.00    10000.00
01241            -140.00     9800.00
01242            -160.00     9800.00
01243            -140.00     9800.00
01244            -160.00    10000.00
01245            -160.00     9800.00
01246            -160.00    10000.00
01247            -160.00     9800.00
01248            -140.00    10000.00
01249            -160.00    10000.00
01250            -140.00     9800.00
01251            -160.00     9800.00
01252            -180.00     9800.00
01253            -180.00     9800.00
01254            -160.00     9800.00
01255            -160.00     9800.00
01256            -160.00     9800.00
01257            -160.00     9800.00
01258            -160.00     9800.00
01259            -180.00     9400.00
01260            -160.00     9800.00
01261            -160.00     9400.00
01262            -160.00     9600.00
01263            -180.00     9400.00
01264            -180.00     9400.00
01265            -200.00     9400.00
01266            -180.00     9200.00
01267            -160.00     9200.00
01268            -140.00     9000.00
01269            -140.00     9000.00
01270            -160.00     9000.00
01271            -180.00     8800.00
01272            -180.00     8800.00
01273            -160.00     8600.00
01274            -140.00     8600.00
01275            -160.00     8400.00
01276            -160.00     8400.00
01277            -180.00     8400.00
01278            -180.00     8200.00
01279            -180.00     8200.00
01280            -160.00     8000.00
01281            -180.00     7800.00
01282            -140.00     7800.00
01283            -140.00     7600.00
01284            -160.00     7600.00
01285            -180.00     7400.00
01286            -180.00     7400.00
01287            -160.00     7000.00
01288            -160.00     7000.00
01289            -160.00     6800.00
01290            -160.00     6800.00
01291            -160.00     6600.00
01292            -140.00     6600.00
01293            -140.00     6400.00
01294            -140.00     6200.00
01295            -140.00     6000.00
01296            -140.00     6000.00
01297            -140.00     5800.00
01298            -140.00     5600.00
01299            -140.00     5400.00
01300            -100.00     5400.00
01301            -120.00     5200.00
01302            -120.00     5000.00
01303            -140.00     4800.00
01304            -100.00     4600.00
01305            -100.00     4400.00
01306            -100.00     4400.00
01307            -100.00     4200.00
01308            -100.00     4000.00
01309            -100.00     3800.00
01310            -100.00     3600.00
01311            -100.00     3400.00
01312            -100.00     3400.00
01313             -80.00     3400.00
01314             -80.00     3000.00
01315             -80.00     2800.00
01316            -100.00     2600.00
01317            -100.00     2400.00
01318            -100.00     2200.00
01319             -80.00     2200.00
01320             -80.00     2000.00
01321             -60.00     1800.00
01322             -60.00     1400.00
01323             -80.00     1200.00
01324             -80.00     1200.00
01325             -60.00     1000.00
01326             -80.00      800.00
01327             -60.00      600.00
01328             -60.00      400.00
01329             -40.00      200.00
01330             -40.00        0.00
01331             -60.00     -200.00
01332             -20.00     -400.00
01333              60.00     -400.00
01334             100.00     -800.00
01335             100.00     -600.00
01336              60.00    -1000.00
01337               0.00    -1000.00
01338               0.00    -1200.00
01339              40.00    -1400.00
01340             300.00    -1600.00
01341             900.00    -2000.00
01342             780.00    -2400.00
01343            -160.00    -2400.00
01344            -960.00    -2800.00
01345           -1260.00    -2600.00
01346            -900.00    -2600.00
01347             460.00    -3000.00
01348             400.00    -3200.00
01349               0.00    -3000.00
01350             540.00    -3600.00
01351              80.00    -3400.00
01352               0.00    -3400.00
01353             220.00    -4200.00
01354            -100.00    -3800.00
01355             200.00    -4400.00
01356             220.00    -4400.00
01357            -160.00    -4600.00
01358            -120.00    -5000.00
01359               0.00    -4600.00
01360             140.00    -5200.00
01361              20.00    -5400.00
01362             140.00    -5400.00
01363              60.00    -5800.00
01364             -20.00    -5400.00
01365             180.00    -6000.00
01366              80.00    -5800.00
01367              20.00    -6200.00
01368             100.00    -6400.00
01369              80.00    -6200.00
01370              60.00    -6600.00
01371               0.00    -6800.00
01372             100.00    -6800.00
01373             160.00    -7000.00
01374             140.00    -7200.00
01375              80.00    -7400.00
01376             100.00    -7200.00
01377              80.00    -7600.00
01378             100.00    -7600.00
01379             120.00    -7800.00
01380             100.00    -7800.00
01381              80.00    -8000.00
01382             100.00    -8000.00
01383             140.00    -8200.00
01384             100.00    -8400.00
01385             120.00    -8400.00
01386             160.00    -8600.00
01387             100.00    -8600.00
01388             100.00    -8600.00
01389             160.00    -8800.00
01390             160.00    -9000.00
01391             120.00    -9000.00
01392             100.00    -9000.00
01393             100.00    -9000.00
01394             100.00    -9200.00
01395             140.00    -9400.00
01396             160.00    -9200.00
01397             160.00    -9400.00
01398             140.00    -9600.00
01399             140.00    -9400.00
01400             140.00    -9400.00
01401             140.00    -9600.00
01402             160.00    -9400.00
01403             160.00    -9800.00
01404             140.00    -9800.00
01405             100.00    -9800.00
01406             140.00    -9800.00
01407             140.00    -9800.00
01408             160.00   -10000.00
01409             180.00    -9800.00
01410             160.00    -9800.00
01411             160.00    -9800.00
01412             140.00    -9800.00
01413             140.00    -9800.00
01414             140.00    -9800.00
01415             160.00    -9800.00
01416             160.00    -9800.00
01417             160.00    -9800.00
01418             160.00    -9800.00
01419             160.00   -10000.00
01420             160.00    -9800.00
01421             160.00    -9800.00
01422             160.00    -9800.00
01423             160.00    -9800.00
01424             160.00    -9800.00
01425             160.00    -9600.00
01426             160.00    -9600.00
01427             160.00    -9400.00
01428             180.00    -9600.00
01429             160.00    -9400.00
01430             180.00    -9400.00
01431             160.00    -9400.00
01432             180.00    -9400.00
01433             160.00    -9200.00
01434             160.00    -9200.00
01435             180.00    -9200.00
01436             180.00    -9000.00
01437             180.00    -9000.00
01438             160.00    -9000.00
01439             160.00    -8800.00
01440             160.00    -8600.00
01441             160.00    -8600.00
01442             160.00    -8400.00
01443             180.00    -8400.00
01444             160.00    -8400.00
01445             160.00    -8200.00
01446             140.00    -8200.00
01447             160.00    -8200.00
01448             160.00    -7800.00
01449             160.00    -7800.00
01450             160.00    -7600.00
01451             140.00    -7400.00
01452             160.00    -7400.00
01453             160.00    -7200.00
01454             160.00    -7200.00
01455             160.00    -7000.00
01456             140.00    -7000.00
01457             140.00    -6800.00
01458             140.00    -6800.00
01459             140.00    -6400.00
01460             120.00    -6600.00
01461             140.00    -6200.00
01462             140.00    -6200.00
01463             140.00    -6000.00
01464             100.00    -5800.00
01465             140.00    -5800.00
01466             140.00    -5400.00
01467             140.00    -5400.00
01468             120.00    -5200.00
01469             100.00    -5000.00
01470             100.00    -5000.00
01471             100.00    -4600.00
01472             120.00    -4600.00
01473             140.00    -4400.00
01474             120.00    -4400.00
01475             100.00    -4200.00
01476              80.00    -3800.00
01477             100.00    -3800.00
01478              80.00    -3600.00
01479             100.00    -3400.00
01480              80.00    -3200.00
01481             100.00    -2800.00
01482              80.00    -2800.00
01483              80.00    -2600.00
01484              80.00    -2400.00
01485              80.00    -2200.00
01486              60.00    -2000.00
01487              80.00    -1800.00
01488             100.00    -1800.00
01489              80.00    -1800.00
01490              80.00    -1400.00
01491              60.00    -1200.00
01492              60.00    -1000.00
01493              60.00     -800.00
01494              40.00     -600.00
01495              60.00     -400.00
01496              80.00     -200.00
01497              60.00     -200.00
01498              60.00      200.00
01499              60.00      200.00
01500             100.00      600.00
01501             160.00      600.00
01502             220.00      600.00
01503             140.00     1000.00
01504             100.00     1000.00
01505              80.00     1200.00
01506             100.00     1400.00
01507             560.00     1800.00
01508            1200.00     2000.00
01509             640.00     2000.00
01510            -600.00     2200.00
01511           -1520.00     2200.00
01512           -1580.00     2600.00
01513             180.00     3200.00
01514             860.00     2800.00
01515             -60.00     3000.00
01516             460.00     3400.00
01517             260.00     3000.00
01518            -340.00     4200.00
01519             140.00     3600.00
01520            -180.00     3800.00
01521             160.00     4600.00
01522             300.00     4200.00
01523            -340.00     4400.00
01524               0.00     5000.00
01525            -100.00     4600.00
01526            -140.00     5200.00
01527              80.00     5000.00
01528             -20.00     5400.00
01529              60.00     5600.00
01530            -160.00     5400.00
01531              60.00     6000.00
01532               0.00     5800.00
01533            -180.00     6200.00
01534               0.00     6200.00
01535             -80.00     6200.00
01536             -20.00     6600.00
01537            -100.00     6600.00
01538             -80.00     6800.00
01539             -40.00     6800.00
01540             -60.00     7000.00
01541             -60.00     7200.00
01542            -100.00     7000.00
01543             -80.00     7400.00
01544            -140.00     7400.00
01545             -60.00     7800.00
01546            -100.00     7800.00
01547            -100.00     7800.00
01548            -140.00     8200.00
01549            -120.00     8200.00
01550             -80.00     8200.00
01551            -100.00     8200.00
01552             -80.00     8400.00
01553            -140.00     8600.00
01554            -100.00     8600.00
01555            -100.00     8800.00
01556            -100.00     8600.00
01557            -100.00     9000.00
01558            -140.00     9000.00
01559            -160.00     9200.00
01560            -160.00     9200.00
01561             -80.00     9200.00
01562            -100.00     9400.00
01563            -100.00     9200.00
01564            -140.00     9400.00
01565            -140.00     9400.00
01566            -160.00     9400.00
01567            -160.00     9600.00
01568            -140.00     9800.00
01569            -120.00     9800.00
01570            -120.00     9800.00
01571            -140.00     9800.00
01572            -160.00     9800.00
01573            -180.00     9800.00
01574            -160.00     9800.00
01575            -140.00    10000.00
01576            -160.00     9800.00
01577            -160.00    10000.00
01578            -160.00     9800.00
01579            -180.00    10000.00
01580            -160.00    10000.00
01581            -160.00    10000.00
01582            -140.00    10000.00
01583            -140.00    10000.00
01584            -160.00     9800.00
01585            -160.00     9800.00
01586            -180.00     9800.00
01587            -180.00     9800.00
01588            -160.00     9800.00
01589            -160.00     9800.00
01590            -160.00     9800.00
01591            -160.00     9600.00
01592            -180.00     9600.00
01593            -180.00     9800.00
01594            -180.00     9600.00
01595            -160.00     9400.00
01596            -160.00     9600.00
01597            -160.00     9400.00
01598            -160.00     9400.00
01599            -180.00     9400.00
01600            -180.00     9400.00
01601            -160.00     9200.00
01602            -160.00     9000.00
01603            -140.00     9000.00
01604            -160.00     9000.00
01605            -180.00     9000.00
01606            -160.00     8600.00
01607            -180.00     8600.00
01608            -160.00     8800.00
01609            -160.00     8400.00
01610            -160.00     8400.00
01611            -160.00     8200.00
01612            -160.00     8200.00
01613            -160.00     8200.00
01614            -160.00     8200.00
01615            -160.00     7800.00
01616            -160.00     7800.00
01617            -140.00     7600.00
01618            -160.00     7600.00
01619            -160.00     7400.00
01620            -160.00     7400.00
01621            -160.00     7000.00
01622            -140.00     7000.00
01623            -140.00     6800.00
01624            -160.00     6800.00
01625            -160.00     6600.00
01626            -140.00     6600.00
01627            -160.00     6600.00
01628            -140.00     6200.00
01629            -160.00     6200.00
01630            -140.00     6200.00
01631            -140.00     6000.00
01632            -140.00     5400.00
01633            -120.00     5600.00
01634            -140.00     5400.00
01635            -100.00     5200.00
01636            -100.00     5200.00
01637            -140.00     4600.00
01638            -140.00     4600.00
01639            -100.00     4400.00
01640            -100.00     4400.00
01641            -100.00     4200.00
01642            -100.00     4200.00
01643            -100.00     3800.00
01644            -100.00     3800.00
01645            -100.00     3600.00
01646            -100.00     3400.00
01647            -100.00     3200.00
01648            -100.00     3000.00
01649             -80.00     3000.00
01650            -100.00     2600.00
01651            -100.00     2400.00
01652            -100.00     2200.00
01653            -100.00     2200.00
01654             -80.00     2000.00
01655             -80.00     1800.00
01656             -80.00     1400.00
01657             -80.00     1400.00
01658             -80.00     1400.00
01659             -80.00     1000.00
01660             -80.00     1000.00
01661             -60.00      600.00
01662             -80.00      600.00
01663             -80.00      400.00
01664             -60.00      200.00
01665             -20.00      200.00
01666             -20.00     -400.00
01667              20.00     -400.00
01668             100.00     -400.00
01669             100.00     -800.00
01670              60.00     -800.00
01671              20.00    -1000.00
01672               0.00    -1200.00
01673              20.00    -1400.00
01674             120.00    -1400.00
01675             620.00    -1800.00
01676             980.00    -2200.00
01677             320.00    -2400.00
01678            -640.00    -2600.00
01679           -1120.00    -2800.00
01680           -1260.00    -2600.00
01681            -180.00    -2600.00
01682             700.00    -3400.00
01683              60.00    -3000.00
01684             320.00    -3200.00
01685             400.00    -3800.00
01686            -140.00    -3200.00
01687             220.00    -4000.00
01688               0.00    -4200.00
01689             -20.00    -4200.00
01690             340.00    -4600.00
01691             -20.00    -4400.00
01692            -160.00    -5000.00
01693             -60.00    -4800.00
01694              80.00    -5000.00
01695              60.00    -5400.00
01696              80.00    -5200.00
01697             140.00    -5600.00
01698             -20.00    -5600.00
01699              80.00    -5800.00
01700             160.00    -6000.00
01701               0.00    -5800.00
01702              80.00    -6400.00
01703             140.00    -6200.00
01704             120.00    -6400.00
01705              60.00    -6800.00
01706              20.00    -6800.00
01707             100.00    -7000.00
01708             100.00    -7200.00
01709             100.00    -7200.00
01710             100.00    -7400.00
01711             160.00    -7400.00
01712              80.00    -7600.00
01713              60.00    -7600.00
01714              80.00    -7800.00
01715             140.00    -8000.00
01716             140.00    -8000.00
01717             140.00    -8200.00
01718             100.00    -8200.00
01719              60.00    -8400.00
01720             140.00    -8600.00
01721             100.00    -8600.00
01722             140.00    -8600.00
01723             140.00    -8600.00
01724             140.00    -8800.00
01725             100.00    -9000.00
01726             100.00    -9000.00
01727             140.00    -9000.00
01728             100.00    -9200.00
01729             100.00    -9200.00
01730             140.00    -9200.00
01731             140.00    -9400.00
01732             140.00    -9400.00
01733             140.00    -9600.00
01734             140.00    -9400.00
01735             120.00    -9400.00
01736             120.00    -9400.00
01737             160.00    -9800.00
01738             160.00    -9800.00
01739             140.00    -9600.00
01740             160.00    -9800.00
01741             160.00    -9800.00
01742             160.00    -9800.00
01743             140.00    -9800.00
01744             160.00    -9800.00
01745             140.00    -9800.00
01746             140.00    -9800.00
01747             140.00    -9800.00
01748             160.00    -9800.00
01749             180.00    -9800.00
01750             180.00   -10000.00
01751             160.00    -9800.00
01752             160.00    -9800.00
01753             160.00    -9800.00
01754             160.00    -9800.00
01755             160.00    -9800.00
01756             180.00    -9800.00
01757             180.00    -9800.00
01758             160.00    -9600.00
01759             160.00    -9800.00
01760             160.00    -9600.00
01761             180.00    -9600.00
01762             180.00    -9600.00
01763             180.00    -9400.00
01764             160.00    -9400.00
01765             160.00    -9400.00
01766             160.00    -9400.00
01767             160.00    -9200.00
01768             180.00    -9200.00
01769             180.00    -9000.00
01770             200.00    -9200.00
01771             180.00    -9000.00
01772             160.00    -9000.00
01773             160.00    -8800.00
01774             160.00    -8800.00
01775             160.00    -8600.00
01776             180.00    -8400.00
01777             180.00    -8600.00
01778             160.00    -8400.00
01779             140.00    -8400.00
01780             160.00    -8200.00
01781             140.00    -8200.00
01782             180.00    -7800.00
01783             160.00    -7600.00
01784             160.00    -7800.00
01785             160.00    -7600.00
01786             140.00    -7600.00
01787             140.00    -7400.00
01788             140.00    -7200.00
01789             160.00    -7200.00
01790             160.00    -7000.00
01791             160.00    -6800.00
01792             160.00    -6800.00
01793             140.00    -6600.00
01794             100.00    -6400.00
01795             100.00    -6200.00
01796             140.00    -6200.00
01797             140.00    -6000.00
01798             140.00    -6000.00
01799             140.00    -5600.00
01800              80.00    -5600.00
01801              80.00    -5400.00
01802             100.00    -5200.00
01803             140.00    -5200.00
01804             160.00    -5000.00
01805             160.00    -4800.00
01806             160.00    -4600.00
01807             120.00    -4600.00
01808              80.00    -4400.00
01809              60.00    -4200.00
01810              60.00    -4000.00
01811              60.00    -3800.00
01812              80.00    -3600.00
01813              80.00    -3400.00
01814             100.00    -3400.00
01815             140.00    -3000.00
01816             140.00    -2800.00
01817             140.00    -2800.00
01818             120.00    -2600.00
01819              80.00    -2200.00
01820              20.00    -2200.00
01821              20.00    -2000.00
01822              20.00    -2000.00
01823              60.00    -1800.00
01824              80.00    -1400.00
01825             100.00    -1400.00
01826             140.00    -1000.00
01827             100.00     -800.00
01828              80.00     -600.00
01829              60.00     -600.00
01830              20.00     -400.00
01831               0.00     -200.00
01832              40.00        0.00
01833              60.00      200.00
01834              80.00      400.00
01835             160.00      400.00
01836             220.00      600.00
01837             160.00     1000.00
01838             140.00     1000.00
01839              80.00     1200.00
01840             100.00     1200.00
01841             260.00     1400.00
01842             960.00     2000.00
01843            1040.00     2000.00
01844               0.00     2200.00
01845           -1140.00     2200.00
01846           -1700.00     2200.00
01847            -780.00     2800.00
01848             960.00     3000.00
01849             320.00     2600.00
01850              80.00     3400.00
01851             540.00     3000.00
01852            -240.00     3600.00
01853            -140.00     4000.00
01854               0.00     3400.00
01855            -100.00     4200.00
01856             480.00     4400.00
01857            -100.00     4000.00
01858            -240.00     5000.00
01859              40.00     4400.00
01860            -260.00     4800.00
01861              20.00     5000.00
01862               0.00     5000.00
01863              40.00     5800.00
01864             -80.00     5400.00
01865            -100.00     5600.00
01866             100.00     5800.00
01867            -180.00     5800.00
01868             -60.00     6200.00
01869             -20.00     6000.00
01870             -80.00     6400.00
01871             -80.00     6600.00
01872            -140.00     6600.00
01873             -20.00     7000.00
01874             -60.00     6800.00
01875             -20.00     7000.00
01876            -100.00     7000.00
01877             -80.00     7400.00
01878             -80.00     7400.00
01879             -60.00     7600.00
01880             -60.00     7600.00
01881            -100.00     7800.00
01882            -100.00     8000.00
01883            -160.00     8000.00
01884            -100.00     8200.00
01885             -80.00     8400.00
01886             -60.00     8200.00
01887            -100.00     8400.00
01888            -140.00     8400.00
01889            -100.00     8600.00
01890            -100.00     8600.00
01891            -100.00     9000.00
01892            -100.00     9000.00
01893            -140.00     9000.00
01894            -180.00     9000.00
01895            -120.00     9200.00
01896            -100.00     9200.00
01897            -100.00     9200.00
01898            -120.00     9400.00
01899            -140.00     9400.00
01900            -160.00     9400.00
01901            -160.00     9400.00
01902            -140.00     9600.00
01903            -140.00     9600.00
01904            -140.00     9800.00
01905            -140.00     9600.00
01906            -160.00     9800.00
01907            -180.00     9800.00
01908            -160.00     9800.00
01909            -140.00     9800.00
01910            -140.00     9800.00
01911            -160.00    10000.00
01912            -140.00     9800.00
01913            -160.00     9800.00
01914            -160.00     9800.00
01915            -160.00     9800.00
01916            -180.00     9800.00
01917            -160.00     9800.00
01918            -160.00     9800.00
01919            -160.00     9800.00
01920            -160.00     9800.00
01921            -180.00     9800.00
01922            -180.00    10000.00
01923            -160.00     9800.00
01924            -160.00     9800.00
01925            -160.00     9800.00
01926            -160.00     9600.00
01927            -180.00     9800.00
01928            -160.00     9600.00
01929            -160.00     9400.00
01930            -160.00     9400.00
01931            -160.00     9400.00
01932            -160.00     9400.00
01933            -160.00     9400.00
01934            -180.00     9200.00
01935            -180.00     9200.00
01936            -160.00     9200.00
01937            -160.00     9200.00
01938            -180.00     9000.00
01939            -180.00     9000.00
01940            -180.00     8800.00
01941            -180.00     8600.00
01942            -160.00     8600.00
01943            -160.00     8600.00
01944            -140.00     8600.00
01945            -160.00     8400.00
01946            -160.00     8200.00
01947            -160.00     8200.00
01948            -160.00     8000.00
01949            -160.00     8000.00
01950            -160.00     7800.00
01951            -160.00     7800.00
01952            -160.00     7600.00
01953            -160.00     7600.00
01954            -160.00     7200.00
01955            -160.00     7200.00
01956            -140.00     7000.00
01957            -140.00     7000.00
01958            -160.00     6800.00
01959            -160.00     6800.00
01960            -160.00     6600.00
01961            -140.00     6400.00
01962            -140.00     6200.00
01963            -140.00     6200.00
01964            -120.00     6000.00
01965            -140.00     6000.00
01966            -160.00     5600.00
01967            -140.00     5800.00
01968            -140.00     5400.00
01969            -100.00     5400.00
01970            -100.00     5200.00
01971            -100.00     5000.00
01972            -140.00     5000.00
01973            -120.00     4600.00
01974            -140.00     4600.00
01975            -100.00     4400.00
01976            -100.00     4200.00
01977            -100.00     3800.00
01978            -100.00     3800.00
01979            -100.00     3800.00
01980            -100.00     3400.00
01981            -100.00     3400.00
01982            -100.00     3000.00
01983            -100.00     3000.00
01984             -80.00     2800.00
01985            -100.00     2600.00
01986            -100.00     2200.00
01987            -100.00     2200.00
01988            -100.00     2000.00
01989             -80.00     1800.00
01990             -80.00     1600.00
01991             -80.00     1400.00
01992             -80.00     1400.00
01993             -80.00     1200.00
01994             -80.00     1000.00
01995             -80.00      800.00
01996             -80.00      600.00
01997             -60.00      400.00
01998             -60.00      200.00
01999             -60.00        0.00
02000             -40.00     -200.00
02001             -20.00     -400.00
02002              60.00     -400.00
02003             100.00     -800.00
02004              60.00     -600.00
02005              40.00    -1000.00
02006               0.00    -1000.00
02007               0.00    -1200.00
02008              60.00    -1400.00
02009             320.00    -1600.00
02010             900.00    -1800.00
02011             760.00    -2200.00
02012            -220.00    -2600.00
02013            -960.00    -2600.00
02014           -1260.00    -2600.00
02015            -880.00    -2400.00
02016             500.00    -3000.00
02017             380.00    -3200.00
02018              60.00    -3000.00
02019             540.00    -3800.00
02020              60.00    -3400.00
02021              20.00    -3600.00
02022             220.00    -4200.00
02023            -140.00    -3800.00
02024             220.00    -4400.00
02025             220.00    -4400.00
02026            -160.00    -4600.00
02027            -100.00    -4800.00
02028               0.00    -4800.00
02029             100.00    -5200.00
02030              40.00    -5200.00
02031             140.00    -5400.00
02032              60.00    -5800.00
02033             -20.00    -5800.00
02034             180.00    -6000.00
02035              80.00    -6000.00
02036              40.00    -6200.00
02037             100.00    -6600.00
02038             100.00    -6400.00
02039              60.00    -6600.00
02040              20.00    -7000.00
02041             100.00    -6800.00
02042             140.00    -7000.00
02043             100.00    -7000.00
02044              80.00    -7400.00
02045             100.00    -7400.00
02046             100.00    -7600.00
02047             100.00    -7800.00
02048             100.00    -7600.00
02049              80.00    -7800.00
02050              60.00    -8000.00
02051             100.00    -8200.00
02052             140.00    -8200.00
02053             100.00    -8400.00
02054             120.00    -8400.00
02055             140.00    -8600.00
02056              80.00    -8600.00
02057             100.00    -8800.00
02058             140.00    -8800.00
02059             140.00    -8800.00
02060             140.00    -9000.00
02061             100.00    -9000.00
02062             100.00    -9200.00
02063             100.00    -9200.00
02064             160.00    -9200.00
02065             160.00    -9200.00
02066             140.00    -9400.00
02067             140.00    -9400.00
02068             140.00    -9400.00
02069             140.00    -9400.00
02070             120.00    -9800.00
02071             160.00    -9600.00
02072             180.00    -9600.00
02073             160.00    -9800.00
02074             140.00    -9800.00
02075             160.00    -9600.00
02076             140.00    -9800.00
02077             160.00    -9800.00
02078             160.00    -9800.00
02079             160.00    -9800.00
02080             140.00    -9800.00
02081             140.00    -9800.00
02082             160.00    -9800.00
02083             160.00   -10000.00
02084             160.00    -9800.00
02085             200.00    -9800.00
02086             160.00    -9800.00
02087             160.00    -9800.00
02088             160.00    -9800.00
02089             160.00    -9800.00
02090             180.00    -9800.00
02091             220.00    -9800.00
02092             200.00    -9800.00
02093             160.00    -9600.00
02094             160.00    -9600.00
02095             140.00    -9600.00
02096             160.00    -9600.00
02097             180.00    -9400.00
02098             180.00    -9400.00
02099             180.00    -9400.00
02100             180.00    -9400.00
02101             160.00    -9200.00
02102             160.00    -9400.00
02103             160.00    -9200.00
02104             160.00    -9000.00
02105             180.00    -9000.00
02106             180.00    -9000.00
02107             160.00    -8800.00
02108             160.00    -9000.00
02109             140.00    -8800.00
02110             160.00    -8600.00
02111             160.00    -8600.00
02112             160.00    -8400.00
02113             160.00    -8400.00
02114             140.00    -8400.00
02115             140.00    -8200.00
02116             140.00    -8000.00
02117             160.00    -8000.00
02118             140.00    -7600.00
02119             160.00    -7600.00
02120             160.00    -7600.00
02121             140.00    -7200.00
02122             160.00    -7200.00
02123             160.00    -7200.00
02124             140.00    -7000.00
02125             140.00    -7000.00
02126             120.00    -6800.00
02127             140.00    -6600.00
02128             120.00    -6600.00
02129             140.00    -6400.00
02130             140.00    -6200.00
02131             140.00    -6000.00
02132             160.00    -6000.00
02133             140.00    -5800.00
02134             140.00    -5600.00
02135             140.00    -5400.00
02136             100.00    -5400.00
02137             120.00    -5200.00
02138             140.00    -5200.00
02139             120.00    -5000.00
02140             140.00    -4600.00
02141             120.00    -4600.00
02142             100.00    -4400.00
02143             100.00    -4200.00
02144             100.00    -4000.00
02145             100.00    -3800.00
02146             100.00    -3600.00
02147             100.00    -3400.00
02148              80.00    -3400.00
02149             100.00    -3000.00
02150             100.00    -3000.00
02151              80.00    -2800.00
02152             100.00    -2600.00
02153             100.00    -2400.00
02154              80.00    -2400.00
02155              80.00    -2000.00
02156              80.00    -2000.00
02157              80.00    -1800.00
02158              80.00    -1600.00
02159              80.00    -1400.00
02160              60.00    -1200.00
02161              60.00    -1000.00
02162              40.00     -800.00
02163              60.00     -600.00
02164              60.00     -400.00
02165              60.00     -200.00
02166              60.00        0.00
02167              60.00      200.00
02168              80.00      400.00
02169             120.00      400.00
02170             180.00      600.00
02171             160.00     1000.00
02172             140.00     1000.00
02173              80.00     1000.00
02174              80.00     1200.00
02175             140.00     1400.00
02176             580.00     1800.00
02177            1200.00     2000.00
02178             620.00     2000.00
02179            -660.00     2200.00
02180           -1540.00     2200.00
02181           -1520.00     2600.00
02182             240.00     3000.00
02183             860.00     2800.00
02184             -80.00     3000.00
02185             480.00     3200.00
02186             220.00     3400.00
02187            -340.00     4200.00
02188             120.00     3600.00
02189            -160.00     3600.00
02190             220.00     4600.00
02191             260.00     3800.00
02192            -340.00     4400.00
02193               0.00     5000.00
02194            -100.00     4600.00
02195            -140.00     5200.00
02196              80.00     5000.00
02197               0.00     5600.00
02198              20.00     5600.00
02199            -180.00     5200.00
02200              60.00     6200.00
02201             -20.00     5800.00
02202            -160.00     6200.00
02203              20.00     6200.00
02204             -60.00     6200.00
02205             -60.00     6800.00
02206            -140.00     6400.00
02207             -80.00     7000.00
02208             -40.00     6800.00
02209             -20.00     6800.00
02210             -20.00     7400.00
02211            -100.00     7200.00
02212            -100.00     7600.00
02213            -100.00     7600.00
02214             -20.00     7800.00
02215            -100.00     7800.00
02216            -100.00     8000.00
02217            -100.00     8200.00
02218            -140.00     8000.00
02219            -100.00     8200.00
02220             -80.00     8400.00
02221             -80.00     8400.00
02222            -140.00     8400.00
02223            -100.00     8600.00
02224            -100.00     8600.00
02225            -100.00     8600.00
02226            -100.00     8800.00
02227            -140.00     9000.00
02228            -160.00     9000.00
02229            -140.00     9200.00
02230            -100.00     9200.00
02231            -120.00     9400.00
02232            -100.00     9400.00
02233            -120.00     9400.00
02234            -100.00     9400.00
02235            -160.00     9600.00
02236            -160.00     9400.00
02237            -140.00     9600.00
02238            -120.00     9600.00
02239            -100.00     9800.00
02240            -140.00     9800.00
02241            -180.00     9800.00
02242            -240.00     9800.00
02243            -180.00     9800.00
02244            -140.00     9800.00
02245            -140.00     9800.00
02246            -140.00     9800.00
02247            -160.00     9800.00
02248            -180.00     9800.00
02249            -180.00     9800.00
02250            -160.00     9800.00
02251            -140.00    10000.00
02252            -160.00     9800.00
02253            -160.00     9800.00
02254            -180.00     9800.00
02255            -200.00     9800.00
02256            -180.00     9800.00
02257            -160.00     9800.00
02258            -160.00     9800.00
02259            -160.00     9600.00
02260            -160.00     9800.00
02261            -160.00     9800.00
02262            -160.00     9800.00
02263            -180.00     9600.00
02264            -180.00     9400.00
02265            -180.00     9400.00
02266            -160.00     9400.00
02267            -160.00     9400.00
02268            -180.00     9400.00
02269            -180.00     9400.00
02270            -180.00     9200.00
02271            -160.00     9200.00
02272            -160.00     9000.00
02273            -160.00     9000.00
02274            -160.00     9000.00
02275            -180.00     8800.00
02276            -160.00     8800.00
02277            -160.00     8600.00
02278            -160.00     8600.00
02279            -160.00     8600.00
02280            -160.00     8400.00
02281            -160.00     8200.00
02282            -180.00     8200.00
02283            -160.00     8000.00
02284            -160.00     7800.00
02285            -160.00     7800.00
02286            -160.00     7800.00
02287            -140.00     7600.00
02288            -160.00     7600.00
02289            -140.00     7400.00
02290            -160.00     7400.00
02291            -160.00     7000.00
02292            -160.00     7000.00
02293            -160.00     6800.00
02294            -160.00     6600.00
02295            -140.00     6600.00
02296            -140.00     6600.00
02297            -140.00     6400.00
02298            -120.00     6000.00
02299            -140.00     6000.00
02300            -140.00     5800.00
02301            -140.00     5800.00
02302            -160.00     5600.00
02303            -120.00     5400.00
02304            -140.00     5200.00
02305            -100.00     5200.00
02306            -140.00     5000.00
02307            -140.00     5000.00
02308            -140.00     4600.00
02309            -140.00     4600.00
02310            -140.00     4200.00
02311            -100.00     4200.00
02312            -100.00     3800.00
02313            -100.00     3800.00
02314            -100.00     3600.00
02315            -120.00     3400.00
02316            -120.00     3200.00
02317            -100.00     3000.00
02318             -80.00     2800.00
02319             -80.00     2800.00
02320            -100.00     2400.00
02321            -120.00     2200.00
02322            -100.00     2200.00
02323             -80.00     2000.00
02324             -60.00     1800.00
02325             -60.00     1600.00
02326             -80.00     1400.00
02327            -100.00     1400.00
02328             -80.00     1000.00
02329             -80.00     1000.00
02330             -80.00      800.00
02331             -60.00      400.00
02332             -60.00      400.00
02333             -60.00      200.00
02334             -20.00        0.00
02335             -20.00     -400.00
02336              20.00     -400.00
02337             100.00     -400.00
02338             100.00     -600.00
02339              60.00    -1000.00
02340              40.00     -800.00
02341              20.00    -1200.00
02342              20.00    -1200.00
02343             160.00    -1400.00
02344             640.00    -1800.00
02345             960.00    -2200.00
02346             300.00    -2200.00
02347            -660.00    -2600.00
02348           -1120.00    -2600.00
02349           -1220.00    -2600.00
02350            -140.00    -2600.00
02351             660.00    -3400.00
02352              20.00    -3000.00
02353             340.00    -3400.00
02354             400.00    -3800.00
02355            -120.00    -3400.00
02356             220.00    -4200.00
02357               0.00    -4000.00
02358             -20.00    -4200.00
02359             340.00    -4400.00
02360             -20.00    -4400.00
02361            -160.00    -5000.00
02362             -60.00    -4600.00
02363              80.00    -5000.00
02364              60.00    -5400.00
02365              60.00    -5400.00
02366             140.00    -5600.00
02367             -40.00    -5400.00
02368             100.00    -6000.00
02369             160.00    -6000.00
02370               0.00    -6000.00
02371              60.00    -6400.00
02372             100.00    -6200.00
02373              80.00    -6600.00
02374              20.00    -6800.00
02375              20.00    -6800.00
02376             140.00    -7000.00
02377             140.00    -7000.00
02378              80.00    -7400.00
02379              80.00    -7200.00
02380             100.00    -7400.00
02381             100.00    -7600.00
02382             100.00    -7600.00
02383             100.00    -7800.00
02384              60.00    -7800.00
02385              80.00    -8200.00
02386             140.00    -8200.00
02387             140.00    -8400.00
02388             100.00    -8600.00
02389             140.00    -8600.00
02390             100.00    -8600.00
02391             100.00    -8600.00
02392             100.00    -8800.00
02393             140.00    -8600.00
02394             120.00    -9000.00
02395             140.00    -9000.00
02396             100.00    -9200.00
02397             100.00    -9200.00
02398             140.00    -9000.00
02399             160.00    -9200.00
02400             160.00    -9400.00
02401             140.00    -9400.00
02402             140.00    -9400.00
02403             140.00    -9400.00
02404             140.00    -9600.00
02405             140.00    -9600.00
02406             160.00    -9400.00
02407             160.00    -9800.00
02408             140.00    -9600.00
02409             140.00    -9600.00
02410             160.00    -9800.00
02411             140.00    -9800.00
02412             160.00    -9800.00
02413             180.00    -9800.00
02414             160.00   -10000.00
02415             140.00    -9800.00
02416             140.00    -9800.00
02417             160.00    -9800.00
02418             160.00    -9800.00
02419             180.00    -9800.00
02420             180.00   -10000.00
02421             180.00    -9800.00
02422             160.00    -9800.00
02423             160.00    -9800.00
02424             160.00    -9800.00
02425             160.00    -9800.00
02426             180.00    -9800.00
02427             180.00    -9800.00
02428             160.00    -9800.00
02429             180.00    -9600.00
02430             160.00    -9600.00
02431             160.00    -9400.00
02432             180.00    -9400.00
02433             180.00    -9400.00
02434             160.00    -9400.00
02435             160.00    -9400.00
02436             160.00    -9200.00
02437             160.00    -9000.00
02438             160.00    -9200.00
02439             180.00    -9000.00
02440             160.00    -9000.00
02441             180.00    -8800.00
02442             160.00    -9000.00
02443             160.00    -8800.00
02444             160.00    -8800.00
02445             160.00    -8600.00
02446             160.00    -8600.00
02447             160.00    -8400.00
02448             140.00    -8200.00
02449             140.00    -8200.00
02450             140.00    -8200.00
02451             160.00    -7800.00
02452             160.00    -8000.00
02453             160.00    -7800.00
02454             160.00    -7600.00
02455             140.00    -7600.00
02456             140.00    -7400.00
02457             140.00    -7200.00
02458             160.00    -7000.00
02459             160.00    -6800.00
02460             160.00    -6800.00
02461             140.00    -6800.00
02462             160.00    -6600.00
02463             100.00    -6600.00
02464             140.00    -6200.00
02465             140.00    -6000.00
02466             140.00    -6000.00
02467             140.00    -6000.00
02468             120.00    -5800.00
02469             100.00    -5400.00
02470             140.00    -5400.00
02471             140.00    -5200.00
02472             140.00    -5200.00
02473             140.00    -5000.00
02474             140.00    -4600.00
02475             100.00    -4600.00
02476             100.00    -4600.00
02477             100.00    -4400.00
02478             140.00    -4200.00
02479             140.00    -4000.00
02480             140.00    -3800.00
02481             100.00    -3600.00
02482              80.00    -3400.00
02483              80.00    -3200.00
02484             100.00    -3000.00
02485             100.00    -2800.00
02486             100.00    -2800.00
02487             100.00    -2600.00
02488              80.00    -2200.00
02489              80.00    -2200.00
02490              80.00    -2000.00
02491              60.00    -1800.00
02492              80.00    -1800.00
02493              80.00    -1400.00
02494              80.00    -1200.00
02495              60.00    -1200.00
02496              60.00     -800.00
02497              60.00     -600.00
02498              60.00     -400.00
02499              60.00     -400.00
02500              60.00     -200.00
02501              60.00     -200.00
02502              60.00      200.00
02503              80.00      400.00
02504             140.00      600.00
02505             160.00      600.00
02506             160.00     1000.00
02507             100.00     1000.00
02508              80.00     1200.00
02509              80.00     1200.00
02510             280.00     1600.00
02511             980.00     2000.00
02512            1020.00     2000.00
02513             -60.00     2200.00
02514           -1160.00     2200.00
02515           -1740.00     2000.00
02516            -720.00     3000.00
02517             940.00     3000.00
02518             240.00     2800.00
02519             100.00     3400.00
02520             560.00     3000.00
02521            -240.00     3800.00
02522             -80.00     4200.00
02523               0.00     3400.00
02524            -100.00     4400.00
02525             440.00     4200.00
02526            -180.00     4000.00
02527            -220.00     5000.00
02528              40.00     4600.00
02529            -240.00     5000.00
02530              60.00     5000.00
02531              20.00     5000.00
02532              40.00     5800.00
02533            -100.00     5400.00
02534            -100.00     5600.00
02535             100.00     6000.00
02536            -180.00     5800.00
02537             -20.00     6200.00
02538             -20.00     6000.00
02539             -60.00     6600.00
02540             -80.00     6600.00
02541            -140.00     6600.00
02542             -20.00     7000.00
02543             -60.00     6800.00
02544               0.00     7200.00
02545             -80.00     7000.00
02546            -100.00     7400.00
02547            -100.00     7400.00
02548             -80.00     7600.00
02549             -60.00     7800.00
02550            -100.00     7800.00
02551            -100.00     8200.00
02552            -140.00     8000.00
02553             -80.00     8400.00
02554             -80.00     8400.00
02555             -60.00     8400.00
02556            -100.00     8400.00
02557            -160.00     8600.00
02558            -100.00     8600.00
02559            -100.00     8800.00
02560             -80.00     8800.00
02561            -100.00     9000.00
02562            -140.00     9000.00
02563            -160.00     9000.00
02564            -140.00     9200.00
02565             -80.00     9200.00
02566            -100.00     9400.00
02567            -140.00     9200.00
02568            -140.00     9400.00
02569            -160.00     9400.00
02570            -160.00     9400.00
02571            -140.00     9600.00
02572            -140.00     9400.00
02573            -140.00     9800.00
02574            -140.00     9600.00
02575            -160.00     9800.00
02576            -180.00     9800.00
02577            -160.00     9800.00
02578            -140.00     9800.00
02579            -140.00     9800.00
02580            -160.00     9800.00
02581            -180.00     9800.00
02582            -160.00     9800.00
02583            -160.00    10000.00
02584            -160.00     9800.00
02585            -160.00    10000.00
02586            -140.00     9800.00
02587            -180.00     9800.00
02588            -160.00     9800.00
02589            -180.00     9800.00
02590            -180.00    10000.00
02591            -160.00     9800.00
02592            -160.00     9800.00
02593            -160.00     9800.00
02594            -160.00     9800.00
02595            -160.00     9800.00
02596            -180.00     9600.00
02597            -160.00     9400.00
02598            -160.00     9600.00
02599            -160.00     9400.00
02600            -160.00     9400.00
02601            -160.00     9400.00
02602            -180.00     9400.00
02603            -180.00     9400.00
02604            -160.00     9200.00
02605            -160.00     9400.00
02606            -140.00     9000.00
02607            -160.00     9200.00
02608            -160.00     9000.00
02609            -180.00     8600.00
02610            -160.00     8800.00
02611            -160.00     8800.00
02612            -140.00     8400.00
02613            -160.00     8600.00
02614            -180.00     8400.00
02615            -180.00     8200.00
02616            -180.00     8200.00
02617            -140.00     8200.00
02618            -140.00     7800.00
02619            -140.00     7800.00
02620            -160.00     7800.00
02621            -160.00     7600.00
02622            -180.00     7400.00
02623            -160.00     7400.00
02624            -160.00     7400.00
02625            -160.00     7200.00
02626            -140.00     7000.00
02627            -140.00     6800.00
02628            -140.00     6800.00
02629            -160.00     6600.00
02630            -140.00     6600.00
02631            -140.00     6200.00
02632            -160.00     6200.00
02633            -160.00     6000.00
02634            -140.00     6000.00
02635            -160.00     5800.00
02636            -160.00     5400.00
02637            -140.00     5400.00
02638            -100.00     5400.00
02639            -100.00     5200.00
02640            -100.00     5000.00
02641            -140.00     4800.00
02642            -140.00     4800.00
02643            -160.00     4400.00
02644            -120.00     4200.00
02645            -100.00     4200.00
02646            -100.00     3800.00
02647            -100.00     3800.00
02648             -80.00     3600.00
02649            -100.00     3400.00
02650            -100.00     3400.00
02651            -100.00     3200.00
02652            -100.00     3000.00
02653            -100.00     2800.00
02654            -100.00     2600.00
02655            -120.00     2400.00
02656            -100.00     2200.00
02657            -100.00     2000.00
02658             -80.00     1800.00
02659             -60.00     1800.00
02660             -60.00     1400.00
02661             -60.00     1200.00
02662             -60.00     1000.00
02663             -60.00     1000.00
02664             -60.00      600.00
02665             -80.00      600.00
02666             -60.00      400.00
02667             -60.00      200.00
02668             -20.00        0.00
02669             -20.00     -200.00
02670               0.00     -400.00
02671              80.00     -400.00
02672             100.00     -600.00
02673              80.00    -1000.00
02674              20.00     -800.00
02675               0.00    -1200.00
02676              20.00    -1200.00
02677              80.00    -1400.00
02678             360.00    -1600.00
02679             940.00    -2000.00
02680             720.00    -2200.00
02681            -220.00    -2600.00
02682            -960.00    -2600.00
02683           -1260.00    -2600.00
02684            -840.00    -2200.00
02685             520.00    -3000.00
02686             340.00    -3200.00
02687              60.00    -3000.00
02688             540.00    -3800.00
02689              20.00    -3400.00
02690              40.00    -3600.00
02691             220.00    -4200.00
02692            -120.00    -4000.00
02693             240.00    -4400.00
02694             220.00    -4400.00
02695            -180.00    -4600.00
02696            -140.00    -5000.00
02697             -20.00    -4600.00
02698             100.00    -5200.00
02699              20.00    -5200.00
02700             140.00    -5400.00
02701              40.00    -5800.00
02702               0.00    -5800.00
02703             180.00    -6000.00
02704              60.00    -6000.00
02705              40.00    -6200.00
02706              80.00    -6600.00
02707              80.00    -6400.00
02708              60.00    -6800.00
02709               0.00    -7000.00
02710             100.00    -6800.00
02711             140.00    -7000.00
02712             100.00    -7000.00
02713              80.00    -7400.00
02714             100.00    -7200.00
02715             100.00    -7600.00
02716             100.00    -7800.00
02717             140.00    -7800.00
02718              60.00    -7800.00
02719              60.00    -8200.00
02720             100.00    -8200.00
02721             140.00    -8200.00
02722             100.00    -8600.00
02723             140.00    -8400.00
02724             140.00    -8600.00
02725              80.00    -8600.00
02726             100.00    -8600.00
02727             140.00    -8600.00
02728             160.00    -8800.00
02729             100.00    -9000.00
02730             100.00    -9000.00
02731             140.00    -9200.00
02732             100.00    -9200.00
02733             160.00    -9200.00
02734             180.00    -9400.00
02735             160.00    -9400.00
02736             140.00    -9400.00
02737             140.00    -9400.00
02738             140.00    -9400.00
02739             140.00    -9400.00
02740             140.00    -9800.00
02741             160.00    -9600.00
02742             140.00    -9800.00
02743             160.00    -9800.00
02744             160.00    -9800.00
02745             160.00    -9800.00
02746             160.00    -9800.00
02747             180.00    -9800.00
02748             160.00    -9800.00
02749             140.00    -9800.00
02750             160.00    -9800.00
02751             140.00    -9800.00
02752             160.00   -10000.00
02753             180.00    -9800.00
02754             180.00    -9800.00
02755             180.00    -9800.00
02756             160.00    -9800.00
02757             140.00    -9800.00
02758             160.00    -9800.00
02759             160.00    -9800.00
02760             160.00    -9800.00
02761             180.00    -9800.00
02762             160.00    -9600.00
02763             160.00    -9800.00
02764             160.00    -9600.00
02765             160.00    -9600.00
02766             160.00    -9400.00
02767             180.00    -9600.00
02768             160.00    -9400.00
02769             160.00    -9400.00
02770             160.00    -9200.00
02771             160.00    -9200.00
02772             160.00    -9000.00
02773             180.00    -9200.00
02774             180.00    -9200.00
02775             160.00    -9000.00
02776             160.00    -8800.00
02777             140.00    -8800.00
02778             140.00    -8600.00
02779             140.00    -8600.00
02780             160.00    -8600.00
02781             180.00    -8400.00
02782             160.00    -8400.00
02783             160.00    -8200.00
02784             140.00    -8200.00
02785             160.00    -7800.00
02786             160.00    -8000.00
02787             160.00    -7800.00
02788             160.00    -7600.00
02789             160.00    -7600.00
02790             140.00    -7200.00
02791             140.00    -7200.00
02792             140.00    -7000.00
02793             140.00    -7000.00
02794             140.00    -6800.00
02795             160.00    -6800.00
02796             140.00    -6600.00
02797             160.00    -6400.00
02798             140.00    -6600.00
02799             140.00    -6200.00
02800             140.00    -6000.00
02801             140.00    -6000.00
02802             140.00    -5800.00
02803             140.00    -5600.00
02804             140.00    -5400.00
02805             140.00    -5400.00
02806             140.00    -5400.00
02807             140.00    -5000.00
02808             100.00    -5000.00
02809             100.00    -4600.00
02810             100.00    -4600.00
02811             100.00    -4400.00
02812             100.00    -4200.00
02813             140.00    -4000.00
02814             120.00    -3800.00
02815             120.00    -3600.00
02816             100.00    -3400.00
02817             100.00    -3400.00
02818             100.00    -3200.00
02819              80.00    -3000.00
02820             100.00    -2800.00
02821              80.00    -2800.00
02822              80.00    -2400.00
02823              60.00    -2200.00
02824              60.00    -2200.00
02825              80.00    -2000.00
02826             100.00    -1800.00
02827              80.00    -1800.00
02828              80.00    -1400.00
02829              60.00    -1200.00
02830              60.00    -1000.00
02831              60.00     -800.00
02832              60.00     -600.00
02833              60.00     -400.00
02834              60.00     -400.00
02835              60.00     -200.00
02836              60.00        0.00
02837              60.00      200.00
02838             100.00      600.00
02839             160.00      400.00
02840             160.00      800.00
02841             140.00      800.00
02842              80.00     1000.00
02843              80.00     1200.00
02844             140.00     1400.00
02845             620.00     1800.00
02846            1200.00     2000.00
02847             560.00     2000.00
02848            -720.00     2000.00
02849           -1540.00     2200.00
02850           -1500.00     2600.00
02851             320.00     3000.00
02852             820.00     3000.00
02853             -80.00     3000.00
02854             480.00     3200.00
02855             200.00     3200.00
02856            -320.00     4200.00
02857             120.00     3600.00
02858            -160.00     3800.00
02859             240.00     4600.00
02860             220.00     4000.00
02861            -380.00     4600.00
02862              20.00     5000.00
02863            -140.00     4600.00
02864            -100.00     5200.00
02865              80.00     5000.00
02866               0.00     5600.00
02867              20.00     5600.00
02868            -180.00     5400.00
02869              80.00     6000.00
02870             -20.00     5800.00
02871            -160.00     6000.00
02872              20.00     6200.00
02873             -80.00     6200.00
02874             -60.00     6600.00
02875            -140.00     6400.00
02876             -60.00     7000.00
02877             -20.00     6800.00
02878             -20.00     6800.00
02879             -20.00     7000.00
02880            -100.00     7400.00
02881            -100.00     7600.00
02882            -100.00     7400.00
02883             -60.00     7800.00
02884            -100.00     7800.00
02885            -100.00     8000.00
02886            -100.00     8200.00
02887            -100.00     8200.00
02888             -80.00     8200.00
02889             -80.00     8200.00
02890             -80.00     8400.00
02891            -160.00     8400.00
02892            -140.00     8600.00
02893            -100.00     8600.00
02894            -100.00     8600.00
02895            -100.00     9000.00
02896            -140.00     9000.00
02897            -160.00     9000.00
02898            -160.00     9200.00
02899             -80.00     9200.00
02900            -100.00     9200.00
02901            -100.00     9200.00
02902            -160.00     9400.00
02903            -160.00     9400.00
02904            -160.00     9400.00
02905            -160.00     9400.00
02906            -140.00     9600.00
02907            -140.00     9800.00
02908            -140.00     9800.00
02909            -140.00     9600.00
02910            -160.00     9800.00
02911            -180.00     9800.00
02912            -160.00     9800.00
02913            -140.00     9800.00
02914            -160.00     9800.00
02915            -160.00     9800.00
02916            -160.00     9800.00
02917            -180.00     9800.00
02918            -180.00     9800.00
02919            -160.00     9800.00
02920            -140.00     9800.00
02921            -140.00     9800.00
02922            -160.00    10000.00
02923            -160.00     9800.00
02924            -180.00     9800.00
02925            -180.00     9800.00
02926            -160.00     9800.00
02927            -160.00     9800.00
02928            -140.00     9800.00
02929            -160.00     9800.00
02930            -160.00     9600.00
02931            -160.00     9400.00
02932            -160.00     9600.00
02933            -160.00     9400.00
02934            -180.00     9400.00
02935            -160.00     9400.00
02936            -140.00     9400.00
02937            -140.00     9400.00
02938            -160.00     9400.00
02939            -180.00     9200.00
02940            -180.00     9200.00
02941            -160.00     9000.00
02942            -160.00     9000.00
02943            -140.00     8800.00
02944            -160.00     8600.00
02945            -160.00     8600.00
02946            -160.00     8600.00
02947            -160.00     8600.00
02948            -160.00     8400.00
02949            -160.00     8400.00
02950            -160.00     8400.00
02951            -160.00     8200.00
02952            -140.00     8000.00
02953            -140.00     7800.00
02954            -160.00     7800.00
02955            -160.00     7800.00
02956            -180.00     7600.00
02957            -180.00     7400.00
02958            -180.00     7400.00
02959            -160.00     7000.00
02960            -140.00     7000.00
02961            -140.00     7000.00
02962            -140.00     6800.00
02963            -160.00     6600.00
02964            -160.00     6600.00
02965            -160.00     6400.00
02966            -140.00     6200.00
02967            -140.00     6200.00
02968            -160.00     6000.00
02969            -160.00     5800.00
02970            -160.00     5800.00
02971            -160.00     5600.00
02972            -140.00     5400.00
02973            -100.00     5200.00
02974            -100.00     5000.00
02975            -140.00     5000.00
02976            -160.00     4600.00
02977            -160.00     4600.00
02978            -140.00     4600.00
02979            -120.00     4400.00
02980            -100.00     4200.00
02981            -100.00     3800.00
02982            -100.00     3800.00
02983            -100.00     3600.00
02984            -100.00     3400.00
02985            -100.00     3000.00
02986            -100.00     3000.00
02987            -100.00     3000.00
02988             -80.00     2600.00
02989            -100.00     2600.00
02990            -100.00     2400.00
02991            -100.00     2000.00
02992            -100.00     2000.00
02993             -80.00     1800.00
02994             -80.00     1600.00
02995             -80.00     1400.00
02996             -60.00     1200.00
02997             -60.00     1200.00
02998             -80.00     1000.00
02999             -60.00      600.00
03000             -80.00      600.00
03001             -20.00      400.00
03002             -40.00      200.00
03003             -20.00      200.00
03004             -20.00     -200.00
03005               0.00     -400.00
03006             100.00     -400.00
03007             120.00     -600.00
03008              80.00     -800.00
03009              20.00    -1000.00
03010               0.00    -1200.00
03011               0.00    -1200.00
03012             160.00    -1400.00
03013             660.00    -1800.00
03014             980.00    -2000.00
03015             240.00    -2400.00
03016            -700.00    -2600.00
03017           -1120.00    -2800.00
03018           -1220.00    -2600.00
03019             -80.00    -2600.00
03020             700.00    -3400.00
03021               0.00    -3000.00
03022             340.00    -3400.00
03023             360.00    -3800.00
03024            -140.00    -3400.00
03025             240.00    -4200.00
03026             -20.00    -4200.00
03027               0.00    -4200.00
03028             320.00    -4600.00
03029             -60.00    -4400.00
03030            -160.00    -5000.00
03031             -40.00    -4600.00
03032              60.00    -5000.00
03033              60.00    -5400.00
03034              80.00    -5200.00
03035             140.00    -5800.00
03036             -20.00    -5800.00
03037             100.00    -6000.00
03038             140.00    -6000.00
03039             -20.00    -6000.00
03040              80.00    -6600.00
03041             140.00    -6200.00
03042              80.00    -6600.00
03043              20.00    -6800.00
03044              20.00    -7000.00
03045             140.00    -7000.00
03046             140.00    -7000.00
03047              60.00    -7200.00
03048              80.00    -7400.00
03049             100.00    -7400.00
03050             100.00    -7600.00
03051             140.00    -7600.00
03052             100.00    -7800.00
03053              40.00    -8000.00
03054              60.00    -8200.00
03055             140.00    -8200.00
03056             160.00    -8200.00
03057             140.00    -8400.00
03058             160.00    -8400.00
03059             100.00    -8600.00
03060              60.00    -8600.00
03061             100.00    -8600.00
03062             140.00    -8800.00
03063             140.00    -9000.00
03064             160.00    -9200.00
03065             140.00    -9000.00
03066             140.00    -9000.00
03067             100.00    -9200.00
03068             160.00    -9200.00
03069             160.00    -9400.00
03070             140.00    -9400.00
03071             140.00    -9400.00
03072             120.00    -9400.00
03073             140.00    -9400.00
03074             160.00    -9600.00
03075             180.00    -9800.00
03076             180.00    -9800.00
03077             140.00    -9800.00
03078             140.00    -9800.00
03079             140.00    -9800.00
03080             160.00    -9600.00
03081             180.00    -9800.00
03082             160.00    -9800.00
03083             160.00    -9800.00
03084             140.00    -9800.00
03085             160.00    -9800.00
03086             160.00    -9800.00
03087             160.00    -9800.00
03088             180.00    -9800.00
03089             180.00    -9800.00
03090             160.00    -9800.00
03091             140.00    -9800.00
03092             160.00    -9800.00
03093             160.00    -9800.00
03094             160.00    -9800.00
03095             200.00    -9800.00
03096             180.00    -9800.00
03097             160.00    -9600.00
03098             160.00    -9400.00
03099             140.00    -9600.00
03100             160.00    -9400.00
03101             140.00    -9400.00
03102             180.00    -9400.00
03103             180.00    -9400.00
03104             180.00    -9400.00
03105             140.00    -9200.00
03106             160.00    -9200.00
03107             160.00    -9200.00
03108             180.00    -9200.00
03109             220.00    -9000.00
03110             160.00    -9000.00
03111             140.00    -9000.00
03112             100.00    -8600.00
03113             120.00    -8600.00
03114             160.00    -8600.00
03115             220.00    -8600.00
03116             220.00    -8400.00
03117             180.00    -8400.00
03118             140.00    -8200.00
03119             100.00    -7800.00
03120             140.00    -8000.00
03121             160.00    -7800.00
03122             180.00    -7600.00
03123             160.00    -7600.00
03124             160.00    -7200.00
03125             140.00    -7400.00
03126             160.00    -7200.00
03127             140.00    -7000.00
03128             160.00    -7000.00
03129             160.00    -6800.00
03130             160.00    -6600.00
03131             140.00    -6600.00
03132             160.00    -6400.00
03133             140.00    -6200.00
03134             100.00    -6200.00
03135             100.00    -6000.00
03136             140.00    -5800.00
03137             160.00    -5800.00
03138             140.00    -5400.00
03139             140.00    -5400.00
03140             140.00    -5200.00
03141             100.00    -5000.00
03142             120.00    -4800.00
03143             140.00    -4600.00
03144             120.00    -4600.00
03145             140.00    -4400.00
03146             100.00    -4400.00
03147             100.00    -4200.00
03148             100.00    -3800.00
03149             100.00    -3800.00
03150             100.00    -3600.00
03151             100.00    -3400.00
03152             100.00    -3200.00
03153              80.00    -3000.00
03154              80.00    -2800.00
03155              60.00    -2800.00
03156              80.00    -2600.00
03157              60.00    -2200.00
03158              60.00    -2200.00
03159              80.00    -2000.00
03160              80.00    -1800.00
03161              80.00    -1600.00
03162              60.00    -1400.00
03163              60.00    -1200.00
03164              60.00    -1000.00
03165              40.00     -800.00
03166              60.00     -800.00
03167              60.00     -600.00
03168              60.00     -400.00
03169              60.00     -200.00
03170              60.00        0.00
03171              60.00      200.00
03172              80.00      400.00
03173             160.00      600.00
03174             180.00      600.00
03175             160.00     1000.00
03176             120.00     1000.00
03177              80.00     1200.00
03178              80.00     1400.00
03179             260.00     1800.00
03180            1020.00     2000.00
03181            1020.00     2000.00
03182             -60.00     2200.00
03183           -1180.00     2200.00
03184           -1740.00     2200.00
03185            -680.00     3000.00
03186             960.00     3000.00
03187             220.00     2800.00
03188             140.00     3400.00
03189             560.00     3000.00
03190            -220.00     3800.00
03191             -60.00     4000.00
03192             -20.00     3600.00
03193            -100.00     4400.00
03194             420.00     4400.00
03195            -180.00     3800.00
03196            -180.00     5000.00
03197              20.00     4600.00
03198            -220.00     4800.00
03199              60.00     5200.00
03200               0.00     5000.00
03201              20.00     5800.00
03202            -120.00     5400.00
03203            -100.00     5800.00
03204             120.00     6000.00
03205            -160.00     5800.00
03206             -20.00     6200.00
03207             -20.00     6200.00
03208             -80.00     6600.00
03209            -100.00     6400.00
03210            -120.00     6600.00
03211             -20.00     7000.00
03212             -20.00     6800.00
03213             -20.00     7200.00
03214            -100.00     7000.00
03215            -100.00     7400.00
03216            -100.00     7400.00
03217             -80.00     7600.00
03218             -60.00     7800.00
03219            -100.00     7800.00
03220            -100.00     8000.00
03221            -140.00     8000.00
03222            -100.00     8200.00
03223            -100.00     8200.00
03224             -80.00     8400.00
03225            -140.00     8400.00
03226            -160.00     8400.00
03227            -100.00     8800.00
03228            -100.00     8600.00
03229            -100.00     9000.00
03230            -120.00     8800.00
03231            -160.00     9000.00
03232            -160.00     9000.00
03233            -140.00     9000.00
03234            -100.00     9400.00
03235            -100.00     9400.00
03236            -140.00     9400.00
03237            -160.00     9400.00
03238            -160.00     9400.00
03239            -180.00     9400.00
03240            -160.00     9600.00
03241            -140.00     9400.00
03242            -120.00     9600.00
03243            -100.00     9800.00
03244            -160.00     9800.00
03245            -180.00     9800.00
03246            -160.00     9800.00
03247            -140.00     9800.00
03248            -140.00    10000.00
03249            -160.00     9800.00
03250            -160.00    10000.00
03251            -160.00     9800.00
03252            -180.00    10000.00
03253            -160.00     9800.00
03254            -160.00    10000.00
03255            -140.00    10000.00
03256            -160.00     9800.00
03257            -140.00    10000.00
03258            -160.00     9800.00
03259            -180.00     9800.00
03260            -180.00     9800.00
03261            -160.00     9800.00
03262            -140.00     9800.00
03263            -140.00     9800.00
03264            -140.00     9800.00
03265            -140.00     9800.00
03266            -160.00     9400.00
03267            -160.00     9600.00
03268            -180.00     9400.00
03269            -160.00     9400.00
03270            -140.00     9600.00
03271            -140.00     9200.00
03272            -160.00     9400.00
03273            -160.00     9400.00
03274            -160.00     9200.00
03275            -140.00     9200.00
03276            -160.00     9000.00
03277            -160.00     9000.00
03278            -180.00     8800.00
03279            -220.00     8800.00
03280            -160.00     8600.00
03281            -160.00     8600.00
03282            -140.00     8400.00
03283            -140.00     8400.00
03284            -160.00     8200.00
03285            -160.00     8200.00
03286            -160.00     8200.00
03287            -180.00     8000.00
03288            -160.00     7800.00
03289            -160.00     7800.00
03290            -140.00     7600.00
03291            -160.00     7400.00
03292            -160.00     7400.00
03293            -180.00     7400.00
03294            -160.00     7200.00
03295            -160.00     7000.00
03296            -160.00     6800.00
03297            -140.00     6800.00
03298            -160.00     6600.00
03299            -160.00     6600.00
03300            -140.00     6400.00
03301            -140.00     6200.00
03302            -140.00     6000.00
03303            -140.00     5800.00
03304            -140.00     5800.00
03305            -160.00     5600.00
03306            -140.00     5400.00
03307            -140.00     5200.00
03308            -140.00     5200.00
03309            -140.00     5000.00
03310            -100.00     4600.00
03311            -100.00     4600.00
03312            -120.00     4400.00
03313            -100.00     4400.00
03314            -100.00     4200.00
03315            -120.00     4200.00
03316            -100.00     3800.00
03317            -100.00     3600.00
03318            -100.00     3400.00
03319            -100.00     3400.00
03320            -100.00     3000.00
03321            -100.00     3000.00
03322            -100.00     2800.00
03323             -80.00     2600.00
03324            -100.00     2400.00
03325            -100.00     2200.00
03326            -100.00     2200.00
03327             -80.00     1800.00
03328             -60.00     1800.00
03329             -60.00     1600.00
03330             -80.00     1400.00
03331             -60.00     1200.00
03332             -60.00     1000.00
03333             -80.00     1000.00
03334             -60.00      600.00
03335             -60.00      400.00
03336             -20.00      400.00
03337             -20.00      200.00
03338             -20.00      200.00
03339             -20.00     -200.00
03340              40.00     -400.00
03341             140.00     -600.00
03342             100.00     -800.00
03343              60.00    -1000.00
03344              20.00    -1200.00
03345               0.00    -1200.00
03346              20.00    -1400.00
03347             320.00    -1400.00
03348             940.00    -2000.00
03349             720.00    -2200.00
03350            -260.00    -2200.00
03351            -980.00    -2600.00
03352           -1280.00    -2600.00
03353            -800.00    -2400.00
03354             540.00    -3000.00
03355             340.00    -3200.00
03356             100.00    -3200.00
03357             540.00    -3800.00
03358             -20.00    -3400.00
03359              20.00    -3600.00
03360             180.00    -4200.00
03361            -100.00    -4000.00
03362             240.00    -4600.00
03363             180.00    -4400.00
03364            -180.00    -4800.00
03365            -100.00    -5000.00
03366              20.00    -4600.00
03367             100.00    -5200.00
03368              20.00    -5200.00
03369             100.00    -5400.00
03370              20.00    -5800.00
03371               0.00    -5800.00
03372             220.00    -6000.00
03373              60.00    -6000.00
03374              60.00    -6200.00
03375              80.00    -6400.00
03376              80.00    -6200.00
03377              60.00    -6800.00
03378              20.00    -6800.00
03379             100.00    -6800.00
03380             140.00    -7000.00
03381             100.00    -7200.00
03382              60.00    -7200.00
03383              80.00    -7200.00
03384             100.00    -7600.00
03385             100.00    -7600.00
03386             140.00    -7600.00
03387              80.00    -7800.00
03388              60.00    -8000.00
03389             100.00    -8200.00
03390             140.00    -8200.00
03391             100.00    -8400.00
03392             140.00    -8400.00
03393             160.00    -8600.00
03394             100.00    -8600.00
03395             100.00    -8600.00
03396             140.00    -8800.00
03397             140.00    -9000.00
03398             140.00    -9000.00
03399             140.00    -9000.00
03400             140.00    -9000.00
03401             140.00    -9200.00
03402             160.00    -9200.00
03403             180.00    -9400.00
03404             140.00    -9400.00
03405             140.00    -9400.00
03406             140.00    -9400.00
03407             140.00    -9400.00
03408             160.00    -9600.00
03409             160.00    -9600.00
03410             180.00    -9800.00
03411             140.00    -9600.00
03412             140.00    -9800.00
03413             140.00    -9800.00
03414             140.00    -9800.00
03415             160.00    -9800.00
03416             160.00    -9800.00
03417             180.00    -9800.00
03418             160.00    -9800.00
03419             140.00    -9800.00
03420             140.00    -9800.00
03421             160.00   -10000.00
03422             160.00    -9800.00
03423             180.00    -9800.00
03424             160.00    -9800.00
03425             160.00    -9800.00
03426             160.00    -9800.00
03427             160.00    -9800.00
03428             160.00    -9800.00
03429             160.00    -9800.00
03430             180.00    -9800.00
03431             160.00    -9600.00
03432             160.00    -9600.00
03433             160.00    -9600.00
03434             160.00    -9400.00
03435             160.00    -9400.00
03436             160.00    -9400.00
03437             180.00    -9400.00
03438             180.00    -9400.00
03439             160.00    -9200.00
03440             160.00    -9200.00
03441             160.00    -9200.00
03442             180.00    -9000.00
03443             180.00    -9000.00
03444             180.00    -9000.00
03445             160.00    -8800.00
03446             160.00    -8600.00
03447             160.00    -8600.00
03448             160.00    -8600.00
03449             160.00    -8600.00
03450             180.00    -8400.00
03451             160.00    -8200.00
03452             160.00    -8200.00
03453             160.00    -8000.00
03454             160.00    -7800.00
03455             160.00    -7800.00
03456             160.00    -7800.00
03457             160.00    -7600.00
03458             160.00    -7400.00
03459             140.00    -7200.00
03460             140.00    -7200.00
03461             140.00    -7000.00
03462             160.00    -6800.00
03463             160.00    -6800.00
03464             160.00    -6800.00
03465             160.00    -6600.00
03466             140.00    -6600.00
03467             140.00    -6200.00
03468             140.00    -6200.00
03469             140.00    -6000.00
03470             160.00    -6000.00
03471             140.00    -5800.00
03472             140.00    -5600.00
03473             100.00    -5600.00
03474             140.00    -5400.00
03475             140.00    -5000.00
03476             140.00    -5000.00
03477             140.00    -4800.00
03478             140.00    -4800.00
03479             100.00    -4600.00
03480             100.00    -4200.00
03481             100.00    -4200.00
03482             100.00    -4200.00
03483             100.00    -3800.00
03484             100.00    -3600.00
03485              80.00    -3600.00
03486              80.00    -3400.00
03487              80.00    -3200.00
03488              80.00    -3000.00
03489             100.00    -2800.00
03490             100.00    -2600.00
03491              80.00    -2400.00
03492              60.00    -2200.00
03493              60.00    -2200.00
03494              80.00    -2000.00
03495              80.00    -1800.00
03496              80.00    -1400.00
03497              80.00    -1400.00
03498              60.00    -1200.00
03499              60.00    -1000.00
03500              60.00     -800.00
03501              60.00     -600.00
03502              60.00     -400.00
03503              60.00     -400.00
03504              60.00        0.00
03505              60.00      200.00
03506              60.00      200.00
03507             120.00      600.00
03508             180.00      600.00
03509             160.00      800.00
03510             100.00     1000.00
03511             100.00     1200.00
03512              80.00     1200.00
03513             140.00     1400.00
03514             640.00     1800.00
03515            1200.00     2000.00
03516             540.00     2200.00
03517            -740.00     2200.00
03518           -1540.00     2200.00
03519           -1440.00     2600.00
03520             380.00     3000.00
03521             800.00     2800.00
03522             -60.00     3000.00
03523             540.00     3400.00
03524             160.00     3400.00
03525            -300.00     4200.00
03526             140.00     3600.00
03527            -180.00     3800.00
03528             300.00     4400.00
03529             220.00     4000.00
03530            -380.00     4600.00
03531              20.00     5000.00
03532            -140.00     4400.00
03533            -100.00     5200.00
03534              80.00     4800.00
03535               0.00     5400.00
03536              20.00     5600.00
03537            -180.00     5400.00
03538              80.00     6000.00
03539             -40.00     5800.00
03540            -140.00     6200.00
03541              20.00     6200.00
03542             -80.00     6200.00
03543             -60.00     6600.00
03544            -120.00     6600.00
03545             -60.00     7000.00
03546             -60.00     6800.00
03547             -20.00     6800.00
03548             -40.00     7200.00
03549            -100.00     7200.00
03550            -100.00     7600.00
03551            -120.00     7600.00
03552             -20.00     7800.00
03553            -100.00     7800.00
03554            -100.00     8000.00
03555            -140.00     8000.00
03556            -140.00     8200.00
03557             -80.00     8200.00
03558             -80.00     8200.00
03559             -80.00     8400.00
03560            -160.00     8400.00
03561            -140.00     8600.00
03562            -100.00     8600.00
03563            -100.00     9000.00
03564            -100.00     9000.00
03565            -140.00     9000.00
03566            -160.00     9200.00
03567            -140.00     9000.00
03568            -100.00     9400.00
03569            -140.00     9400.00
03570            -140.00     9400.00
03571            -160.00     9400.00
03572            -140.00     9600.00
03573            -160.00     9400.00
03574            -140.00     9600.00
03575            -100.00     9400.00
03576            -140.00     9600.00
03577            -160.00     9600.00
03578            -160.00     9800.00
03579            -160.00    10000.00
03580            -160.00     9800.00
03581            -140.00     9800.00
03582            -140.00    10000.00
03583            -180.00     9800.00
03584            -160.00    10000.00
03585            -100.00    10000.00
03586            -120.00     9800.00
03587            -160.00    10000.00
03588            -180.00     9800.00
03589            -180.00    10000.00
03590            -180.00    10000.00
03591            -160.00    10000.00
03592            -100.00    10000.00
03593            -160.00     9800.00
03594            -200.00     9800.00
03595            -160.00     9800.00
03596            -140.00     9800.00
03597            -140.00     9800.00
03598            -160.00     9600.00
03599            -180.00     9800.00
03600            -200.00     9600.00
03601            -180.00     9800.00
03602            -140.00     9600.00
03603            -120.00     9600.00
03604            -160.00     9400.00
03605            -160.00     9400.00
03606            -220.00     9400.00
03607            -220.00     9200.00
03608            -180.00     9200.00
03609            -140.00     9200.00
03610            -100.00     9000.00
03611            -140.00     9000.00
03612            -160.00     9000.00
03613            -180.00     8800.00
03614            -180.00     8600.00
03615            -160.00     8600.00
03616            -160.00     8600.00
03617            -160.00     8400.00
03618            -160.00     8400.00
03619            -160.00     8200.00
03620            -160.00     8200.00
03621            -180.00     8000.00
03622            -180.00     7800.00
03623            -160.00     7800.00
03624            -160.00     7600.00
03625            -140.00     7600.00
03626            -160.00     7400.00
03627            -160.00     7400.00
03628            -160.00     7400.00
03629            -160.00     7000.00
03630            -160.00     6800.00
03631            -140.00     6800.00
03632            -120.00     6600.00
03633            -160.00     6600.00
03634            -160.00     6400.00
03635            -180.00     6200.00
03636            -140.00     6200.00
03637            -100.00     6000.00
03638            -100.00     5800.00
03639            -100.00     5800.00
03640            -140.00     5400.00
03641            -140.00     5400.00
03642            -140.00     5200.00
03643            -140.00     5000.00
03644            -140.00     4800.00
03645            -100.00     4600.00
03646            -100.00     4600.00
03647            -100.00     4600.00
03648            -100.00     4200.00
03649            -100.00     4200.00
03650            -100.00     3800.00
03651            -100.00     3800.00
03652            -100.00     3600.00
03653             -80.00     3400.00
03654            -100.00     3200.00
03655            -100.00     3000.00
03656            -100.00     2800.00
03657            -100.00     2800.00
03658            -100.00     2200.00
03659             -80.00     2200.00
03660             -80.00     2000.00
03661             -60.00     2000.00
03662             -60.00     1800.00
03663             -80.00     1600.00
03664             -80.00     1400.00
03665             -80.00     1200.00
03666             -80.00     1000.00
03667             -60.00     1000.00
03668             -60.00      800.00
03669             -60.00      600.00
03670             -40.00      600.00
03671             -60.00      200.00
03672             -20.00      200.00
03673             -20.00     -200.00
03674              40.00     -400.00
03675             100.00     -600.00
03676             100.00     -600.00
03677              60.00    -1000.00
03678               0.00    -1200.00
03679               0.00    -1000.00
03680               0.00    -1400.00
03681             160.00    -1400.00
03682             700.00    -1800.00
03683             960.00    -2200.00
03684             220.00    -2200.00
03685            -720.00    -2600.00
03686           -1160.00    -2600.00
03687           -1220.00    -2400.00
03688             -60.00    -2600.00
03689             640.00    -3400.00
03690               0.00    -3000.00
03691             380.00    -3400.00
03692             340.00    -3800.00
03693            -100.00    -3400.00
03694             220.00    -4200.00
03695             -40.00    -4200.00
03696               0.00    -4400.00
03697             320.00    -4600.00
03698             -60.00    -4400.00
03699            -160.00    -5000.00
03700             -60.00    -4600.00
03701              80.00    -5000.00
03702              60.00    -5400.00
03703              80.00    -5200.00
03704             140.00    -5600.00
03705             -20.00    -5400.00
03706             120.00    -6000.00
03707             160.00    -6000.00
03708               0.00    -6000.00
03709              60.00    -6600.00
03710             100.00    -6200.00
03711              80.00    -6600.00
03712              20.00    -6800.00
03713              60.00    -6800.00
03714             160.00    -7000.00
03715             140.00    -7000.00
03716              80.00    -7400.00
03717              80.00    -7200.00
03718             100.00    -7400.00
03719              80.00    -7600.00
03720             100.00    -7600.00
03721             100.00    -7800.00
03722              60.00    -8000.00
03723              80.00    -8200.00
03724             140.00    -8200.00
03725             140.00    -8200.00
03726             140.00    -8400.00
03727             160.00    -8400.00
03728             120.00    -8600.00
03729              80.00    -8600.00
03730             120.00    -8600.00
03731             140.00    -8600.00
03732             140.00    -9000.00
03733             100.00    -9000.00
03734             120.00    -9000.00
03735             100.00    -9200.00
03736             140.00    -9200.00
03737             180.00    -9200.00
03738             160.00    -9200.00
03739             140.00    -9400.00
03740             120.00    -9400.00
03741             140.00    -9400.00
03742             140.00    -9600.00
03743             140.00    -9600.00
03744             160.00    -9600.00
03745             160.00    -9800.00
03746             120.00    -9800.00
03747             140.00    -9800.00
03748             140.00    -9800.00
03749             140.00    -9800.00
03750             160.00    -9800.00
03751             160.00    -9800.00
03752             160.00    -9800.00
03753             140.00   -10000.00
03754             140.00    -9800.00
03755             140.00    -9800.00
03756             140.00    -9800.00
03757             160.00   -10000.00
03758             180.00    -9800.00
03759             160.00   -10000.00
03760             160.00    -9800.00
03761             160.00    -9800.00
03762             160.00    -9800.00
03763             160.00    -9800.00
03764             220.00    -9800.00
03765             180.00    -9800.00
03766             160.00    -9600.00
03767             160.00    -9800.00
03768             160.00    -9600.00
03769             160.00    -9600.00
03770             180.00    -9400.00
03771             220.00    -9400.00
03772             180.00    -9400.00
03773             160.00    -9400.00
03774             140.00    -9200.00
03775             160.00    -9200.00
03776             160.00    -9200.00
03777             200.00    -9000.00
03778             200.00    -9000.00
03779             180.00    -9000.00
03780             160.00    -8600.00
03781             160.00    -8600.00
03782             160.00    -8600.00
03783             180.00    -8600.00
03784             160.00    -8600.00
03785             180.00    -8400.00
03786             160.00    -8200.00
03787             160.00    -8200.00
03788             140.00    -8200.00
03789             140.00    -8000.00
03790             160.00    -7800.00
03791             160.00    -7800.00
03792             160.00    -7600.00
03793             160.00    -7600.00
03794             140.00    -7200.00
03795             160.00    -7200.00
03796             160.00    -7200.00
03797             160.00    -6800.00
03798             160.00    -6800.00
03799             160.00    -6800.00
03800             140.00    -6600.00
03801             140.00    -6400.00
03802             140.00    -6400.00
03803             160.00    -6000.00
03804             140.00    -6000.00
03805             160.00    -5800.00
03806             140.00    -5800.00
03807             100.00    -5600.00
03808             120.00    -5400.00
03809             120.00    -5400.00
03810             140.00    -5000.00
03811             140.00    -5000.00
03812             120.00    -4800.00
03813             100.00    -4600.00
03814             100.00    -4600.00
03815             100.00    -4200.00
03816             140.00    -4000.00
03817             140.00    -3800.00
03818             100.00    -3800.00
03819             100.00    -3600.00
03820              80.00    -3400.00
03821              80.00    -3200.00
03822              80.00    -3000.00
03823              80.00    -3000.00
03824              80.00    -2600.00
03825             100.00    -2600.00
03826              80.00    -2400.00
03827              60.00    -2200.00
03828              80.00    -2200.00
03829              60.00    -2000.00
03830              80.00    -1600.00
03831              80.00    -1400.00
03832              80.00    -1200.00
03833              60.00    -1000.00
03834              60.00     -800.00
03835              60.00     -600.00
03836              60.00     -600.00
03837              60.00     -400.00
03838              60.00     -200.00
03839              60.00      200.00
03840              60.00      200.00
03841              80.00      400.00
03842             140.00      600.00
03843             180.00      800.00
03844             140.00     1000.00
03845             140.00     1000.00
03846              80.00     1200.00
03847              80.00     1400.00
03848             320.00     1600.00
03849            1040.00     2000.00
03850            1000.00     2000.00
03851            -140.00     2200.00
03852           -1200.00     2200.00
03853           -1720.00     2200.00
03854            -580.00     3000.00
03855             980.00     3000.00
03856             220.00     2800.00
03857             160.00     3400.00
03858             540.00     3000.00
03859            -260.00     3600.00
03860             -20.00     4000.00
03861             -20.00     3600.00
03862             -60.00     4400.00
03863             460.00     4200.00
03864            -220.00     4200.00
03865            -180.00     5200.00
03866              20.00     4600.00
03867            -240.00     5000.00
03868              80.00     5200.00
03869               0.00     5000.00
03870              40.00     5800.00
03871            -100.00     5200.00
03872             -80.00     5800.00
03873              80.00     6000.00
03874            -180.00     5800.00
03875             -20.00     6400.00
03876             -20.00     6200.00
03877             -80.00     6600.00
03878            -100.00     6600.00
03879            -140.00     6800.00
03880             -20.00     7000.00
03881             -60.00     6800.00
03882             -20.00     7000.00
03883            -100.00     7000.00
03884            -100.00     7400.00
03885            -120.00     7600.00
03886             -80.00     7600.00
03887             -60.00     7600.00
03888            -120.00     7800.00
03889            -100.00     8000.00
03890            -140.00     7800.00
03891             -80.00     8200.00
03892            -100.00     8200.00
03893             -60.00     8200.00
03894            -140.00     8400.00
03895            -160.00     8400.00
03896            -120.00     8800.00
03897            -120.00     8600.00
03898            -100.00     8800.00
03899            -140.00     9000.00
03900            -140.00     9000.00
03901            -160.00     9200.00
03902            -100.00     9200.00
03903            -100.00     9400.00
03904            -120.00     9400.00
03905            -140.00     9400.00
03906            -140.00     9400.00
03907            -160.00     9400.00
03908            -160.00     9400.00
03909            -160.00     9600.00
03910            -160.00     9600.00
03911            -100.00     9600.00
03912            -120.00     9800.00
03913            -160.00     9600.00
03914            -160.00     9800.00
03915            -160.00     9800.00
03916            -140.00     9800.00
03917            -160.00     9800.00
03918            -160.00     9800.00
03919            -160.00     9800.00
03920            -160.00     9800.00
03921            -160.00     9800.00
03922            -160.00     9800.00
03923            -160.00    10000.00
03924            -160.00    10000.00
03925            -160.00     9800.00
03926            -160.00    10000.00
03927            -160.00    10000.00
03928            -180.00     9800.00
03929            -160.00     9800.00
03930            -160.00     9800.00
03931            -160.00     9800.00
03932            -160.00     9800.00
03933            -160.00     9800.00
03934            -160.00     9800.00
03935            -180.00     9800.00
03936            -180.00     9400.00
03937            -180.00     9400.00
03938            -160.00     9400.00
03939            -140.00     9400.00
03940            -160.00     9400.00
03941            -180.00     9200.00
03942            -180.00     9200.00
03943            -160.00     9200.00
03944            -160.00     9000.00
03945            -160.00     9000.00
03946            -160.00     9000.00
03947            -180.00     8800.00
03948            -180.00     9000.00
03949            -160.00     8600.00
03950            -140.00     8600.00
03951            -160.00     8400.00
03952            -160.00     8400.00
03953            -180.00     8400.00
03954            -180.00     8200.00
03955            -160.00     8000.00
03956            -160.00     8000.00
03957            -140.00     7800.00
03958            -160.00     7800.00
03959            -160.00     7600.00
03960            -160.00     7400.00
03961            -160.00     7400.00
03962            -160.00     7000.00
03963            -140.00     7000.00
03964            -140.00     7000.00
03965            -140.00     6800.00
03966            -140.00     6800.00
03967            -160.00     6600.00
03968            -160.00     6400.00
03969            -140.00     6400.00
03970            -140.00     6200.00
03971            -140.00     6000.00
03972            -140.00     5800.00
03973            -140.00     5800.00
03974            -120.00     5600.00
03975            -140.00     5600.00
03976            -100.00     5200.00
03977            -100.00     5200.00
03978            -140.00     5000.00
03979            -100.00     4800.00
03980            -100.00     4600.00
03981            -140.00     4400.00
03982            -100.00     4400.00
03983            -100.00     4200.00
03984            -100.00     4000.00
03985            -100.00     3800.00
03986            -100.00     3600.00
03987            -100.00     3400.00
03988            -100.00     3400.00
03989            -100.00     3000.00
03990            -100.00     3000.00
03991            -100.00     2800.00
03992             -80.00     2600.00
03993            -100.00     2200.00
03994             -80.00     2200.00
03995             -60.00     2000.00
03996             -60.00     1800.00
03997             -80.00     1600.00
03998            -100.00     1400.00
03999             -80.00     1200.00
04000             -60.00     1200.00
04001             -60.00     1000.00
04002             -60.00      800.00
04003             -60.00      600.00
04004             -60.00      400.00
04005             -80.00      200.00
04006             -60.00        0.00
04007             -60.00     -200.00
04008               0.00     -400.00
04009              80.00     -400.00
04010             140.00     -800.00
04011              80.00     -800.00
04012              60.00    -1000.00
04013              20.00    -1200.00
04014               0.00    -1400.00
04015              20.00    -1400.00
04016             380.00    -1600.00
04017             940.00    -2000.00
04018             660.00    -2200.00
04019            -300.00    -2400.00
04020            -980.00    -2600.00
04021           -1280.00    -2600.00
04022            -740.00    -2400.00
04023             560.00    -3000.00
04024             300.00    -3200.00
04025              80.00    -3000.00
04026             540.00    -3800.00
04027               0.00    -3400.00
04028              60.00    -3600.00
04029             160.00    -4200.00
04030            -120.00    -4200.00
04031             260.00    -4600.00
04032             160.00    -4400.00
04033            -160.00    -4800.00
04034            -100.00    -5000.00
04035              20.00    -4800.00
04036             100.00    -5400.00
04037              20.00    -5200.00
04038             140.00    -5400.00
04039              20.00    -5600.00
04040              20.00    -5600.00
04041             220.00    -6000.00
04042              60.00    -6000.00
04043              60.00    -6200.00
04044             100.00    -6400.00
04045              80.00    -6400.00
04046              60.00    -6800.00
04047              20.00    -6800.00
04048             100.00    -7000.00
04049             160.00    -7000.00
04050             100.00    -7200.00
04051              80.00    -7400.00
04052             100.00    -7200.00
04053             100.00    -7600.00
04054             100.00    -7600.00
04055             140.00    -7800.00
04056              80.00    -7800.00
04057              60.00    -8000.00
04058             100.00    -8200.00
04059             140.00    -8200.00
04060             100.00    -8400.00
04061             140.00    -8400.00
04062             140.00    -8600.00
04063             100.00    -8600.00
04064             100.00    -8600.00
04065             160.00    -8800.00
04066             140.00    -9000.00
04067             100.00    -9000.00
04068             100.00    -9000.00
04069             100.00    -9200.00
04070             100.00    -9200.00
04071             140.00    -9200.00
04072             160.00    -9200.00
04073             160.00    -9400.00
04074             140.00    -9400.00
04075             140.00    -9400.00
04076             100.00    -9400.00
04077             120.00    -9400.00
04078             160.00    -9600.00
04079             200.00    -9800.00
04080             160.00    -9800.00
04081             140.00    -9800.00
04082             140.00    -9800.00
04083             140.00    -9800.00
04084             160.00   -10000.00
04085             160.00    -9800.00
04086             140.00    -9800.00
04087             140.00    -9800.00
04088             160.00    -9800.00
04089             200.00    -9800.00
04090             160.00    -9800.00
04091             140.00    -9800.00
04092             140.00    -9800.00
04093             140.00    -9800.00
04094             160.00    -9800.00
04095             180.00    -9800.00
04096             180.00    -9800.00
04097             160.00    -9800.00
04098             160.00    -9800.00
04099             180.00    -9600.00
04100             180.00    -9800.00
04101             200.00    -9800.00
04102             160.00    -9400.00
04103             160.00    -9400.00
04104             160.00    -9400.00
04105             160.00    -9400.00
04106             180.00    -9400.00
04107             180.00    -9200.00
04108             160.00    -9200.00
04109             160.00    -9200.00
04110             160.00    -9200.00
04111             180.00    -9200.00
04112             200.00    -9000.00
04113             180.00    -9000.00
04114             160.00    -9000.00
04115             160.00    -8600.00
04116             160.00    -8800.00
04117             160.00    -8600.00
04118             180.00    -8600.00
04119             180.00    -8600.00
04120             160.00    -8200.00
04121             160.00    -8200.00
04122             160.00    -8200.00
04123             160.00    -7800.00
04124             160.00    -7800.00
04125             180.00    -7800.00
04126             140.00    -7600.00
04127             160.00    -7400.00
04128             140.00    -7400.00
04129             160.00    -7200.00
04130             140.00    -7000.00
04131             140.00    -7000.00
04132             140.00    -7000.00
04133             160.00    -6800.00
04134             140.00    -6600.00
04135             140.00    -6600.00
04136             140.00    -6400.00
04137             140.00    -6200.00
04138             140.00    -6200.00
04139             140.00    -6000.00
04140             140.00    -5800.00
04141             100.00    -5600.00
04142             100.00    -5400.00
04143             120.00    -5400.00
04144             140.00    -5000.00
04145             100.00    -5200.00
04146             140.00    -5000.00
04147             100.00    -4600.00
04148             100.00    -4400.00
04149             100.00    -4400.00
04150             100.00    -4200.00
04151             120.00    -4200.00
04152             100.00    -3800.00
04153              80.00    -3600.00
04154              80.00    -3600.00
04155              80.00    -3400.00
04156              80.00    -3200.00
04157              80.00    -3000.00
04158             100.00    -2800.00
04159             100.00    -2600.00
04160             100.00    -2600.00
04161              80.00    -2200.00
04162              80.00    -2200.00
04163              80.00    -2000.00
04164              80.00    -1800.00
04165              80.00    -1400.00
04166              60.00    -1400.00
04167              60.00    -1200.00
04168              60.00     -800.00
04169              60.00    -1000.00
04170              60.00     -600.00
04171              60.00     -400.00
04172              60.00     -200.00
04173              60.00     -200.00
04174              60.00      200.00
04175              80.00      400.00
04176             140.00      600.00
04177             180.00      400.00
04178             160.00      800.00
04179             140.00      800.00
04180              80.00     1000.00
04181              80.00     1200.00
04182             140.00     1400.00
04183             680.00     1800.00
04184            1200.00     2000.00
04185             500.00     2200.00
04186            -760.00     2200.00
04187           -1580.00     2200.00
04188           -1400.00     2600.00
04189             460.00     3000.00
04190             760.00     2800.00
04191             -80.00     3200.00
04192             540.00     3400.00
04193             140.00     3400.00
04194            -300.00     4000.00
04195             100.00     3400.00
04196            -180.00     3800.00
04197             260.00     4600.00
04198             160.00     3800.00
04199            -360.00     4600.00
04200              40.00     4600.00
04201            -160.00     4600.00
04202            -100.00     5200.00
04203              80.00     4800.00
04204               0.00     5400.00
04205               0.00     5600.00
04206            -180.00     5400.00
04207              80.00     6200.00
04208             -60.00     5800.00
04209            -140.00     6200.00
04210               0.00     6200.00
04211            -100.00     6200.00
04212             -60.00     6600.00
04213            -140.00     6400.00
04214             -60.00     7000.00
04215             -60.00     6800.00
04216             -20.00     7000.00
04217             -60.00     7400.00
04218            -100.00     7000.00
04219            -100.00     7400.00
04220            -140.00     7600.00
04221             -60.00     7800.00
04222            -100.00     7800.00
04223            -100.00     7800.00
04224            -120.00     8000.00
04225            -100.00     8200.00
04226             -80.00     8200.00
04227             -60.00     8200.00
04228            -100.00     8400.00
04229            -180.00     8400.00
04230            -140.00     8600.00
04231            -100.00     8600.00
04232            -100.00     8600.00
04233            -100.00     8800.00
04234            -120.00     9000.00
04235            -160.00     9000.00
04236            -140.00     9200.00
04237            -100.00     9400.00
04238            -100.00     9400.00
04239            -120.00     9200.00
04240            -140.00     9400.00
04241            -160.00     9600.00
04242            -160.00     9400.00
04243            -160.00     9600.00
04244            -140.00     9800.00
04245            -140.00     9600.00
04246            -100.00     9800.00
04247            -140.00     9800.00
04248            -160.00     9800.00
04249            -180.00     9600.00
04250            -160.00     9800.00
04251            -100.00     9800.00
04252            -140.00     9800.00
04253            -160.00     9800.00
04254            -160.00    10000.00
04255            -160.00     9800.00
04256            -180.00     9800.00
04257            -160.00    10000.00
04258            -160.00     9800.00
04259            -160.00     9800.00
04260            -160.00    10000.00
04261            -160.00     9800.00
04262            -180.00     9800.00
04263            -200.00     9800.00
04264            -160.00     9800.00
04265            -160.00     9800.00
04266            -160.00     9800.00
04267            -180.00     9800.00
04268            -160.00     9800.00
04269            -180.00     9800.00
04270            -160.00     9600.00
04271            -160.00     9800.00
04272            -180.00     9600.00
04273            -160.00     9400.00
04274            -160.00     9400.00
04275            -180.00     9400.00
04276            -200.00     9200.00
04277            -160.00     9200.00
04278            -160.00     9200.00
04279            -160.00     9000.00
04280            -160.00     9000.00
04281            -180.00     9000.00
04282            -180.00     8800.00
04283            -160.00     8600.00
04284            -160.00     8600.00
04285            -160.00     8400.00
04286            -160.00     8400.00
04287            -160.00     8200.00
04288            -160.00     8200.00
04289            -160.00     8200.00
04290            -160.00     8200.00
04291            -160.00     8000.00
04292            -160.00     7800.00
04293            -160.00     7600.00
04294            -160.00     7400.00
04295            -180.00     7400.00
04296            -160.00     7400.00
04297            -160.00     7000.00
04298            -120.00     7000.00
04299            -160.00     6800.00
04300            -160.00     6800.00
04301            -160.00     6600.00
04302            -160.00     6600.00
04303            -160.00     6400.00
04304            -140.00     6400.00
04305            -140.00     6200.00
04306            -140.00     6000.00
04307            -100.00     6000.00
04308            -140.00     5600.00
04309            -140.00     5600.00
04310            -140.00     5400.00
04311            -100.00     5200.00
04312            -120.00     5000.00
04313            -140.00     4800.00
04314            -140.00     4600.00
04315            -120.00     4600.00
04316            -140.00     4400.00
04317            -100.00     4200.00
04318            -100.00     4200.00
04319            -100.00     3800.00
04320            -100.00     3800.00
04321            -100.00     3800.00
04322            -100.00     3400.00
04323            -100.00     3400.00
04324            -100.00     3200.00
04325             -80.00     3000.00
04326            -100.00     2600.00
04327            -100.00     2600.00
04328            -100.00     2200.00
04329            -100.00     2200.00
04330             -80.00     2000.00
04331             -80.00     1800.00
04332             -80.00     1800.00
04333             -80.00     1400.00
04334             -80.00     1200.00
04335             -60.00     1000.00
04336             -80.00     1000.00
04337             -80.00      600.00
04338             -80.00      400.00
04339             -60.00      200.00
04340             -40.00      200.00
04341             -60.00     -200.00
04342             -20.00     -200.00
04343              20.00     -400.00
04344             100.00     -600.00
04345              80.00     -800.00
04346              60.00    -1000.00
04347               0.00    -1200.00
04348               0.00    -1200.00
04349              20.00    -1400.00
04350             160.00    -1400.00
04351             700.00    -1800.00
04352             940.00    -2200.00
04353             180.00    -2200.00
04354            -740.00    -2400.00
04355           -1160.00    -2800.00
04356           -1200.00    -2600.00
04357               0.00    -2600.00
04358             640.00    -3400.00
04359               0.00    -3000.00
04360             380.00    -3400.00
04361             320.00    -3800.00
04362            -120.00    -3400.00
04363             240.00    -4200.00
04364             -60.00    -4000.00
04365              20.00    -4200.00
04366             320.00    -4600.00
04367             -60.00    -4400.00
04368            -160.00    -5000.00
04369             -40.00    -4600.00
04370             100.00    -5000.00
04371              60.00    -5400.00
04372              60.00    -5200.00
04373             140.00    -5800.00
04374             -40.00    -5400.00
04375             140.00    -6000.00
04376             160.00    -6000.00
04377               0.00    -6000.00
04378              80.00    -6600.00
04379             140.00    -6200.00
04380              80.00    -6600.00
04381               0.00    -6800.00
04382              60.00    -6800.00
04383             140.00    -7000.00
04384             120.00    -7000.00
04385              80.00    -7400.00
04386             100.00    -7200.00
04387             100.00    -7600.00
04388             100.00    -7600.00
04389             100.00    -7600.00
04390             100.00    -7800.00
04391              60.00    -8000.00
04392              80.00    -8200.00
04393             140.00    -8200.00
04394             100.00    -8400.00
04395             100.00    -8400.00
04396             160.00    -8600.00
04397             120.00    -8600.00
04398             100.00    -8600.00
04399             100.00    -8800.00
04400             140.00    -9000.00
04401             140.00    -9000.00
04402             140.00    -9000.00
04403             100.00    -9000.00
04404             100.00    -9200.00
04405             140.00    -9200.00
04406             160.00    -9200.00
04407             160.00    -9200.00
04408             140.00    -9400.00
04409             140.00    -9400.00
04410             140.00    -9400.00
04411             100.00    -9600.00
04412             160.00    -9600.00
04413             180.00    -9800.00
04414             160.00    -9800.00
04415             120.00    -9600.00
04416             120.00    -9800.00
04417             100.00    -9800.00
04418             160.00    -9800.00
04419             220.00    -9800.00
04420             180.00    -9800.00
04421             160.00    -9800.00
04422             140.00   -10000.00
04423             140.00    -9800.00
04424             140.00    -9800.00
04425             160.00    -9800.00
04426             160.00    -9800.00
04427             180.00    -9800.00
04428             180.00    -9800.00
04429             180.00    -9800.00
04430             160.00    -9800.00
04431             160.00    -9800.00
04432             160.00    -9800.00
04433             180.00    -9800.00
04434             180.00    -9800.00
04435             160.00    -9800.00
04436             160.00    -9600.00
04437             140.00    -9400.00
04438             160.00    -9400.00
04439             180.00    -9400.00
04440             220.00    -9400.00
04441             220.00    -9400.00
04442             180.00    -9200.00
04443             160.00    -9200.00
04444             160.00    -9200.00
04445             160.00    -9200.00
04446             160.00    -9000.00
04447             180.00    -9000.00
04448             160.00    -9000.00
04449             160.00    -8800.00
04450             160.00    -8600.00
04451             160.00    -8600.00
04452             180.00    -8600.00
04453             180.00    -8600.00
04454             160.00    -8400.00
04455             160.00    -8400.00
04456             160.00    -8200.00
04457             160.00    -8200.00
04458             160.00    -8000.00
04459             160.00    -7800.00
04460             180.00    -7800.00
04461             140.00    -7600.00
04462             140.00    -7400.00
04463             140.00    -7200.00
04464             160.00    -7200.00
04465             160.00    -7000.00
04466             140.00    -6800.00
04467             140.00    -6800.00
04468             140.00    -6600.00
04469             100.00    -6600.00
04470              60.00    -6600.00
04471              80.00    -6400.00
04472             180.00    -6000.00
04473             200.00    -6200.00
04474             220.00    -5800.00
04475             160.00    -5800.00
04476             140.00    -5600.00
04477              60.00    -5400.00
04478               0.00    -5400.00
04479              60.00    -5000.00
04480             100.00    -5000.00
04481             160.00    -4800.00
04482             140.00    -4600.00
04483             140.00    -4600.00
04484             140.00    -4200.00
04485             140.00    -4200.00
04486             100.00    -3800.00
04487             100.00    -3600.00
04488             100.00    -3600.00
04489              60.00    -3400.00
04490              60.00    -3200.00
04491              60.00    -3000.00
04492             100.00    -2800.00
04493             120.00    -2800.00
04494             140.00    -2600.00
04495             140.00    -2200.00
04496             100.00    -2200.00
04497              80.00    -2000.00
04498              60.00    -1800.00
04499              20.00    -1800.00
04500              20.00    -1400.00
04501              20.00    -1400.00
04502              60.00    -1200.00
04503             100.00     -800.00
04504             100.00     -600.00
04505             120.00     -400.00
04506              80.00     -400.00
04507              60.00     -200.00
04508              40.00      200.00
04509              40.00      200.00
04510              60.00      400.00
04511             140.00      600.00
04512             160.00      800.00
04513             180.00      800.00
04514             160.00     1000.00
04515             100.00     1200.00
04516             100.00     1400.00
04517             320.00     1600.00
04518            1040.00     2000.00
04519             960.00     2200.00
04520            -180.00     2200.00
04521           -1260.00     2200.00
04522           -1720.00     2400.00
04523            -520.00     3000.00
04524             980.00     3000.00
04525             160.00     2800.00
04526             180.00     3400.00
04527             540.00     3000.00
04528            -300.00     3800.00
04529             -20.00     4000.00
04530             -60.00     3400.00
04531             -60.00     4400.00
04532             420.00     4200.00
04533            -220.00     4000.00
04534            -160.00     5000.00
04535              20.00     4600.00
04536            -220.00     5000.00
04537              80.00     5000.00
04538               0.00     5000.00
04539              40.00     5800.00
04540            -140.00     5200.00
04541             -80.00     5800.00
04542             100.00     6000.00
04543            -160.00     5800.00
04544             -20.00     6200.00
04545             -20.00     6000.00
04546             -60.00     6600.00
04547            -100.00     6600.00
04548            -140.00     6600.00
04549             -60.00     7000.00
04550             -60.00     6800.00
04551             -20.00     7400.00
04552            -100.00     7200.00
04553             -80.00     7400.00
04554            -120.00     7400.00
04555             -60.00     7600.00
04556             -80.00     7800.00
04557            -100.00     7800.00
04558             -80.00     8000.00
04559            -140.00     8200.00
04560            -100.00     8200.00
04561             -80.00     8400.00
04562             -60.00     8400.00
04563            -120.00     8600.00
04564            -160.00     8400.00
04565            -100.00     8600.00
04566            -100.00     8800.00
04567            -100.00     9000.00
04568            -120.00     9000.00
04569            -140.00     9000.00
04570            -180.00     9200.00
04571            -100.00     9200.00
04572            -100.00     9200.00
04573            -100.00     9200.00
04574            -120.00     9400.00
04575            -140.00     9400.00
04576            -140.00     9400.00
04577            -160.00     9400.00
04578            -140.00     9600.00
04579            -140.00     9600.00
04580            -120.00     9800.00
04581            -140.00     9800.00
04582            -140.00     9800.00
04583            -180.00     9800.00
04584            -160.00     9800.00
04585            -160.00     9800.00
04586            -140.00     9800.00
04587            -160.00     9800.00
04588            -160.00     9800.00
04589            -160.00    10000.00
04590            -180.00     9800.00
04591            -160.00     9800.00
04592            -160.00     9800.00
04593            -160.00     9800.00
04594            -160.00     9800.00
04595            -160.00     9800.00
04596            -160.00    10000.00
04597            -180.00     9800.00
04598            -180.00     9600.00
04599            -160.00     9800.00
04600            -180.00     9800.00
04601            -160.00     9600.00
04602            -180.00     9800.00
04603            -180.00     9600.00
04604            -180.00     9600.00
04605            -160.00     9400.00
04606            -160.00     9400.00
04607            -160.00     9400.00
04608            -180.00     9400.00
04609            -180.00     9400.00
04610            -180.00     9200.00
04611            -180.00     9200.00
04612            -160.00     9200.00
04613            -140.00     9000.00
04614            -140.00     9000.00
04615            -180.00     9000.00
04616            -160.00     8800.00
04617            -160.00     8600.00
04618            -160.00     8600.00
04619            -160.00     8600.00
04620            -160.00     8400.00
04621            -180.00     8400.00
04622            -180.00     8200.00
04623            -160.00     8200.00
04624            -160.00     8200.00
04625            -140.00     8000.00
04626            -140.00     8000.00
04627            -160.00     7800.00
04628            -160.00     7600.00
04629            -160.00     7400.00
04630            -160.00     7400.00
04631            -160.00     7200.00
04632            -140.00     7000.00
04633            -140.00     7000.00
04634            -160.00     6800.00
04635            -160.00     6800.00
04636            -160.00     6600.00
04637            -140.00     6600.00
04638            -160.00     6200.00
04639            -140.00     6200.00
04640            -140.00     6000.00
04641            -140.00     6000.00
04642            -140.00     5800.00
04643            -140.00     5600.00
04644            -140.00     5400.00
04645            -140.00     5400.00
04646            -100.00     5000.00
04647            -100.00     5000.00
04648            -100.00     5000.00
04649            -120.00     4600.00
04650            -140.00     4600.00
04651            -100.00     4400.00
04652            -100.00     4000.00
04653            -100.00     4200.00
04654            -100.00     3600.00
04655            -140.00     3800.00
04656            -100.00     3400.00
04657            -100.00     3400.00
04658            -100.00     3000.00
04659             -80.00     3000.00
04660            -100.00     2800.00
04661            -100.00     2600.00
04662            -100.00     2400.00
04663            -100.00     2000.00
04664             -80.00     2000.00
04665             -80.00     1800.00
04666             -80.00     1800.00
04667             -80.00     1600.00
04668             -80.00     1400.00
04669             -60.00     1200.00
04670             -80.00     1000.00
04671             -80.00      600.00
04672             -60.00      600.00
04673             -60.00      400.00
04674             -60.00      200.00
04675             -20.00      200.00
04676             -20.00     -200.00
04677               0.00     -400.00
04678              80.00     -400.00
04679             100.00     -600.00
04680              80.00    -1000.00
04681              20.00    -1000.00
04682              20.00    -1200.00
04683               0.00    -1200.00
04684              60.00    -1600.00
04685             380.00    -1400.00
04686             960.00    -2000.00
04687             640.00    -2400.00
04688            -320.00    -2400.00
04689            -980.00    -2600.00
04690           -1260.00    -2600.00
04691            -700.00    -2600.00
04692             580.00    -3000.00
04693             260.00    -3200.00
04694             100.00    -3000.00
04695             540.00    -3800.00
04696               0.00    -3400.00
04697              80.00    -3600.00
04698             180.00    -4200.00
04699            -100.00    -4000.00
04700             280.00    -4400.00
04701             160.00    -4400.00
04702            -180.00    -4600.00
04703            -100.00    -5000.00
04704               0.00    -4800.00
04705             100.00    -5400.00
04706              20.00    -5200.00
04707             140.00    -5400.00
04708              20.00    -5800.00
04709              20.00    -5800.00
04710             180.00    -6000.00
04711              20.00    -6000.00
04712              60.00    -6400.00
04713             100.00    -6600.00
04714             100.00    -6600.00
04715              60.00    -6800.00
04716               0.00    -6800.00
04717             100.00    -7000.00
04718             140.00    -7000.00
04719             100.00    -7200.00
04720              80.00    -7400.00
04721             100.00    -7400.00
04722              80.00    -7600.00
04723             100.00    -7600.00
04724             100.00    -7800.00
04725              80.00    -7800.00
04726              80.00    -8200.00
04727             140.00    -8200.00
04728             140.00    -8200.00
04729             100.00    -8400.00
04730             140.00    -8600.00
04731             140.00    -8400.00
04732              60.00    -8600.00
04733              80.00    -8800.00
04734             140.00    -8800.00
04735             140.00    -9000.00
04736             100.00    -9000.00
04737             120.00    -9000.00
04738             140.00    -9200.00
04739             140.00    -9200.00
04740             160.00    -9200.00
04741             160.00    -9400.00
04742             140.00    -9400.00
04743             120.00    -9400.00
04744             100.00    -9400.00
04745             140.00    -9400.00
04746             140.00    -9800.00
04747             160.00    -9400.00
04748             160.00    -9800.00
04749             140.00    -9800.00
04750             140.00    -9600.00
04751             140.00    -9800.00
04752             140.00    -9800.00
04753             160.00    -9800.00
04754             180.00    -9800.00
04755             160.00    -9800.00
04756             160.00    -9800.00
04757             160.00    -9800.00
04758             160.00    -9800.00
04759             160.00    -9800.00
04760             180.00    -9800.00
04761             180.00    -9800.00
04762             180.00    -9800.00
04763             160.00    -9800.00
04764             160.00    -9800.00
04765             140.00    -9800.00
04766             140.00    -9800.00
04767             180.00    -9600.00
04768             180.00    -9800.00
04769             180.00    -9600.00
04770             160.00    -9800.00
04771             160.00    -9800.00
04772             160.00    -9600.00
04773             180.00    -9400.00
04774             200.00    -9400.00
04775             180.00    -9400.00
04776             160.00    -9200.00
04777             160.00    -9200.00
04778             140.00    -9200.00
04779             160.00    -9200.00
04780             160.00    -9000.00
04781             180.00    -9000.00
04782             180.00    -9000.00
04783             160.00    -9000.00
04784             160.00    -8800.00
04785             160.00    -8600.00
04786             160.00    -8600.00
04787             160.00    -8600.00
04788             160.00    -8600.00
04789             160.00    -8400.00
04790             140.00    -8400.00
04791             160.00    -8200.00
04792             160.00    -8200.00
04793             160.00    -7800.00
04794             160.00    -7800.00
04795             160.00    -7600.00
04796             140.00    -7600.00
04797             140.00    -7400.00
04798             140.00    -7200.00
04799             140.00    -7000.00
04800             160.00    -7000.00
04801             160.00    -7000.00
04802             160.00    -6800.00
04803             140.00    -6600.00
04804             100.00    -6600.00
04805             100.00    -6400.00
04806             140.00    -6200.00
04807             140.00    -6000.00
04808             140.00    -6000.00
04809             120.00    -5800.00
04810             100.00    -5600.00
04811             100.00    -5400.00
04812             140.00    -5200.00
04813             140.00    -5200.00
04814             140.00    -5000.00
04815             120.00    -4800.00
04816             100.00    -4800.00
04817             100.00    -4400.00
04818             120.00    -4400.00
04819             140.00    -4200.00
04820             140.00    -4200.00
04821             120.00    -3800.00
04822             100.00    -3600.00
04823              80.00    -3600.00
04824              80.00    -3400.00
04825              80.00    -3000.00
04826              80.00    -3000.00
04827             100.00    -2800.00
04828             140.00    -2600.00
04829             120.00    -2400.00
04830              80.00    -2200.00
04831              60.00    -2200.00
04832              60.00    -2000.00
04833              60.00    -1800.00
04834             100.00    -1400.00
04835             100.00    -1200.00
04836              80.00    -1200.00
04837              60.00    -1000.00
04838              40.00     -800.00
04839              40.00     -600.00
04840              60.00     -400.00
04841              60.00     -200.00
04842              60.00     -200.00
04843              60.00      200.00
04844              80.00      400.00
04845             140.00      400.00
04846             180.00      600.00
04847             180.00      800.00
04848             140.00     1000.00
04849              80.00     1000.00
04850              80.00     1200.00
04851             140.00     1400.00
04852             700.00     1800.00
04853            1180.00     2200.00
04854             460.00     2000.00
04855            -820.00     2200.00
04856           -1600.00     2000.00
04857           -1380.00     2600.00
04858             500.00     3000.00
04859             720.00     2800.00
04860             -80.00     3000.00
04861             540.00     3400.00
04862             100.00     3400.00
04863            -300.00     4200.00
04864             120.00     3600.00
04865            -180.00     3800.00
04866             300.00     4400.00
04867             160.00     3800.00
04868            -380.00     4600.00
04869              20.00     5000.00
04870            -160.00     4600.00
04871             -80.00     5200.00
04872              80.00     4800.00
04873              20.00     5400.00
04874               0.00     5600.00
04875            -180.00     5400.00
04876              80.00     6000.00
04877             -60.00     5600.00
04878            -160.00     6200.00
04879               0.00     6200.00
04880             -60.00     6200.00
04881             -60.00     6600.00
04882            -140.00     6400.00
04883             -60.00     7000.00
04884             -60.00     6800.00
04885             -20.00     7000.00
04886             -60.00     7400.00
04887             -80.00     7000.00
04888             -80.00     7600.00
04889            -120.00     7600.00
04890             -40.00     7600.00
04891            -100.00     7800.00
04892            -100.00     7800.00
04893            -140.00     8200.00
04894            -100.00     8200.00
04895             -80.00     8200.00
04896             -80.00     8400.00
04897             -80.00     8600.00
04898            -160.00     8400.00
04899            -140.00     8600.00
04900            -100.00     8600.00
04901            -100.00     8800.00
04902            -100.00     8800.00
04903            -140.00     9000.00
04904            -160.00     9000.00
04905            -160.00     9200.00
04906            -100.00     9200.00
04907            -120.00     9200.00
04908            -120.00     9400.00
04909            -140.00     9400.00
04910            -120.00     9400.00
04911            -160.00     9400.00
04912            -160.00     9400.00
04913            -140.00     9600.00
04914            -140.00     9800.00
04915            -140.00     9600.00
04916            -140.00     9800.00
04917            -180.00     9800.00
04918            -220.00     9800.00
04919            -160.00     9800.00
04920            -100.00     9800.00
04921            -160.00     9800.00
04922            -160.00    10000.00
04923            -180.00    10000.00
04924            -180.00     9800.00
04925            -160.00     9800.00
04926            -140.00    10000.00
04927            -160.00    10000.00
04928            -160.00    10000.00
04929            -160.00     9800.00
04930            -160.00     9800.00
04931            -180.00     9800.00
04932            -180.00     9800.00
04933            -160.00     9800.00
04934            -160.00     9800.00
04935            -160.00     9800.00
04936            -180.00     9800.00
04937            -180.00     9800.00
04938            -180.00     9600.00
04939            -180.00     9800.00
04940            -160.00     9400.00
04941            -160.00     9600.00
04942            -160.00     9400.00
04943            -140.00     9400.00
04944            -160.00     9400.00
04945            -180.00     9200.00
04946            -160.00     9200.00
04947            -160.00     9200.00
04948            -140.00     9200.00
04949            -160.00     9000.00
04950            -180.00     9000.00
04951            -180.00     8800.00
04952            -180.00     8600.00
04953            -160.00     8600.00
04954            -160.00     8400.00
04955            -160.00     8400.00
04956            -160.00     8400.00
04957            -160.00     8400.00
04958            -160.00     8200.00
04959            -160.00     8000.00
04960            -160.00     7800.00
04961            -160.00     7800.00
04962            -140.00     7800.00
04963            -160.00     7600.00
04964            -180.00     7600.00
04965            -160.00     7400.00
04966            -140.00     7200.00
04967            -140.00     7000.00
04968            -140.00     7000.00
04969            -160.00     6800.00
04970            -160.00     6600.00
04971            -140.00     6600.00
04972            -160.00     6600.00
04973            -140.00     6200.00
04974            -140.00     6200.00
04975            -140.00     6000.00
04976            -140.00     5800.00
04977            -140.00     5800.00
04978            -140.00     5400.00
04979            -140.00     5600.00
04980            -100.00     5200.00
04981            -120.00     5200.00
04982            -140.00     4800.00
04983            -140.00     4600.00
04984            -160.00     4600.00
04985            -140.00     4400.00
04986            -100.00     4200.00
04987            -100.00     4000.00
04988            -100.00     3800.00
04989            -100.00     3800.00
04990            -100.00     3600.00
04991            -100.00     3400.00
04992            -100.00     3200.00
04993            -100.00     3000.00
04994            -100.00     2800.00
04995            -100.00     2800.00
04996            -100.00     2600.00
04997            -100.00     2400.00
04998            -100.00     2200.00
04999             -80.00     2000.00
05000             -60.00     1800.00
