Unit:(mV)
                     CH1         CH2
Frequency              ? 299.320 kHz
00001              -8.00     -160.00
00002              16.00     -240.00
00003              24.00     -320.00
00004               0.00     -400.00
00005              -8.00     -480.00
00006             -24.00     -480.00
00007              32.00     -560.00
00008             320.00     -720.00
00009             680.00     -880.00
00010             312.00    -1040.00
00011           -1016.00     -880.00
00012           -1016.00     -800.00
00013             152.00    -1120.00
00014             984.00    -1200.00
00015            -216.00    -1040.00
00016            -392.00    -1200.00
00017             632.00    -1680.00
00018             344.00    -1120.00
00019            -392.00    -1200.00
00020            -128.00    -1840.00
00021             392.00    -1680.00
00022             152.00    -1200.00
00023              -8.00    -1840.00
00024               8.00    -2240.00
00025               8.00    -1440.00
00026              64.00    -1760.00
00027             128.00    -2400.00
00028             144.00    -2000.00
00029             224.00    -1760.00
00030            -104.00    -2480.00
00031              32.00    -2400.00
00032             504.00    -2000.00
00033               8.00    -2400.00
00034            -200.00    -2800.00
00035             440.00    -2400.00
00036             312.00    -2320.00
00037            -248.00    -2800.00
00038             200.00    -2800.00
00039             384.00    -2400.00
00040              32.00    -2800.00
00041             128.00    -3120.00
00042             296.00    -2720.00
00043             128.00    -2800.00
00044              96.00    -3280.00
00045             288.00    -3040.00
00046             248.00    -2800.00
00047              88.00    -3280.00
00048             160.00    -3280.00
00049             328.00    -2960.00
00050             192.00    -3280.00
00051             136.00    -3440.00
00052             328.00    -3280.00
00053             280.00    -3280.00
00054             120.00    -3600.00
00055             264.00    -3520.00
00056             352.00    -3360.00
00057             192.00    -3600.00
00058             256.00    -3600.00
00059             344.00    -3440.00
00060             224.00    -3600.00
00061             224.00    -3760.00
00062             384.00    -3600.00
00063             344.00    -3600.00
00064             248.00    -3840.00
00065             344.00    -3760.00
00066             360.00    -3600.00
00067             280.00    -3920.00
00068             328.00    -3920.00
00069             408.00    -3680.00
00070             344.00    -3760.00
00071             344.00    -4000.00
00072             408.00    -3760.00
00073             384.00    -3760.00
00074             328.00    -4000.00
00075             440.00    -3920.00
00076             472.00    -3840.00
00077             384.00    -4000.00
00078             408.00    -4000.00
00079             488.00    -3920.00
00080             440.00    -3920.00
00081             424.00    -4000.00
00082             512.00    -3920.00
00083             512.00    -3840.00
00084             456.00    -4000.00
00085             512.00    -4000.00
00086             544.00    -3920.00
00087             496.00    -3920.00
00088             512.00    -3920.00
00089             584.00    -3920.00
00090             568.00    -3920.00
00091             536.00    -3840.00
00092             584.00    -3840.00
00093             592.00    -3760.00
00094             552.00    -3920.00
00095             576.00    -3760.00
00096             616.00    -3760.00
00097             600.00    -3760.00
00098             584.00    -3760.00
00099             600.00    -3680.00
00100             584.00    -3680.00
00101             568.00    -3680.00
00102             600.00    -3680.00
00103             608.00    -3600.00
00104             576.00    -3600.00
00105             576.00    -3600.00
00106             576.00    -3440.00
00107             568.00    -3440.00
00108             568.00    -3520.00
00109             576.00    -3360.00
00110             568.00    -3360.00
00111             536.00    -3360.00
00112             536.00    -3360.00
00113             536.00    -3280.00
00114             512.00    -3200.00
00115             512.00    -3120.00
00116             520.00    -3120.00
00117             504.00    -3040.00
00118             472.00    -3040.00
00119             480.00    -2960.00
00120             456.00    -2880.00
00121             448.00    -2880.00
00122             448.00    -2800.00
00123             448.00    -2800.00
00124             408.00    -2720.00
00125             408.00    -2720.00
00126             408.00    -2640.00
00127             384.00    -2640.00
00128             376.00    -2480.00
00129             384.00    -2400.00
00130             360.00    -2400.00
00131             344.00    -2320.00
00132             336.00    -2240.00
00133             320.00    -2160.00
00134             312.00    -2160.00
00135             312.00    -2080.00
00136             312.00    -2000.00
00137             288.00    -2000.00
00138             264.00    -1840.00
00139             264.00    -1840.00
00140             256.00    -1760.00
00141             248.00    -1680.00
00142             248.00    -1680.00
00143             248.00    -1520.00
00144             216.00    -1440.00
00145             216.00    -1440.00
00146             200.00    -1360.00
00147             192.00    -1200.00
00148             184.00    -1200.00
00149             192.00    -1120.00
00150             184.00    -1040.00
00151             160.00    -1040.00
00152             152.00     -960.00
00153             136.00     -880.00
00154             136.00     -800.00
00155             136.00     -720.00
00156             136.00     -640.00
00157             120.00     -560.00
00158             104.00     -480.00
00159              96.00     -400.00
00160             104.00     -320.00
00161              96.00     -320.00
00162              96.00     -160.00
00163              80.00      -80.00
00164              56.00      -80.00
00165              64.00       80.00
00166              72.00       80.00
00167              88.00      160.00
00168             104.00      240.00
00169             120.00      320.00
00170              96.00      400.00
00171              64.00      400.00
00172              56.00      480.00
00173              56.00      560.00
00174             128.00      640.00
00175             600.00      800.00
00176             744.00      880.00
00177            -416.00      960.00
00178           -1016.00      800.00
00179            -712.00      880.00
00180             984.00     1360.00
00181             472.00     1360.00
00182            -760.00     1040.00
00183              56.00     1120.00
00184             928.00     1600.00
00185            -600.00     1680.00
00186            -832.00     1200.00
00187             664.00     1440.00
00188             352.00     2080.00
00189            -640.00     1680.00
00190             -88.00     1360.00
00191             256.00     2240.00
00192            -256.00     2320.00
00193            -320.00     1440.00
00194             128.00     2000.00
00195              88.00     2720.00
00196            -264.00     2000.00
00197            -296.00     1840.00
00198             120.00     2720.00
00199              64.00     2480.00
00200            -488.00     2000.00
00201             -96.00     2640.00
00202             248.00     2720.00
00203            -448.00     2400.00
00204            -312.00     2640.00
00205             176.00     2800.00
00206            -248.00     2800.00
00207            -280.00     2640.00
00208              40.00     2800.00
00209            -256.00     3120.00
00210            -264.00     2960.00
00211             -96.00     2880.00
00212            -184.00     3280.00
00213            -176.00     3120.00
00214            -216.00     3040.00
00215            -232.00     3360.00
00216            -192.00     3280.00
00217            -248.00     3120.00
00218            -184.00     3440.00
00219            -184.00     3360.00
00220            -328.00     3280.00
00221            -256.00     3440.00
00222            -192.00     3600.00
00223            -288.00     3440.00
00224            -256.00     3440.00
00225            -256.00     3680.00
00226            -320.00     3680.00
00227            -296.00     3600.00
00228            -232.00     3760.00
00229            -280.00     3760.00
00230            -360.00     3680.00
00231            -312.00     3760.00
00232            -296.00     3920.00
00233            -376.00     3760.00
00234            -344.00     3840.00
00235            -296.00     3920.00
00236            -360.00     3920.00
00237            -360.00     3920.00
00238            -344.00     3920.00
00239            -408.00     4000.00
00240            -448.00     3920.00
00241            -384.00     3920.00
00242            -344.00     4080.00
00243            -440.00     3920.00
00244            -448.00     3920.00
00245            -408.00     3920.00
00246            -456.00     4000.00
00247            -496.00     3920.00
00248            -440.00     4000.00
00249            -440.00     4080.00
00250            -520.00     4000.00
00251            -520.00     4000.00
00252            -488.00     4000.00
00253            -544.00     3920.00
00254            -568.00     3920.00
00255            -520.00     3920.00
00256            -520.00     4000.00
00257            -568.00     3920.00
00258            -552.00     3920.00
00259            -552.00     3920.00
00260            -600.00     3920.00
00261            -608.00     3920.00
00262            -576.00     3920.00
00263            -576.00     3840.00
00264            -584.00     3840.00
00265            -584.00     3760.00
00266            -600.00     3760.00
00267            -616.00     3760.00
00268            -600.00     3680.00
00269            -576.00     3680.00
00270            -600.00     3680.00
00271            -608.00     3680.00
00272            -584.00     3600.00
00273            -576.00     3520.00
00274            -568.00     3600.00
00275            -552.00     3520.00
00276            -552.00     3440.00
00277            -576.00     3360.00
00278            -552.00     3360.00
00279            -536.00     3360.00
00280            -544.00     3280.00
00281            -536.00     3280.00
00282            -512.00     3280.00
00283            -504.00     3120.00
00284            -488.00     3120.00
00285            -488.00     3120.00
00286            -488.00     3040.00
00287            -488.00     3040.00
00288            -456.00     2960.00
00289            -440.00     2880.00
00290            -440.00     2800.00
00291            -424.00     2800.00
00292            -416.00     2800.00
00293            -408.00     2640.00
00294            -392.00     2640.00
00295            -384.00     2560.00
00296            -384.00     2480.00
00297            -360.00     2400.00
00298            -344.00     2400.00
00299            -344.00     2320.00
00300            -352.00     2320.00
00301            -328.00     2240.00
00302            -312.00     2160.00
00303            -288.00     2080.00
00304            -280.00     2000.00
00305            -288.00     2000.00
00306            -312.00     1840.00
00307            -280.00     1840.00
00308            -248.00     1760.00
00309            -224.00     1680.00
00310            -224.00     1600.00
00311            -216.00     1520.00
00312            -216.00     1440.00
00313            -216.00     1440.00
00314            -216.00     1360.00
00315            -224.00     1200.00
00316            -192.00     1200.00
00317            -168.00     1200.00
00318            -160.00     1040.00
00319            -168.00      960.00
00320            -152.00      880.00
00321            -136.00      880.00
00322            -144.00      720.00
00323            -120.00      720.00
00324            -104.00      640.00
00325            -120.00      560.00
00326            -136.00      400.00
00327            -128.00      400.00
00328            -104.00      400.00
00329             -96.00      240.00
00330             -72.00      160.00
00331             -64.00      160.00
00332             -64.00       80.00
00333             -72.00      -80.00
00334             -56.00     -160.00
00335              -8.00     -160.00
00336              24.00     -240.00
00337              24.00     -240.00
00338               8.00     -320.00
00339             -24.00     -400.00
00340             -24.00     -480.00
00341              24.00     -560.00
00342             288.00     -720.00
00343             672.00     -880.00
00344             384.00     -960.00
00345            -960.00     -880.00
00346           -1016.00     -800.00
00347               0.00    -1120.00
00348             984.00    -1200.00
00349            -120.00    -1040.00
00350            -440.00    -1200.00
00351             520.00    -1680.00
00352             440.00    -1200.00
00353            -360.00    -1120.00
00354            -192.00    -1840.00
00355             400.00    -1760.00
00356             184.00    -1200.00
00357              -8.00    -1760.00
00358              24.00    -2320.00
00359               0.00    -1440.00
00360              48.00    -1680.00
00361             128.00    -2400.00
00362             112.00    -2000.00
00363             248.00    -1760.00
00364             -88.00    -2480.00
00365              -8.00    -2480.00
00366             480.00    -2000.00
00367              72.00    -2320.00
00368            -232.00    -2720.00
00369             392.00    -2400.00
00370             376.00    -2320.00
00371            -232.00    -2800.00
00372             152.00    -2880.00
00373             392.00    -2400.00
00374              40.00    -2720.00
00375              96.00    -3120.00
00376             320.00    -2720.00
00377             152.00    -2720.00
00378              88.00    -3280.00
00379             280.00    -3040.00
00380             248.00    -2800.00
00381              88.00    -3280.00
00382             136.00    -3280.00
00383             328.00    -2960.00
00384             216.00    -3280.00
00385             128.00    -3440.00
00386             312.00    -3280.00
00387             288.00    -3280.00
00388             120.00    -3600.00
00389             256.00    -3440.00
00390             352.00    -3360.00
00391             216.00    -3600.00
00392             232.00    -3680.00
00393             344.00    -3440.00
00394             232.00    -3520.00
00395             216.00    -3760.00
00396             360.00    -3680.00
00397             344.00    -3600.00
00398             248.00    -3760.00
00399             320.00    -3760.00
00400             376.00    -3680.00
00401             288.00    -3840.00
00402             312.00    -3840.00
00403             408.00    -3760.00
00404             368.00    -3840.00
00405             344.00    -4000.00
00406             408.00    -3840.00
00407             384.00    -3760.00
00408             328.00    -3920.00
00409             416.00    -3920.00
00410             472.00    -3920.00
00411             392.00    -3920.00
00412             408.00    -4000.00
00413             488.00    -3920.00
00414             448.00    -3920.00
00415             416.00    -4000.00
00416             504.00    -3920.00
00417             536.00    -3920.00
00418             464.00    -4000.00
00419             504.00    -4000.00
00420             544.00    -3920.00
00421             504.00    -3920.00
00422             512.00    -3920.00
00423             584.00    -3920.00
00424             568.00    -3760.00
00425             536.00    -3920.00
00426             576.00    -3920.00
00427             600.00    -3760.00
00428             552.00    -3920.00
00429             576.00    -3840.00
00430             608.00    -3760.00
00431             584.00    -3840.00
00432             576.00    -3760.00
00433             608.00    -3680.00
00434             600.00    -3680.00
00435             576.00    -3680.00
00436             600.00    -3600.00
00437             608.00    -3600.00
00438             576.00    -3600.00
00439             568.00    -3600.00
00440             584.00    -3520.00
00441             560.00    -3520.00
00442             552.00    -3440.00
00443             568.00    -3440.00
00444             568.00    -3440.00
00445             544.00    -3360.00
00446             544.00    -3280.00
00447             536.00    -3280.00
00448             504.00    -3200.00
00449             512.00    -3120.00
00450             512.00    -3120.00
00451             504.00    -3040.00
00452             480.00    -3120.00
00453             472.00    -3040.00
00454             456.00    -2880.00
00455             440.00    -2880.00
00456             448.00    -2880.00
00457             448.00    -2720.00
00458             416.00    -2720.00
00459             392.00    -2720.00
00460             392.00    -2640.00
00461             384.00    -2480.00
00462             376.00    -2480.00
00463             376.00    -2480.00
00464             376.00    -2400.00
00465             344.00    -2400.00
00466             344.00    -2320.00
00467             320.00    -2240.00
00468             312.00    -2160.00
00469             304.00    -2080.00
00470             312.00    -2000.00
00471             296.00    -1920.00
00472             264.00    -2000.00
00473             256.00    -1840.00
00474             256.00    -1840.00
00475             248.00    -1680.00
00476             248.00    -1680.00
00477             248.00    -1520.00
00478             216.00    -1520.00
00479             200.00    -1520.00
00480             200.00    -1360.00
00481             200.00    -1280.00
00482             184.00    -1280.00
00483             192.00    -1120.00
00484             184.00    -1040.00
00485             160.00    -1040.00
00486             152.00     -960.00
00487             152.00     -800.00
00488             136.00     -800.00
00489             136.00     -800.00
00490             128.00     -640.00
00491             128.00     -560.00
00492             104.00     -480.00
00493             104.00     -320.00
00494              96.00     -320.00
00495              96.00     -240.00
00496              88.00     -160.00
00497              88.00     -160.00
00498              72.00      -80.00
00499              64.00        0.00
00500              72.00       80.00
00501              72.00      160.00
00502              96.00      240.00
00503             120.00      320.00
00504             112.00      400.00
00505              72.00      400.00
00506              56.00      480.00
00507              32.00      560.00
00508              96.00      640.00
00509             544.00      800.00
00510             776.00      880.00
00511            -264.00      880.00
00512           -1016.00      720.00
00513            -864.00      880.00
00514             984.00     1280.00
00515             656.00     1360.00
00516            -736.00     1040.00
00517            -104.00     1120.00
00518             968.00     1520.00
00519            -456.00     1680.00
00520            -928.00     1200.00
00521             568.00     1360.00
00522             456.00     2080.00
00523            -616.00     1680.00
00524            -184.00     1360.00
00525             280.00     2080.00
00526            -200.00     2400.00
00527            -360.00     1520.00
00528             120.00     1840.00
00529              88.00     2720.00
00530            -232.00     2080.00
00531            -312.00     1760.00
00532              72.00     2720.00
00533              96.00     2480.00
00534            -480.00     2000.00
00535            -160.00     2640.00
00536             280.00     2800.00
00537            -376.00     2400.00
00538            -360.00     2640.00
00539             168.00     2880.00
00540            -208.00     2800.00
00541            -320.00     2720.00
00542              40.00     2800.00
00543            -216.00     3120.00
00544            -280.00     2960.00
00545            -104.00     2800.00
00546            -192.00     3280.00
00547            -184.00     3120.00
00548            -208.00     2960.00
00549            -232.00     3360.00
00550            -192.00     3360.00
00551            -232.00     3120.00
00552            -192.00     3360.00
00553            -168.00     3440.00
00554            -320.00     3280.00
00555            -256.00     3440.00
00556            -192.00     3600.00
00557            -280.00     3600.00
00558            -256.00     3520.00
00559            -240.00     3680.00
00560            -320.00     3680.00
00561            -312.00     3600.00
00562            -248.00     3760.00
00563            -264.00     3760.00
00564            -352.00     3680.00
00565            -312.00     3760.00
00566            -288.00     3840.00
00567            -384.00     3760.00
00568            -352.00     3760.00
00569            -304.00     3920.00
00570            -368.00     3920.00
00571            -368.00     3840.00
00572            -328.00     3920.00
00573            -392.00     4000.00
00574            -440.00     3840.00
00575            -384.00     3920.00
00576            -352.00     4080.00
00577            -448.00     4000.00
00578            -472.00     3920.00
00579            -408.00     4000.00
00580            -448.00     4000.00
00581            -504.00     3920.00
00582            -448.00     4000.00
00583            -456.00     4080.00
00584            -512.00     4000.00
00585            -504.00     4000.00
00586            -480.00     4080.00
00587            -544.00     4000.00
00588            -568.00     3920.00
00589            -520.00     4000.00
00590            -536.00     4000.00
00591            -576.00     3920.00
00592            -568.00     3920.00
00593            -552.00     3920.00
00594            -592.00     3920.00
00595            -584.00     3920.00
00596            -576.00     3840.00
00597            -592.00     3840.00
00598            -600.00     3760.00
00599            -584.00     3760.00
00600            -584.00     3840.00
00601            -616.00     3760.00
00602            -600.00     3760.00
00603            -568.00     3760.00
00604            -576.00     3680.00
00605            -592.00     3600.00
00606            -584.00     3600.00
00607            -584.00     3600.00
00608            -584.00     3520.00
00609            -552.00     3600.00
00610            -552.00     3440.00
00611            -568.00     3440.00
00612            -552.00     3440.00
00613            -544.00     3360.00
00614            -544.00     3280.00
00615            -536.00     3280.00
00616            -512.00     3200.00
00617            -504.00     3200.00
00618            -496.00     3120.00
00619            -488.00     3040.00
00620            -504.00     3040.00
00621            -488.00     2960.00
00622            -448.00     2960.00
00623            -424.00     2880.00
00624            -440.00     2800.00
00625            -432.00     2720.00
00626            -416.00     2720.00
00627            -416.00     2640.00
00628            -416.00     2640.00
00629            -384.00     2640.00
00630            -360.00     2480.00
00631            -360.00     2400.00
00632            -368.00     2320.00
00633            -352.00     2400.00
00634            -352.00     2320.00
00635            -320.00     2160.00
00636            -272.00     2160.00
00637            -288.00     2160.00
00638            -328.00     2000.00
00639            -320.00     2000.00
00640            -280.00     2000.00
00641            -248.00     1840.00
00642            -240.00     1760.00
00643            -224.00     1680.00
00644            -232.00     1680.00
00645            -248.00     1520.00
00646            -224.00     1440.00
00647            -200.00     1360.00
00648            -208.00     1360.00
00649            -216.00     1280.00
00650            -200.00     1200.00
00651            -168.00     1120.00
00652            -168.00     1120.00
00653            -152.00      960.00
00654            -136.00      880.00
00655            -136.00      880.00
00656            -160.00      720.00
00657            -160.00      720.00
00658            -128.00      640.00
00659            -128.00      560.00
00660            -104.00      480.00
00661             -96.00      400.00
00662             -96.00      320.00
00663             -96.00      240.00
00664             -88.00      160.00
00665             -72.00       80.00
00666             -88.00        0.00
00667             -64.00      -80.00
00668             -40.00      -80.00
00669               0.00     -160.00
00670              24.00     -240.00
00671              24.00     -240.00
00672               0.00     -400.00
00673              -8.00     -480.00
00674               0.00     -480.00
00675              32.00     -560.00
00676             232.00     -640.00
00677             640.00     -880.00
00678             440.00    -1040.00
00679            -808.00     -960.00
00680           -1016.00     -800.00
00681            -152.00    -1040.00
00682             984.00    -1200.00
00683               0.00    -1120.00
00684            -472.00    -1200.00
00685             424.00    -1680.00
00686             528.00    -1200.00
00687            -312.00    -1120.00
00688            -256.00    -1840.00
00689             384.00    -1840.00
00690             200.00    -1200.00
00691              -8.00    -1680.00
00692              24.00    -2320.00
00693              -8.00    -1600.00
00694              64.00    -1600.00
00695             136.00    -2400.00
00696              96.00    -2160.00
00697             256.00    -1760.00
00698             -64.00    -2400.00
00699             -56.00    -2480.00
00700             456.00    -2000.00
00701             152.00    -2320.00
00702            -264.00    -2720.00
00703             328.00    -2480.00
00704             424.00    -2320.00
00705            -224.00    -2720.00
00706              72.00    -2880.00
00707             392.00    -2480.00
00708              72.00    -2640.00
00709              64.00    -3120.00
00710             320.00    -2800.00
00711             160.00    -2720.00
00712              72.00    -3200.00
00713             248.00    -3120.00
00714             264.00    -2800.00
00715             104.00    -3280.00
00716             120.00    -3360.00
00717             320.00    -2960.00
00718             232.00    -3200.00
00719             120.00    -3440.00
00720             288.00    -3280.00
00721             312.00    -3280.00
00722             120.00    -3520.00
00723             224.00    -3440.00
00724             360.00    -3280.00
00725             224.00    -3520.00
00726             224.00    -3680.00
00727             344.00    -3440.00
00728             256.00    -3600.00
00729             200.00    -3760.00
00730             360.00    -3680.00
00731             368.00    -3600.00
00732             256.00    -3760.00
00733             320.00    -3760.00
00734             376.00    -3680.00
00735             288.00    -3760.00
00736             312.00    -3920.00
00737             392.00    -3760.00
00738             376.00    -3760.00
00739             328.00    -3920.00
00740             408.00    -3920.00
00741             408.00    -3760.00
00742             344.00    -3920.00
00743             416.00    -3920.00
00744             464.00    -3920.00
00745             384.00    -3920.00
00746             408.00    -3920.00
00747             488.00    -3840.00
00748             456.00    -3920.00
00749             408.00    -4000.00
00750             488.00    -3920.00
00751             520.00    -3920.00
00752             472.00    -3920.00
00753             504.00    -4000.00
00754             544.00    -3920.00
00755             512.00    -3920.00
00756             512.00    -3920.00
00757             568.00    -3920.00
00758             560.00    -3920.00
00759             544.00    -3920.00
00760             568.00    -3920.00
00761             568.00    -3840.00
00762             568.00    -3840.00
00763             584.00    -3760.00
00764             632.00    -3760.00
00765             600.00    -3760.00
00766             576.00    -3760.00
00767             600.00    -3760.00
00768             568.00    -3680.00
00769             560.00    -3680.00
00770             600.00    -3680.00
00771             616.00    -3600.00
00772             576.00    -3600.00
00773             560.00    -3600.00
00774             568.00    -3520.00
00775             568.00    -3520.00
00776             568.00    -3520.00
00777             576.00    -3440.00
00778             568.00    -3360.00
00779             536.00    -3360.00
00780             536.00    -3280.00
00781             520.00    -3280.00
00782             512.00    -3280.00
00783             512.00    -3120.00
00784             512.00    -3120.00
00785             504.00    -3040.00
00786             488.00    -3040.00
00787             472.00    -2880.00
00788             472.00    -2880.00
00789             440.00    -2880.00
00790             448.00    -2880.00
00791             448.00    -2800.00
00792             416.00    -2800.00
00793             408.00    -2720.00
00794             408.00    -2640.00
00795             392.00    -2560.00
00796             384.00    -2640.00
00797             384.00    -2400.00
00798             376.00    -2400.00
00799             352.00    -2400.00
00800             336.00    -2320.00
00801             320.00    -2240.00
00802             312.00    -2160.00
00803             312.00    -2160.00
00804             312.00    -2080.00
00805             296.00    -2000.00
00806             280.00    -1920.00
00807             264.00    -1840.00
00808             256.00    -1760.00
00809             248.00    -1760.00
00810             248.00    -1680.00
00811             248.00    -1600.00
00812             224.00    -1520.00
00813             216.00    -1440.00
00814             200.00    -1360.00
00815             192.00    -1360.00
00816             184.00    -1200.00
00817             192.00    -1200.00
00818             192.00    -1120.00
00819             168.00    -1040.00
00820             152.00     -960.00
00821             144.00     -880.00
00822             128.00     -800.00
00823             136.00     -720.00
00824             136.00     -640.00
00825             128.00     -560.00
00826             104.00     -480.00
00827             104.00     -480.00
00828              96.00     -320.00
00829              96.00     -320.00
00830              96.00     -240.00
00831              88.00     -160.00
00832              72.00      -80.00
00833              64.00        0.00
00834              64.00       80.00
00835              64.00      160.00
00836              88.00      160.00
00837             112.00      240.00
00838             120.00      400.00
00839              88.00      400.00
00840              56.00      480.00
00841              32.00      560.00
00842              88.00      640.00
00843             488.00      720.00
00844             800.00      880.00
00845             -96.00      880.00
00846           -1016.00      800.00
00847           -1000.00      880.00
00848             912.00     1200.00
00849             832.00     1440.00
00850            -696.00      960.00
00851            -248.00     1040.00
00852             984.00     1440.00
00853            -312.00     1760.00
00854            -992.00     1360.00
00855             440.00     1360.00
00856             552.00     2080.00
00857            -544.00     1760.00
00858            -280.00     1360.00
00859             312.00     2000.00
00860            -160.00     2400.00
00861            -392.00     1520.00
00862             104.00     1760.00
00863             104.00     2640.00
00864            -184.00     2160.00
00865            -336.00     1760.00
00866              32.00     2640.00
00867             152.00     2640.00
00868            -440.00     1920.00
00869            -232.00     2480.00
00870             296.00     2800.00
00871            -312.00     2400.00
00872            -424.00     2560.00
00873             152.00     2880.00
00874            -160.00     2800.00
00875            -344.00     2720.00
00876              40.00     2800.00
00877            -184.00     3040.00
00878            -296.00     2960.00
00879            -112.00     2800.00
00880            -184.00     3200.00
00881            -192.00     3120.00
00882            -200.00     2960.00
00883            -232.00     3280.00
00884            -192.00     3280.00
00885            -232.00     3120.00
00886            -200.00     3360.00
00887            -160.00     3440.00
00888            -312.00     3360.00
00889            -272.00     3440.00
00890            -192.00     3600.00
00891            -280.00     3520.00
00892            -264.00     3440.00
00893            -232.00     3680.00
00894            -312.00     3680.00
00895            -320.00     3600.00
00896            -248.00     3760.00
00897            -264.00     3760.00
00898            -344.00     3600.00
00899            -320.00     3760.00
00900            -288.00     3840.00
00901            -368.00     3840.00
00902            -360.00     3760.00
00903            -312.00     3920.00
00904            -360.00     3920.00
00905            -376.00     3840.00
00906            -328.00     3920.00
00907            -376.00     4000.00
00908            -440.00     3840.00
00909            -392.00     3920.00
00910            -360.00     4080.00
00911            -440.00     4000.00
00912            -472.00     3920.00
00913            -400.00     4000.00
00914            -440.00     4080.00
00915            -504.00     3920.00
00916            -456.00     3920.00
00917            -448.00     4000.00
00918            -512.00     4000.00
00919            -512.00     4000.00
00920            -480.00     4080.00
00921            -520.00     3920.00
00922            -568.00     3920.00
00923            -520.00     4000.00
00924            -512.00     4000.00
00925            -568.00     3920.00
00926            -560.00     3920.00
00927            -568.00     4000.00
00928            -584.00     3920.00
00929            -600.00     3920.00
00930            -568.00     3920.00
00931            -576.00     3840.00
00932            -600.00     3760.00
00933            -584.00     3840.00
00934            -600.00     3760.00
00935            -616.00     3680.00
00936            -600.00     3760.00
00937            -568.00     3760.00
00938            -576.00     3680.00
00939            -600.00     3600.00
00940            -592.00     3680.00
00941            -584.00     3520.00
00942            -576.00     3520.00
00943            -552.00     3440.00
00944            -552.00     3440.00
00945            -568.00     3440.00
00946            -552.00     3360.00
00947            -544.00     3440.00
00948            -544.00     3360.00
00949            -544.00     3280.00
00950            -512.00     3280.00
00951            -504.00     3200.00
00952            -496.00     3120.00
00953            -488.00     3120.00
00954            -496.00     3040.00
00955            -480.00     2960.00
00956            -456.00     2960.00
00957            -432.00     2960.00
00958            -440.00     2800.00
00959            -440.00     2800.00
00960            -424.00     2720.00
00961            -408.00     2720.00
00962            -392.00     2640.00
00963            -384.00     2560.00
00964            -376.00     2480.00
00965            -360.00     2480.00
00966            -360.00     2400.00
00967            -344.00     2400.00
00968            -352.00     2320.00
00969            -328.00     2240.00
00970            -312.00     2160.00
00971            -296.00     2080.00
00972            -304.00     2000.00
00973            -296.00     2000.00
00974            -272.00     1920.00
00975            -264.00     1840.00
00976            -256.00     1760.00
00977            -248.00     1680.00
00978            -232.00     1680.00
00979            -232.00     1520.00
00980            -224.00     1520.00
00981            -216.00     1440.00
00982            -216.00     1360.00
00983            -200.00     1360.00
00984            -176.00     1200.00
00985            -168.00     1200.00
00986            -176.00     1120.00
00987            -168.00      960.00
00988            -152.00      880.00
00989            -152.00      800.00
00990            -136.00      720.00
00991            -128.00      640.00
00992            -136.00      640.00
00993            -128.00      560.00
00994            -112.00      480.00
00995             -96.00      400.00
00996             -96.00      320.00
00997             -96.00      240.00
00998             -88.00      240.00
00999             -88.00      160.00
01000             -72.00       80.00
01001             -64.00        0.00
01002             -40.00     -160.00
01003               0.00     -160.00
01004              24.00     -240.00
01005              32.00     -320.00
01006               8.00     -320.00
01007               0.00     -400.00
01008              -8.00     -480.00
01009               8.00     -560.00
01010             192.00     -720.00
01011             608.00     -800.00
01012             512.00     -960.00
01013            -680.00     -960.00
01014           -1016.00     -800.00
01015            -304.00    -1040.00
01016             984.00    -1200.00
01017             128.00    -1120.00
01018            -480.00    -1040.00
01019             320.00    -1680.00
01020             608.00    -1360.00
01021            -280.00    -1040.00
01022            -328.00    -1760.00
01023             360.00    -1920.00
01024             224.00    -1200.00
01025              16.00    -1680.00
01026              32.00    -2320.00
01027             -16.00    -1680.00
01028              64.00    -1520.00
01029             128.00    -2400.00
01030              88.00    -2160.00
01031             256.00    -1680.00
01032             -40.00    -2320.00
01033             -88.00    -2480.00
01034             416.00    -2080.00
01035             224.00    -2240.00
01036            -280.00    -2720.00
01037             256.00    -2480.00
01038             472.00    -2320.00
01039            -184.00    -2640.00
01040              32.00    -2880.00
01041             408.00    -2480.00
01042             104.00    -2640.00
01043              24.00    -3120.00
01044             296.00    -2800.00
01045             184.00    -2640.00
01046              72.00    -3200.00
01047             248.00    -3120.00
01048             288.00    -2800.00
01049             120.00    -3200.00
01050              96.00    -3360.00
01051             304.00    -3040.00
01052             232.00    -3200.00
01053             120.00    -3440.00
01054             280.00    -3360.00
01055             328.00    -3280.00
01056             136.00    -3600.00
01057             200.00    -3520.00
01058             360.00    -3360.00
01059             240.00    -3600.00
01060             216.00    -3680.00
01061             344.00    -3520.00
01062             272.00    -3520.00
01063             192.00    -3760.00
01064             344.00    -3680.00
01065             376.00    -3600.00
01066             256.00    -3760.00
01067             312.00    -3760.00
01068             384.00    -3680.00
01069             296.00    -3760.00
01070             296.00    -3920.00
01071             400.00    -3760.00
01072             384.00    -3760.00
01073             328.00    -3920.00
01074             392.00    -3920.00
01075             408.00    -3760.00
01076             344.00    -3920.00
01077             400.00    -4000.00
01078             472.00    -3920.00
01079             400.00    -3920.00
01080             392.00    -4000.00
01081             480.00    -3920.00
01082             472.00    -3920.00
01083             416.00    -4000.00
01084             488.00    -3920.00
01085             536.00    -3840.00
01086             472.00    -3920.00
01087             488.00    -4000.00
01088             544.00    -3920.00
01089             504.00    -3920.00
01090             504.00    -3920.00
01091             568.00    -3920.00
01092             576.00    -3920.00
01093             536.00    -3920.00
01094             560.00    -3920.00
01095             600.00    -3760.00
01096             568.00    -3920.00
01097             568.00    -3840.00
01098             600.00    -3840.00
01099             584.00    -3760.00
01100             576.00    -3760.00
01101             600.00    -3760.00
01102             600.00    -3680.00
01103             568.00    -3680.00
01104             584.00    -3680.00
01105             608.00    -3600.00
01106             584.00    -3600.00
01107             568.00    -3600.00
01108             576.00    -3520.00
01109             568.00    -3520.00
01110             544.00    -3520.00
01111             568.00    -3440.00
01112             568.00    -3360.00
01113             536.00    -3440.00
01114             544.00    -3360.00
01115             536.00    -3280.00
01116             512.00    -3280.00
01117             504.00    -3200.00
01118             512.00    -3120.00
01119             512.00    -3040.00
01120             480.00    -3120.00
01121             472.00    -3040.00
01122             464.00    -2880.00
01123             448.00    -2880.00
01124             448.00    -2800.00
01125             448.00    -2800.00
01126             424.00    -2720.00
01127             408.00    -2720.00
01128             408.00    -2640.00
01129             392.00    -2640.00
01130             376.00    -2560.00
01131             376.00    -2400.00
01132             376.00    -2400.00
01133             352.00    -2400.00
01134             328.00    -2320.00
01135             328.00    -2160.00
01136             312.00    -2160.00
01137             312.00    -2160.00
01138             312.00    -2080.00
01139             296.00    -2000.00
01140             264.00    -1920.00
01141             272.00    -1840.00
01142             264.00    -1760.00
01143             248.00    -1680.00
01144             232.00    -1680.00
01145             232.00    -1600.00
01146             216.00    -1520.00
01147             216.00    -1520.00
01148             216.00    -1360.00
01149             216.00    -1360.00
01150             192.00    -1280.00
01151             192.00    -1200.00
01152             192.00    -1120.00
01153             160.00    -1040.00
01154             152.00     -960.00
01155             144.00     -880.00
01156             136.00     -800.00
01157             144.00     -720.00
01158             128.00     -720.00
01159             128.00     -560.00
01160             104.00     -560.00
01161              96.00     -400.00
01162              96.00     -400.00
01163              96.00     -240.00
01164              88.00     -240.00
01165              88.00     -160.00
01166              72.00     -160.00
01167              64.00        0.00
01168              64.00       80.00
01169              72.00      160.00
01170              96.00      160.00
01171             120.00      240.00
01172             112.00      320.00
01173              80.00      400.00
01174              48.00      400.00
01175              32.00      480.00
01176              64.00      560.00
01177             440.00      800.00
01178             808.00      960.00
01179              56.00      880.00
01180           -1016.00      720.00
01181           -1016.00      880.00
01182             744.00     1120.00
01183             984.00     1520.00
01184            -616.00     1040.00
01185            -360.00     1040.00
01186             976.00     1440.00
01187            -152.00     1840.00
01188           -1016.00     1360.00
01189             288.00     1280.00
01190             648.00     2000.00
01191            -472.00     1840.00
01192            -376.00     1280.00
01193             320.00     1920.00
01194            -104.00     2480.00
01195            -416.00     1680.00
01196              72.00     1680.00
01197             120.00     2640.00
01198            -160.00     2320.00
01199            -344.00     1680.00
01200              -8.00     2560.00
01201             184.00     2640.00
01202            -392.00     2000.00
01203            -296.00     2480.00
01204             296.00     2800.00
01205            -232.00     2400.00
01206            -472.00     2560.00
01207             128.00     2880.00
01208            -104.00     2800.00
01209            -376.00     2720.00
01210              24.00     2720.00
01211            -152.00     3120.00
01212            -312.00     3040.00
01213            -120.00     2800.00
01214            -168.00     3200.00
01215            -192.00     3200.00
01216            -192.00     2960.00
01217            -248.00     3280.00
01218            -192.00     3360.00
01219            -232.00     3120.00
01220            -216.00     3360.00
01221            -152.00     3440.00
01222            -296.00     3280.00
01223            -296.00     3440.00
01224            -192.00     3520.00
01225            -256.00     3520.00
01226            -264.00     3520.00
01227            -248.00     3600.00
01228            -320.00     3680.00
01229            -328.00     3600.00
01230            -256.00     3680.00
01231            -248.00     3760.00
01232            -336.00     3680.00
01233            -320.00     3680.00
01234            -264.00     3920.00
01235            -360.00     3840.00
01236            -368.00     3760.00
01237            -312.00     3920.00
01238            -360.00     3920.00
01239            -392.00     3920.00
01240            -352.00     3920.00
01241            -376.00     4000.00
01242            -424.00     3840.00
01243            -392.00     3920.00
01244            -352.00     4000.00
01245            -440.00     4000.00
01246            -472.00     3920.00
01247            -392.00     4000.00
01248            -424.00     4000.00
01249            -512.00     4000.00
01250            -456.00     4000.00
01251            -440.00     4000.00
01252            -512.00     3920.00
01253            -528.00     3920.00
01254            -488.00     4080.00
01255            -520.00     4000.00
01256            -552.00     3920.00
01257            -504.00     3920.00
01258            -504.00     4000.00
01259            -576.00     3920.00
01260            -584.00     3920.00
01261            -568.00     3920.00
01262            -576.00     3920.00
01263            -576.00     3840.00
01264            -568.00     3920.00
01265            -584.00     3920.00
01266            -608.00     3760.00
01267            -584.00     3840.00
01268            -600.00     3760.00
01269            -616.00     3760.00
01270            -600.00     3680.00
01271            -568.00     3760.00
01272            -576.00     3680.00
01273            -584.00     3600.00
01274            -584.00     3680.00
01275            -600.00     3600.00
01276            -584.00     3600.00
01277            -576.00     3440.00
01278            -552.00     3520.00
01279            -552.00     3360.00
01280            -544.00     3360.00
01281            -536.00     3360.00
01282            -544.00     3280.00
01283            -552.00     3200.00
01284            -520.00     3280.00
01285            -496.00     3200.00
01286            -480.00     3120.00
01287            -488.00     3040.00
01288            -504.00     3040.00
01289            -504.00     2960.00
01290            -480.00     2960.00
01291            -440.00     2880.00
01292            -440.00     2800.00
01293            -432.00     2720.00
01294            -424.00     2720.00
01295            -416.00     2640.00
01296            -416.00     2640.00
01297            -392.00     2640.00
01298            -376.00     2480.00
01299            -360.00     2400.00
01300            -352.00     2400.00
01301            -352.00     2320.00
01302            -352.00     2320.00
01303            -344.00     2240.00
01304            -320.00     2160.00
01305            -296.00     2080.00
01306            -304.00     2080.00
01307            -288.00     2000.00
01308            -264.00     1840.00
01309            -264.00     1840.00
01310            -264.00     1760.00
01311            -256.00     1680.00
01312            -232.00     1600.00
01313            -232.00     1520.00
01314            -208.00     1520.00
01315            -224.00     1440.00
01316            -224.00     1360.00
01317            -200.00     1360.00
01318            -192.00     1280.00
01319            -168.00     1120.00
01320            -168.00     1120.00
01321            -160.00     1040.00
01322            -136.00      880.00
01323            -136.00      800.00
01324            -136.00      800.00
01325            -144.00      720.00
01326            -136.00      560.00
01327            -128.00      560.00
01328            -120.00      480.00
01329             -96.00      480.00
01330             -96.00      400.00
01331             -88.00      240.00
01332             -72.00      240.00
01333             -72.00      160.00
01334             -72.00       80.00
01335             -64.00      -80.00
01336             -56.00      -80.00
01337              -8.00     -240.00
01338              24.00     -240.00
01339              24.00     -240.00
01340               0.00     -320.00
01341               0.00     -400.00
01342              -8.00     -480.00
01343              24.00     -560.00
01344             176.00     -720.00
01345             584.00     -800.00
01346             568.00    -1040.00
01347            -536.00     -960.00
01348           -1016.00     -800.00
01349            -448.00    -1040.00
01350             984.00    -1200.00
01351             264.00    -1120.00
01352            -504.00    -1040.00
01353             200.00    -1680.00
01354             704.00    -1360.00
01355            -200.00    -1040.00
01356            -376.00    -1760.00
01357             320.00    -2000.00
01358             248.00    -1360.00
01359              16.00    -1520.00
01360              32.00    -2320.00
01361             -24.00    -1760.00
01362              56.00    -1520.00
01363             120.00    -2320.00
01364              80.00    -2320.00
01365             280.00    -1760.00
01366              -8.00    -2320.00
01367            -104.00    -2480.00
01368             368.00    -2080.00
01369             264.00    -2160.00
01370            -280.00    -2720.00
01371             200.00    -2560.00
01372             512.00    -2160.00
01373            -136.00    -2640.00
01374             -24.00    -2960.00
01375             408.00    -2560.00
01376             136.00    -2640.00
01377               0.00    -3120.00
01378             296.00    -2880.00
01379             200.00    -2640.00
01380              64.00    -3200.00
01381             216.00    -3120.00
01382             288.00    -2800.00
01383             128.00    -3120.00
01384             104.00    -3360.00
01385             304.00    -3040.00
01386             280.00    -3120.00
01387             120.00    -3440.00
01388             256.00    -3360.00
01389             344.00    -3280.00
01390             136.00    -3520.00
01391             192.00    -3440.00
01392             344.00    -3360.00
01393             256.00    -3520.00
01394             216.00    -3680.00
01395             344.00    -3600.00
01396             288.00    -3520.00
01397             192.00    -3760.00
01398             328.00    -3680.00
01399             384.00    -3600.00
01400             264.00    -3760.00
01401             296.00    -3920.00
01402             384.00    -3680.00
01403             312.00    -3760.00
01404             280.00    -3920.00
01405             392.00    -3760.00
01406             384.00    -3760.00
01407             328.00    -3920.00
01408             400.00    -3920.00
01409             416.00    -3760.00
01410             336.00    -3920.00
01411             384.00    -3920.00
01412             472.00    -3920.00
01413             416.00    -3920.00
01414             392.00    -4000.00
01415             480.00    -3920.00
01416             472.00    -3920.00
01417             408.00    -4000.00
01418             472.00    -4000.00
01419             520.00    -3920.00
01420             472.00    -3920.00
01421             480.00    -4000.00
01422             544.00    -3920.00
01423             512.00    -3920.00
01424             480.00    -3920.00
01425             568.00    -3920.00
01426             584.00    -3840.00
01427             536.00    -3920.00
01428             552.00    -3920.00
01429             584.00    -3760.00
01430             568.00    -3840.00
01431             568.00    -3840.00
01432             608.00    -3760.00
01433             600.00    -3680.00
01434             560.00    -3760.00
01435             592.00    -3760.00
01436             608.00    -3680.00
01437             576.00    -3680.00
01438             584.00    -3680.00
01439             600.00    -3600.00
01440             584.00    -3680.00
01441             568.00    -3600.00
01442             584.00    -3520.00
01443             576.00    -3520.00
01444             544.00    -3440.00
01445             568.00    -3440.00
01446             568.00    -3360.00
01447             544.00    -3360.00
01448             544.00    -3360.00
01449             544.00    -3280.00
01450             512.00    -3280.00
01451             512.00    -3120.00
01452             512.00    -3120.00
01453             512.00    -3120.00
01454             480.00    -3040.00
01455             472.00    -3040.00
01456             472.00    -2880.00
01457             448.00    -2880.00
01458             448.00    -2800.00
01459             448.00    -2800.00
01460             424.00    -2720.00
01461             408.00    -2640.00
01462             408.00    -2640.00
01463             392.00    -2560.00
01464             384.00    -2480.00
01465             384.00    -2480.00
01466             376.00    -2400.00
01467             344.00    -2400.00
01468             328.00    -2320.00
01469             328.00    -2240.00
01470             320.00    -2160.00
01471             320.00    -2160.00
01472             312.00    -2000.00
01473             288.00    -2000.00
01474             264.00    -1920.00
01475             272.00    -1840.00
01476             280.00    -1840.00
01477             264.00    -1760.00
01478             240.00    -1680.00
01479             232.00    -1680.00
01480             224.00    -1520.00
01481             216.00    -1520.00
01482             200.00    -1360.00
01483             192.00    -1360.00
01484             160.00    -1200.00
01485             168.00    -1120.00
01486             184.00    -1120.00
01487             192.00    -1040.00
01488             168.00     -960.00
01489             136.00     -880.00
01490             120.00     -800.00
01491             120.00     -720.00
01492             128.00     -720.00
01493             136.00     -560.00
01494             128.00     -560.00
01495             104.00     -400.00
01496              96.00     -320.00
01497              88.00     -240.00
01498              88.00     -240.00
01499              80.00     -160.00
01500              72.00      -80.00
01501              64.00        0.00
01502              72.00       80.00
01503              72.00      160.00
01504              88.00      160.00
01505              96.00      240.00
01506              96.00      400.00
01507              88.00      400.00
01508              64.00      480.00
01509              56.00      560.00
01510              64.00      560.00
01511             376.00      800.00
01512             792.00      880.00
01513             192.00      880.00
01514           -1016.00      720.00
01515           -1016.00      880.00
01516             568.00     1120.00
01517             984.00     1440.00
01518            -552.00      960.00
01519            -504.00     1040.00
01520             928.00     1360.00
01521              24.00     1760.00
01522           -1016.00     1360.00
01523             152.00     1200.00
01524             736.00     2000.00
01525            -384.00     1920.00
01526            -472.00     1360.00
01527             312.00     1840.00
01528             -56.00     2480.00
01529            -424.00     1680.00
01530              56.00     1600.00
01531             128.00     2640.00
01532            -128.00     2320.00
01533            -352.00     1680.00
01534             -64.00     2480.00
01535             216.00     2720.00
01536            -336.00     2080.00
01537            -352.00     2400.00
01538             288.00     2800.00
01539            -168.00     2480.00
01540            -520.00     2480.00
01541              96.00     2800.00
01542             -40.00     2800.00
01543            -376.00     2640.00
01544               0.00     2720.00
01545            -120.00     3040.00
01546            -320.00     2960.00
01547            -128.00     2800.00
01548            -160.00     3120.00
01549            -200.00     3280.00
01550            -192.00     2960.00
01551            -256.00     3280.00
01552            -192.00     3360.00
01553            -224.00     3120.00
01554            -224.00     3360.00
01555            -152.00     3440.00
01556            -288.00     3360.00
01557            -304.00     3360.00
01558            -192.00     3440.00
01559            -248.00     3600.00
01560            -264.00     3440.00
01561            -232.00     3600.00
01562            -312.00     3680.00
01563            -336.00     3600.00
01564            -264.00     3680.00
01565            -248.00     3760.00
01566            -328.00     3680.00
01567            -328.00     3760.00
01568            -280.00     3920.00
01569            -352.00     3840.00
01570            -376.00     3760.00
01571            -312.00     3840.00
01572            -352.00     3920.00
01573            -384.00     3840.00
01574            -336.00     3920.00
01575            -360.00     4000.00
01576            -448.00     3920.00
01577            -416.00     3920.00
01578            -352.00     4080.00
01579            -408.00     4000.00
01580            -456.00     3920.00
01581            -408.00     4000.00
01582            -424.00     4080.00
01583            -504.00     3920.00
01584            -472.00     4000.00
01585            -440.00     4080.00
01586            -504.00     4000.00
01587            -512.00     4000.00
01588            -472.00     4000.00
01589            -512.00     4000.00
01590            -576.00     3920.00
01591            -528.00     4000.00
01592            -512.00     4000.00
01593            -552.00     3920.00
01594            -576.00     3920.00
01595            -552.00     4000.00
01596            -576.00     3920.00
01597            -584.00     3920.00
01598            -576.00     3840.00
01599            -576.00     3920.00
01600            -592.00     3840.00
01601            -584.00     3760.00
01602            -576.00     3760.00
01603            -616.00     3760.00
01604            -608.00     3760.00
01605            -576.00     3760.00
01606            -576.00     3760.00
01607            -584.00     3680.00
01608            -576.00     3680.00
01609            -584.00     3600.00
01610            -584.00     3520.00
01611            -568.00     3520.00
01612            -552.00     3440.00
01613            -568.00     3440.00
01614            -552.00     3440.00
01615            -536.00     3360.00
01616            -544.00     3360.00
01617            -544.00     3280.00
01618            -520.00     3200.00
01619            -512.00     3200.00
01620            -504.00     3120.00
01621            -488.00     3120.00
01622            -496.00     3120.00
01623            -488.00     2960.00
01624            -456.00     2960.00
01625            -448.00     2960.00
01626            -440.00     2880.00
01627            -440.00     2800.00
01628            -424.00     2720.00
01629            -416.00     2720.00
01630            -408.00     2640.00
01631            -392.00     2640.00
01632            -376.00     2480.00
01633            -360.00     2480.00
01634            -360.00     2400.00
01635            -352.00     2320.00
01636            -352.00     2320.00
01637            -344.00     2240.00
01638            -312.00     2160.00
01639            -296.00     2160.00
01640            -304.00     2080.00
01641            -296.00     2000.00
01642            -280.00     2000.00
01643            -264.00     1840.00
01644            -256.00     1760.00
01645            -248.00     1680.00
01646            -232.00     1680.00
01647            -232.00     1600.00
01648            -224.00     1520.00
01649            -216.00     1440.00
01650            -224.00     1360.00
01651            -216.00     1280.00
01652            -184.00     1280.00
01653            -168.00     1120.00
01654            -168.00     1120.00
01655            -160.00     1040.00
01656            -152.00      960.00
01657            -136.00      880.00
01658            -144.00      800.00
01659            -128.00      720.00
01660            -128.00      640.00
01661            -128.00      560.00
01662            -120.00      480.00
01663            -104.00      480.00
01664             -96.00      320.00
01665             -88.00      240.00
01666             -72.00      240.00
01667             -72.00       80.00
01668             -72.00       80.00
01669             -72.00      -80.00
01670             -56.00      -80.00
01671              -8.00     -160.00
01672              24.00     -240.00
01673              32.00     -240.00
01674              24.00     -320.00
01675               0.00     -480.00
01676              -8.00     -480.00
01677               0.00     -480.00
01678             136.00     -640.00
01679             552.00     -800.00
01680             608.00     -960.00
01681            -384.00    -1040.00
01682           -1016.00     -800.00
01683            -608.00     -960.00
01684             952.00    -1200.00
01685             424.00    -1200.00
01686            -488.00    -1040.00
01687              80.00    -1600.00
01688             744.00    -1440.00
01689            -160.00    -1040.00
01690            -408.00    -1680.00
01691             280.00    -2000.00
01692             264.00    -1280.00
01693              40.00    -1440.00
01694              32.00    -2320.00
01695             -24.00    -1840.00
01696              56.00    -1360.00
01697             104.00    -2240.00
01698              72.00    -2320.00
01699             256.00    -1760.00
01700              24.00    -2160.00
01701            -120.00    -2640.00
01702             328.00    -2160.00
01703             344.00    -2080.00
01704            -272.00    -2720.00
01705             128.00    -2640.00
01706             528.00    -2160.00
01707             -72.00    -2480.00
01708             -72.00    -2960.00
01709             392.00    -2480.00
01710             192.00    -2480.00
01711              -8.00    -3040.00
01712             280.00    -2880.00
01713             224.00    -2640.00
01714              80.00    -3040.00
01715             200.00    -3200.00
01716             312.00    -2800.00
01717             152.00    -3040.00
01718              88.00    -3440.00
01719             280.00    -3040.00
01720             280.00    -3040.00
01721             120.00    -3440.00
01722             224.00    -3360.00
01723             352.00    -3280.00
01724             168.00    -3440.00
01725             176.00    -3600.00
01726             344.00    -3360.00
01727             264.00    -3440.00
01728             192.00    -3680.00
01729             328.00    -3600.00
01730             304.00    -3440.00
01731             192.00    -3760.00
01732             320.00    -3680.00
01733             392.00    -3600.00
01734             264.00    -3760.00
01735             280.00    -3840.00
01736             376.00    -3680.00
01737             320.00    -3760.00
01738             288.00    -3920.00
01739             384.00    -3760.00
01740             384.00    -3760.00
01741             320.00    -3920.00
01742             384.00    -3920.00
01743             424.00    -3760.00
01744             352.00    -3840.00
01745             376.00    -4000.00
01746             464.00    -3920.00
01747             416.00    -3920.00
01748             384.00    -4000.00
01749             472.00    -3920.00
01750             472.00    -3920.00
01751             408.00    -4000.00
01752             472.00    -4000.00
01753             536.00    -3920.00
01754             480.00    -3920.00
01755             480.00    -4000.00
01756             544.00    -3920.00
01757             512.00    -3920.00
01758             472.00    -3920.00
01759             552.00    -3920.00
01760             592.00    -3840.00
01761             536.00    -3920.00
01762             552.00    -3920.00
01763             584.00    -3840.00
01764             568.00    -3840.00
01765             560.00    -3840.00
01766             600.00    -3760.00
01767             600.00    -3760.00
01768             576.00    -3760.00
01769             584.00    -3760.00
01770             600.00    -3680.00
01771             568.00    -3680.00
01772             576.00    -3680.00
01773             608.00    -3600.00
01774             600.00    -3600.00
01775             576.00    -3600.00
01776             576.00    -3520.00
01777             568.00    -3520.00
01778             552.00    -3520.00
01779             568.00    -3440.00
01780             568.00    -3360.00
01781             544.00    -3360.00
01782             536.00    -3360.00
01783             544.00    -3360.00
01784             528.00    -3280.00
01785             504.00    -3200.00
01786             512.00    -3120.00
01787             512.00    -3040.00
01788             488.00    -3040.00
01789             480.00    -3040.00
01790             472.00    -2960.00
01791             456.00    -2880.00
01792             448.00    -2880.00
01793             456.00    -2800.00
01794             432.00    -2720.00
01795             408.00    -2720.00
01796             400.00    -2640.00
01797             392.00    -2560.00
01798             384.00    -2560.00
01799             384.00    -2480.00
01800             376.00    -2400.00
01801             352.00    -2400.00
01802             344.00    -2320.00
01803             320.00    -2240.00
01804             320.00    -2160.00
01805             312.00    -2160.00
01806             312.00    -2000.00
01807             312.00    -2000.00
01808             280.00    -1840.00
01809             264.00    -1840.00
01810             256.00    -1840.00
01811             248.00    -1760.00
01812             248.00    -1680.00
01813             232.00    -1600.00
01814             232.00    -1520.00
01815             216.00    -1440.00
01816             200.00    -1360.00
01817             192.00    -1360.00
01818             184.00    -1280.00
01819             168.00    -1200.00
01820             184.00    -1120.00
01821             168.00    -1040.00
01822             152.00    -1040.00
01823             152.00     -960.00
01824             136.00     -880.00
01825             136.00     -720.00
01826             128.00     -720.00
01827             128.00     -560.00
01828             120.00     -560.00
01829             104.00     -480.00
01830              88.00     -320.00
01831              96.00     -320.00
01832              88.00     -240.00
01833              88.00     -160.00
01834              72.00     -160.00
01835              64.00      -80.00
01836              64.00       80.00
01837              64.00       80.00
01838              88.00      160.00
01839             104.00      240.00
01840             104.00      320.00
01841              96.00      480.00
01842              56.00      400.00
01843              40.00      560.00
01844              56.00      560.00
01845             320.00      720.00
01846             792.00      880.00
01847             328.00      960.00
01848           -1016.00      800.00
01849           -1016.00      880.00
01850             344.00     1040.00
01851             984.00     1440.00
01852            -424.00     1040.00
01853            -584.00     1040.00
01854             856.00     1280.00
01855             192.00     1840.00
01856           -1016.00     1440.00
01857             -40.00     1200.00
01858             792.00     1840.00
01859            -272.00     2000.00
01860            -552.00     1360.00
01861             304.00     1760.00
01862               8.00     2480.00
01863            -424.00     1760.00
01864               0.00     1520.00
01865             128.00     2560.00
01866             -72.00     2400.00
01867            -352.00     1680.00
01868            -104.00     2400.00
01869             224.00     2800.00
01870            -288.00     2080.00
01871            -416.00     2320.00
01872             256.00     2800.00
01873             -88.00     2480.00
01874            -536.00     2400.00
01875              56.00     2800.00
01876               0.00     2880.00
01877            -416.00     2720.00
01878             -40.00     2720.00
01879             -88.00     3040.00
01880            -312.00     3040.00
01881            -136.00     2800.00
01882            -152.00     3120.00
01883            -200.00     3280.00
01884            -176.00     2960.00
01885            -248.00     3200.00
01886            -192.00     3360.00
01887            -232.00     3120.00
01888            -248.00     3280.00
01889            -152.00     3600.00
01890            -264.00     3360.00
01891            -320.00     3440.00
01892            -200.00     3520.00
01893            -232.00     3600.00
01894            -264.00     3520.00
01895            -248.00     3600.00
01896            -312.00     3680.00
01897            -328.00     3600.00
01898            -272.00     3680.00
01899            -240.00     3760.00
01900            -312.00     3680.00
01901            -320.00     3680.00
01902            -288.00     3920.00
01903            -360.00     3840.00
01904            -384.00     3760.00
01905            -312.00     3760.00
01906            -328.00     3920.00
01907            -384.00     3840.00
01908            -328.00     3920.00
01909            -360.00     4000.00
01910            -448.00     3920.00
01911            -424.00     3920.00
01912            -352.00     4000.00
01913            -400.00     4000.00
01914            -480.00     3920.00
01915            -424.00     4000.00
01916            -416.00     4000.00
01917            -488.00     4000.00
01918            -456.00     3920.00
01919            -424.00     4080.00
01920            -488.00     4000.00
01921            -536.00     4000.00
01922            -496.00     4000.00
01923            -504.00     4000.00
01924            -560.00     3920.00
01925            -528.00     3920.00
01926            -512.00     4000.00
01927            -552.00     3920.00
01928            -576.00     3920.00
01929            -552.00     3920.00
01930            -560.00     3920.00
01931            -592.00     3840.00
01932            -576.00     3920.00
01933            -584.00     3840.00
01934            -600.00     3840.00
01935            -584.00     3760.00
01936            -576.00     3840.00
01937            -608.00     3760.00
01938            -608.00     3760.00
01939            -576.00     3760.00
01940            -584.00     3680.00
01941            -592.00     3680.00
01942            -600.00     3600.00
01943            -600.00     3600.00
01944            -600.00     3520.00
01945            -568.00     3520.00
01946            -552.00     3440.00
01947            -560.00     3440.00
01948            -552.00     3440.00
01949            -544.00     3360.00
01950            -552.00     3360.00
01951            -544.00     3280.00
01952            -520.00     3280.00
01953            -504.00     3280.00
01954            -504.00     3280.00
01955            -488.00     3120.00
01956            -496.00     3040.00
01957            -504.00     3040.00
01958            -472.00     2960.00
01959            -448.00     2880.00
01960            -440.00     2800.00
01961            -448.00     2800.00
01962            -424.00     2720.00
01963            -424.00     2720.00
01964            -408.00     2640.00
01965            -384.00     2560.00
01966            -384.00     2480.00
01967            -376.00     2400.00
01968            -360.00     2480.00
01969            -352.00     2400.00
01970            -352.00     2320.00
01971            -328.00     2160.00
01972            -312.00     2240.00
01973            -296.00     2080.00
01974            -296.00     2000.00
01975            -296.00     2000.00
01976            -288.00     1920.00
01977            -280.00     1840.00
01978            -256.00     1760.00
01979            -248.00     1760.00
01980            -224.00     1680.00
01981            -232.00     1520.00
01982            -216.00     1520.00
01983            -216.00     1360.00
01984            -224.00     1360.00
01985            -200.00     1360.00
01986            -184.00     1280.00
01987            -168.00     1200.00
01988            -168.00     1120.00
01989            -168.00     1040.00
01990            -160.00      960.00
01991            -152.00      880.00
01992            -136.00      800.00
01993            -128.00      720.00
01994            -128.00      560.00
01995            -128.00      560.00
01996            -120.00      480.00
01997            -104.00      400.00
01998             -96.00      400.00
01999             -88.00      240.00
02000             -88.00      240.00
02001             -64.00      160.00
02002             -72.00       80.00
02003             -72.00       80.00
02004             -56.00      -80.00
02005             -24.00     -160.00
02006              24.00     -240.00
02007              32.00     -240.00
02008               8.00     -400.00
02009               0.00     -480.00
02010             -24.00     -400.00
02011              -8.00     -480.00
02012              96.00     -560.00
02013             504.00     -720.00
02014             640.00     -960.00
02015            -232.00     -960.00
02016           -1016.00     -800.00
02017            -736.00     -960.00
02018             840.00    -1200.00
02019             576.00    -1200.00
02020            -480.00    -1040.00
02021             -40.00    -1520.00
02022             776.00    -1440.00
02023             -96.00    -1040.00
02024            -440.00    -1520.00
02025             224.00    -2000.00
02026             296.00    -1360.00
02027              56.00    -1360.00
02028              24.00    -2240.00
02029             -24.00    -2000.00
02030              56.00    -1360.00
02031              88.00    -2160.00
02032              72.00    -2320.00
02033             256.00    -1760.00
02034              64.00    -2080.00
02035            -128.00    -2560.00
02036             280.00    -2160.00
02037             408.00    -2080.00
02038            -240.00    -2640.00
02039              56.00    -2640.00
02040             544.00    -2320.00
02041              -8.00    -2480.00
02042            -128.00    -2880.00
02043             376.00    -2640.00
02044             224.00    -2480.00
02045             -24.00    -3040.00
02046             264.00    -2960.00
02047             248.00    -2640.00
02048              80.00    -3040.00
02049             168.00    -3200.00
02050             312.00    -2800.00
02051             160.00    -3040.00
02052              88.00    -3440.00
02053             264.00    -3040.00
02054             296.00    -3040.00
02055             128.00    -3440.00
02056             216.00    -3440.00
02057             352.00    -3200.00
02058             192.00    -3440.00
02059             160.00    -3600.00
02060             344.00    -3360.00
02061             288.00    -3440.00
02062             192.00    -3680.00
02063             312.00    -3520.00
02064             320.00    -3520.00
02065             200.00    -3760.00
02066             312.00    -3760.00
02067             400.00    -3600.00
02068             280.00    -3680.00
02069             264.00    -3840.00
02070             376.00    -3680.00
02071             328.00    -3760.00
02072             280.00    -3920.00
02073             360.00    -3760.00
02074             392.00    -3760.00
02075             336.00    -3920.00
02076             384.00    -3920.00
02077             432.00    -3760.00
02078             344.00    -3920.00
02079             344.00    -4000.00
02080             448.00    -3920.00
02081             432.00    -3920.00
02082             400.00    -4000.00
02083             472.00    -3920.00
02084             472.00    -3840.00
02085             392.00    -3920.00
02086             440.00    -4000.00
02087             536.00    -3920.00
02088             488.00    -3920.00
02089             472.00    -4080.00
02090             536.00    -3920.00
02091             520.00    -3920.00
02092             488.00    -4000.00
02093             544.00    -3920.00
02094             592.00    -3840.00
02095             536.00    -3920.00
02096             536.00    -3920.00
02097             584.00    -3840.00
02098             576.00    -3760.00
02099             568.00    -3840.00
02100             600.00    -3760.00
02101             608.00    -3760.00
02102             576.00    -3760.00
02103             584.00    -3760.00
02104             600.00    -3680.00
02105             576.00    -3680.00
02106             576.00    -3600.00
02107             600.00    -3600.00
02108             600.00    -3600.00
02109             576.00    -3680.00
02110             576.00    -3520.00
02111             568.00    -3520.00
02112             552.00    -3520.00
02113             584.00    -3440.00
02114             592.00    -3440.00
02115             560.00    -3360.00
02116             536.00    -3360.00
02117             512.00    -3280.00
02118             512.00    -3280.00
02119             512.00    -3200.00
02120             536.00    -3120.00
02121             520.00    -3120.00
02122             504.00    -3040.00
02123             488.00    -3040.00
02124             472.00    -2880.00
02125             448.00    -2880.00
02126             448.00    -2880.00
02127             448.00    -2800.00
02128             424.00    -2800.00
02129             416.00    -2720.00
02130             408.00    -2720.00
02131             392.00    -2640.00
02132             384.00    -2560.00
02133             384.00    -2480.00
02134             384.00    -2400.00
02135             360.00    -2400.00
02136             328.00    -2320.00
02137             320.00    -2240.00
02138             312.00    -2160.00
02139             312.00    -2160.00
02140             312.00    -2080.00
02141             296.00    -2080.00
02142             288.00    -1920.00
02143             256.00    -1920.00
02144             256.00    -1840.00
02145             248.00    -1840.00
02146             248.00    -1680.00
02147             248.00    -1680.00
02148             224.00    -1520.00
02149             216.00    -1440.00
02150             200.00    -1360.00
02151             192.00    -1360.00
02152             184.00    -1200.00
02153             184.00    -1200.00
02154             184.00    -1120.00
02155             168.00    -1040.00
02156             160.00    -1040.00
02157             136.00     -880.00
02158             128.00     -880.00
02159             128.00     -800.00
02160             128.00     -640.00
02161             128.00     -560.00
02162             120.00     -560.00
02163             104.00     -480.00
02164              96.00     -320.00
02165              88.00     -320.00
02166              88.00     -240.00
02167              88.00     -160.00
02168              88.00      -80.00
02169              88.00        0.00
02170              64.00       80.00
02171              56.00      160.00
02172              72.00      160.00
02173             104.00      240.00
02174             128.00      320.00
02175             104.00      400.00
02176              64.00      480.00
02177              40.00      480.00
02178              48.00      560.00
02179             280.00      720.00
02180             768.00      880.00
02181             440.00      880.00
02182           -1016.00      880.00
02183           -1016.00      800.00
02184             128.00     1040.00
02185             984.00     1440.00
02186            -288.00     1120.00
02187            -648.00     1120.00
02188             752.00     1200.00
02189             352.00     1760.00
02190           -1016.00     1520.00
02191            -232.00     1200.00
02192             824.00     1840.00
02193            -160.00     2000.00
02194            -600.00     1360.00
02195             280.00     1680.00
02196              72.00     2480.00
02197            -424.00     1840.00
02198             -64.00     1520.00
02199             128.00     2480.00
02200             -40.00     2480.00
02201            -360.00     1680.00
02202            -160.00     2320.00
02203             232.00     2800.00
02204            -216.00     2080.00
02205            -472.00     2240.00
02206             216.00     2880.00
02207             -16.00     2560.00
02208            -552.00     2400.00
02209               0.00     2800.00
02210              56.00     2800.00
02211            -392.00     2720.00
02212             -72.00     2720.00
02213             -40.00     3040.00
02214            -312.00     3120.00
02215            -192.00     2800.00
02216            -168.00     3040.00
02217            -200.00     3280.00
02218            -160.00     2960.00
02219            -224.00     3120.00
02220            -184.00     3440.00
02221            -232.00     3200.00
02222            -264.00     3280.00
02223            -152.00     3440.00
02224            -232.00     3360.00
02225            -312.00     3360.00
02226            -200.00     3440.00
02227            -248.00     3600.00
02228            -296.00     3440.00
02229            -232.00     3520.00
02230            -280.00     3680.00
02231            -328.00     3600.00
02232            -264.00     3680.00
02233            -224.00     3760.00
02234            -320.00     3760.00
02235            -368.00     3680.00
02236            -288.00     3840.00
02237            -336.00     3920.00
02238            -408.00     3840.00
02239            -296.00     3840.00
02240            -288.00     3920.00
02241            -376.00     3920.00
02242            -376.00     3840.00
02243            -376.00     4000.00
02244            -440.00     3920.00
02245            -424.00     3920.00
02246            -344.00     4000.00
02247            -376.00     4000.00
02248            -472.00     3920.00
02249            -440.00     4000.00
02250            -424.00     4080.00
02251            -480.00     4000.00
02252            -472.00     4000.00
02253            -448.00     4000.00
02254            -504.00     4080.00
02255            -536.00     4000.00
02256            -488.00     4000.00
02257            -496.00     4000.00
02258            -552.00     3920.00
02259            -536.00     3920.00
02260            -512.00     4000.00
02261            -576.00     4000.00
02262            -584.00     3920.00
02263            -544.00     3920.00
02264            -552.00     3920.00
02265            -592.00     3840.00
02266            -576.00     3920.00
02267            -576.00     3920.00
02268            -600.00     3760.00
02269            -584.00     3760.00
02270            -576.00     3840.00
02271            -616.00     3760.00
02272            -624.00     3760.00
02273            -584.00     3680.00
02274            -576.00     3680.00
02275            -584.00     3680.00
02276            -584.00     3680.00
02277            -576.00     3600.00
02278            -584.00     3600.00
02279            -576.00     3440.00
02280            -568.00     3440.00
02281            -568.00     3440.00
02282            -576.00     3360.00
02283            -544.00     3360.00
02284            -536.00     3360.00
02285            -544.00     3280.00
02286            -520.00     3200.00
02287            -512.00     3200.00
02288            -504.00     3120.00
02289            -488.00     3120.00
02290            -504.00     3120.00
02291            -488.00     2960.00
02292            -472.00     2960.00
02293            -440.00     2960.00
02294            -432.00     2800.00
02295            -440.00     2800.00
02296            -424.00     2720.00
02297            -416.00     2720.00
02298            -400.00     2640.00
02299            -384.00     2640.00
02300            -376.00     2560.00
02301            -376.00     2480.00
02302            -360.00     2400.00
02303            -352.00     2400.00
02304            -352.00     2320.00
02305            -344.00     2240.00
02306            -312.00     2240.00
02307            -296.00     2080.00
02308            -296.00     2080.00
02309            -296.00     2000.00
02310            -280.00     1920.00
02311            -280.00     1840.00
02312            -256.00     1760.00
02313            -248.00     1680.00
02314            -232.00     1680.00
02315            -232.00     1600.00
02316            -224.00     1520.00
02317            -216.00     1440.00
02318            -216.00     1360.00
02319            -216.00     1360.00
02320            -184.00     1280.00
02321            -168.00     1200.00
02322            -168.00     1120.00
02323            -168.00     1040.00
02324            -160.00      960.00
02325            -152.00      880.00
02326            -136.00      800.00
02327            -136.00      720.00
02328            -128.00      720.00
02329            -128.00      560.00
02330            -120.00      560.00
02331            -104.00      400.00
02332            -104.00      320.00
02333             -96.00      240.00
02334             -88.00      240.00
02335             -88.00      160.00
02336             -80.00       80.00
02337             -72.00       80.00
02338             -56.00      -80.00
02339             -32.00     -160.00
02340              24.00     -240.00
02341              32.00     -240.00
02342              16.00     -320.00
02343              -8.00     -400.00
02344             -24.00     -480.00
02345             -16.00     -560.00
02346              88.00     -560.00
02347             472.00     -800.00
02348             664.00     -880.00
02349            -104.00    -1040.00
02350           -1016.00     -800.00
02351            -856.00     -880.00
02352             712.00    -1120.00
02353             712.00    -1200.00
02354            -448.00    -1040.00
02355            -136.00    -1520.00
02356             776.00    -1520.00
02357              -8.00    -1040.00
02358            -448.00    -1520.00
02359             152.00    -2000.00
02360             328.00    -1440.00
02361              88.00    -1280.00
02362              16.00    -2160.00
02363             -24.00    -2080.00
02364              40.00    -1360.00
02365              88.00    -2080.00
02366              88.00    -2400.00
02367             232.00    -1760.00
02368              96.00    -2000.00
02369            -136.00    -2560.00
02370             216.00    -2240.00
02371             448.00    -2000.00
02372            -192.00    -2640.00
02373              -8.00    -2640.00
02374             544.00    -2320.00
02375              64.00    -2480.00
02376            -184.00    -2960.00
02377             344.00    -2640.00
02378             272.00    -2400.00
02379             -32.00    -2960.00
02380             240.00    -3040.00
02381             256.00    -2640.00
02382              88.00    -2960.00
02383             160.00    -3280.00
02384             312.00    -2800.00
02385             184.00    -2960.00
02386              72.00    -3440.00
02387             248.00    -3120.00
02388             312.00    -3040.00
02389             136.00    -3440.00
02390             192.00    -3440.00
02391             360.00    -3120.00
02392             216.00    -3360.00
02393             136.00    -3600.00
02394             328.00    -3360.00
02395             304.00    -3440.00
02396             184.00    -3680.00
02397             296.00    -3600.00
02398             320.00    -3440.00
02399             200.00    -3680.00
02400             288.00    -3680.00
02401             392.00    -3600.00
02402             288.00    -3760.00
02403             256.00    -3760.00
02404             368.00    -3760.00
02405             344.00    -3760.00
02406             280.00    -3920.00
02407             360.00    -3760.00
02408             408.00    -3760.00
02409             344.00    -3920.00
02410             360.00    -3920.00
02411             416.00    -3840.00
02412             352.00    -3920.00
02413             360.00    -4000.00
02414             456.00    -3920.00
02415             448.00    -3840.00
02416             384.00    -3920.00
02417             448.00    -4000.00
02418             480.00    -3920.00
02419             408.00    -4000.00
02420             448.00    -4000.00
02421             520.00    -3920.00
02422             488.00    -3920.00
02423             472.00    -4000.00
02424             536.00    -3920.00
02425             536.00    -3840.00
02426             480.00    -3920.00
02427             544.00    -3920.00
02428             600.00    -3840.00
02429             552.00    -3840.00
02430             544.00    -3920.00
02431             584.00    -3760.00
02432             576.00    -3760.00
02433             560.00    -3840.00
02434             600.00    -3760.00
02435             616.00    -3760.00
02436             584.00    -3760.00
02437             584.00    -3760.00
02438             600.00    -3680.00
02439             576.00    -3680.00
02440             576.00    -3680.00
02441             608.00    -3600.00
02442             600.00    -3600.00
02443             568.00    -3600.00
02444             576.00    -3600.00
02445             576.00    -3440.00
02446             560.00    -3520.00
02447             576.00    -3440.00
02448             576.00    -3440.00
02449             552.00    -3360.00
02450             528.00    -3360.00
02451             536.00    -3280.00
02452             520.00    -3280.00
02453             504.00    -3280.00
02454             520.00    -3120.00
02455             512.00    -3120.00
02456             496.00    -3040.00
02457             480.00    -3040.00
02458             480.00    -2880.00
02459             448.00    -2880.00
02460             448.00    -2800.00
02461             448.00    -2800.00
02462             440.00    -2800.00
02463             408.00    -2720.00
02464             408.00    -2720.00
02465             392.00    -2640.00
02466             376.00    -2480.00
02467             368.00    -2480.00
02468             376.00    -2400.00
02469             360.00    -2400.00
02470             344.00    -2320.00
02471             328.00    -2320.00
02472             320.00    -2160.00
02473             296.00    -2160.00
02474             312.00    -2000.00
02475             312.00    -2000.00
02476             280.00    -1920.00
02477             264.00    -1840.00
02478             256.00    -1840.00
02479             248.00    -1760.00
02480             240.00    -1680.00
02481             248.00    -1600.00
02482             224.00    -1520.00
02483             216.00    -1520.00
02484             208.00    -1440.00
02485             200.00    -1360.00
02486             184.00    -1280.00
02487             184.00    -1200.00
02488             184.00    -1120.00
02489             168.00    -1040.00
02490             152.00     -960.00
02491             144.00     -880.00
02492             144.00     -800.00
02493             128.00     -800.00
02494             136.00     -720.00
02495             136.00     -640.00
02496             120.00     -560.00
02497              96.00     -480.00
02498              96.00     -400.00
02499              88.00     -320.00
02500              88.00     -240.00
02501              88.00     -160.00
02502              72.00      -80.00
02503              72.00        0.00
02504              72.00       80.00
02505              72.00       80.00
02506              88.00      240.00
02507             104.00      240.00
02508             120.00      320.00
02509             104.00      400.00
02510              72.00      480.00
02511              40.00      560.00
02512              40.00      560.00
02513             232.00      720.00
02514             736.00      880.00
02515             536.00      880.00
02516           -1008.00      800.00
02517           -1016.00      800.00
02518             -88.00     1040.00
02519             984.00     1440.00
02520            -144.00     1200.00
02521            -720.00     1120.00
02522             600.00     1200.00
02523             520.00     1760.00
02524            -952.00     1520.00
02525            -376.00     1120.00
02526             832.00     1760.00
02527             -48.00     2080.00
02528            -648.00     1440.00
02529             216.00     1600.00
02530              96.00     2400.00
02531            -408.00     2000.00
02532            -128.00     1440.00
02533             128.00     2320.00
02534               0.00     2640.00
02535            -320.00     1760.00
02536            -192.00     2160.00
02537             216.00     2800.00
02538            -168.00     2160.00
02539            -512.00     2240.00
02540             136.00     2800.00
02541              64.00     2640.00
02542            -536.00     2400.00
02543             -64.00     2800.00
02544              72.00     2880.00
02545            -384.00     2720.00
02546            -128.00     2720.00
02547             -24.00     2960.00
02548            -280.00     3120.00
02549            -184.00     2800.00
02550            -168.00     2960.00
02551            -248.00     3280.00
02552            -184.00     2960.00
02553            -232.00     3120.00
02554            -192.00     3440.00
02555            -200.00     3200.00
02556            -256.00     3280.00
02557            -168.00     3440.00
02558            -248.00     3360.00
02559            -312.00     3360.00
02560            -192.00     3440.00
02561            -232.00     3600.00
02562            -296.00     3520.00
02563            -232.00     3520.00
02564            -264.00     3680.00
02565            -312.00     3600.00
02566            -264.00     3680.00
02567            -232.00     3840.00
02568            -336.00     3760.00
02569            -360.00     3680.00
02570            -272.00     3920.00
02571            -312.00     3920.00
02572            -384.00     3760.00
02573            -312.00     3840.00
02574            -328.00     3920.00
02575            -384.00     3920.00
02576            -344.00     3920.00
02577            -360.00     4000.00
02578            -432.00     3920.00
02579            -424.00     3920.00
02580            -344.00     4000.00
02581            -384.00     4000.00
02582            -472.00     3920.00
02583            -424.00     4000.00
02584            -440.00     4080.00
02585            -488.00     4000.00
02586            -456.00     3920.00
02587            -424.00     4080.00
02588            -480.00     4000.00
02589            -520.00     3920.00
02590            -488.00     4000.00
02591            -520.00     4000.00
02592            -576.00     3920.00
02593            -536.00     3920.00
02594            -488.00     4000.00
02595            -552.00     4000.00
02596            -584.00     3920.00
02597            -568.00     3920.00
02598            -576.00     3920.00
02599            -576.00     3920.00
02600            -568.00     3920.00
02601            -576.00     3920.00
02602            -600.00     3760.00
02603            -600.00     3760.00
02604            -592.00     3840.00
02605            -616.00     3760.00
02606            -608.00     3760.00
02607            -584.00     3760.00
02608            -576.00     3680.00
02609            -584.00     3680.00
02610            -584.00     3680.00
02611            -600.00     3600.00
02612            -600.00     3520.00
02613            -568.00     3520.00
02614            -560.00     3520.00
02615            -568.00     3440.00
02616            -552.00     3440.00
02617            -552.00     3360.00
02618            -552.00     3360.00
02619            -536.00     3280.00
02620            -520.00     3280.00
02621            -512.00     3120.00
02622            -504.00     3120.00
02623            -488.00     3120.00
02624            -488.00     3040.00
02625            -488.00     2960.00
02626            -472.00     2960.00
02627            -448.00     2960.00
02628            -448.00     2800.00
02629            -440.00     2800.00
02630            -424.00     2800.00
02631            -424.00     2720.00
02632            -416.00     2640.00
02633            -392.00     2560.00
02634            -384.00     2480.00
02635            -376.00     2480.00
02636            -352.00     2480.00
02637            -344.00     2400.00
02638            -352.00     2320.00
02639            -352.00     2240.00
02640            -312.00     2160.00
02641            -296.00     2160.00
02642            -296.00     2080.00
02643            -296.00     2000.00
02644            -288.00     1920.00
02645            -272.00     1840.00
02646            -256.00     1840.00
02647            -232.00     1680.00
02648            -232.00     1680.00
02649            -232.00     1520.00
02650            -224.00     1520.00
02651            -224.00     1440.00
02652            -224.00     1360.00
02653            -200.00     1360.00
02654            -192.00     1200.00
02655            -168.00     1200.00
02656            -168.00     1120.00
02657            -168.00     1040.00
02658            -160.00      960.00
02659            -152.00      880.00
02660            -136.00      800.00
02661            -136.00      720.00
02662            -136.00      560.00
02663            -136.00      560.00
02664            -128.00      480.00
02665            -104.00      400.00
02666             -96.00      400.00
02667             -96.00      320.00
02668             -88.00      240.00
02669             -88.00      160.00
02670             -72.00       80.00
02671             -72.00        0.00
02672             -64.00      -80.00
02673             -32.00      -80.00
02674               8.00     -240.00
02675              24.00     -240.00
02676               8.00     -400.00
02677              -8.00     -480.00
02678             -24.00     -480.00
02679              -8.00     -480.00
02680              64.00     -640.00
02681             424.00     -720.00
02682             672.00     -960.00
02683              32.00    -1040.00
02684           -1016.00     -880.00
02685            -984.00     -880.00
02686             568.00    -1120.00
02687             848.00    -1200.00
02688            -400.00    -1040.00
02689            -224.00    -1360.00
02690             768.00    -1520.00
02691              88.00    -1120.00
02692            -440.00    -1360.00
02693              72.00    -2000.00
02694             352.00    -1440.00
02695              96.00    -1200.00
02696               0.00    -2080.00
02697              -8.00    -2160.00
02698              48.00    -1360.00
02699              72.00    -2000.00
02700              96.00    -2400.00
02701             200.00    -1840.00
02702             136.00    -1920.00
02703            -120.00    -2480.00
02704             160.00    -2320.00
02705             472.00    -2000.00
02706            -160.00    -2480.00
02707             -72.00    -2640.00
02708             528.00    -2320.00
02709             128.00    -2400.00
02710            -200.00    -2960.00
02711             320.00    -2720.00
02712             312.00    -2400.00
02713             -32.00    -2960.00
02714             216.00    -3040.00
02715             272.00    -2640.00
02716              96.00    -2880.00
02717             136.00    -3280.00
02718             312.00    -2800.00
02719             200.00    -2960.00
02720              72.00    -3360.00
02721             216.00    -3200.00
02722             320.00    -3040.00
02723             152.00    -3360.00
02724             168.00    -3440.00
02725             352.00    -3200.00
02726             216.00    -3440.00
02727             128.00    -3600.00
02728             312.00    -3360.00
02729             312.00    -3440.00
02730             184.00    -3680.00
02731             288.00    -3600.00
02732             328.00    -3520.00
02733             200.00    -3680.00
02734             264.00    -3760.00
02735             392.00    -3600.00
02736             296.00    -3680.00
02737             248.00    -3840.00
02738             360.00    -3760.00
02739             344.00    -3680.00
02740             280.00    -3920.00
02741             352.00    -3840.00
02742             408.00    -3760.00
02743             328.00    -3920.00
02744             352.00    -3920.00
02745             416.00    -3760.00
02746             360.00    -3920.00
02747             352.00    -4000.00
02748             448.00    -3920.00
02749             448.00    -3920.00
02750             376.00    -4000.00
02751             440.00    -3920.00
02752             488.00    -3920.00
02753             424.00    -3920.00
02754             440.00    -4000.00
02755             528.00    -3920.00
02756             504.00    -3920.00
02757             456.00    -3920.00
02758             528.00    -4000.00
02759             536.00    -3920.00
02760             488.00    -3920.00
02761             528.00    -4000.00
02762             584.00    -3920.00
02763             552.00    -3920.00
02764             544.00    -3920.00
02765             600.00    -3840.00
02766             584.00    -3760.00
02767             552.00    -3920.00
02768             600.00    -3760.00
02769             608.00    -3760.00
02770             576.00    -3760.00
02771             584.00    -3760.00
02772             600.00    -3680.00
02773             584.00    -3760.00
02774             576.00    -3680.00
02775             600.00    -3600.00
02776             600.00    -3680.00
02777             584.00    -3600.00
02778             576.00    -3520.00
02779             584.00    -3600.00
02780             552.00    -3440.00
02781             552.00    -3440.00
02782             576.00    -3440.00
02783             552.00    -3440.00
02784             544.00    -3360.00
02785             536.00    -3280.00
02786             536.00    -3280.00
02787             504.00    -3280.00
02788             512.00    -3120.00
02789             520.00    -3120.00
02790             480.00    -3120.00
02791             472.00    -3040.00
02792             472.00    -2960.00
02793             448.00    -2880.00
02794             448.00    -2880.00
02795             456.00    -2800.00
02796             440.00    -2800.00
02797             408.00    -2720.00
02798             392.00    -2640.00
02799             392.00    -2560.00
02800             384.00    -2640.00
02801             376.00    -2480.00
02802             384.00    -2400.00
02803             352.00    -2400.00
02804             344.00    -2400.00
02805             328.00    -2320.00
02806             320.00    -2160.00
02807             312.00    -2160.00
02808             312.00    -2160.00
02809             304.00    -2000.00
02810             280.00    -2000.00
02811             256.00    -1840.00
02812             256.00    -1840.00
02813             256.00    -1760.00
02814             248.00    -1680.00
02815             248.00    -1680.00
02816             232.00    -1520.00
02817             216.00    -1520.00
02818             200.00    -1440.00
02819             200.00    -1360.00
02820             192.00    -1280.00
02821             192.00    -1200.00
02822             184.00    -1200.00
02823             176.00    -1120.00
02824             152.00    -1040.00
02825             144.00     -880.00
02826             136.00     -880.00
02827             128.00     -800.00
02828             136.00     -720.00
02829             136.00     -560.00
02830             128.00     -560.00
02831              96.00     -480.00
02832             104.00     -400.00
02833              96.00     -320.00
02834              88.00     -240.00
02835              88.00     -160.00
02836              88.00     -160.00
02837              64.00      -80.00
02838              64.00       80.00
02839              72.00       80.00
02840              88.00      160.00
02841             104.00      240.00
02842             120.00      240.00
02843             104.00      400.00
02844              72.00      400.00
02845              56.00      560.00
02846              32.00      560.00
02847             200.00      720.00
02848             704.00      800.00
02849             608.00      880.00
02850            -856.00      880.00
02851           -1016.00      720.00
02852            -288.00      960.00
02853             984.00     1360.00
02854              24.00     1200.00
02855            -760.00     1040.00
02856             448.00     1200.00
02857             664.00     1760.00
02858            -872.00     1520.00
02859            -520.00     1120.00
02860             824.00     1680.00
02861              64.00     2160.00
02862            -680.00     1520.00
02863             136.00     1520.00
02864             152.00     2400.00
02865            -376.00     2080.00
02866            -176.00     1440.00
02867             128.00     2240.00
02868              24.00     2640.00
02869            -320.00     1760.00
02870            -232.00     2080.00
02871             200.00     2800.00
02872            -104.00     2240.00
02873            -512.00     2160.00
02874              96.00     2800.00
02875             128.00     2640.00
02876            -544.00     2400.00
02877            -136.00     2720.00
02878             120.00     2880.00
02879            -360.00     2720.00
02880            -152.00     2720.00
02881               0.00     2960.00
02882            -288.00     3120.00
02883            -216.00     2880.00
02884            -120.00     2960.00
02885            -200.00     3280.00
02886            -184.00     3040.00
02887            -240.00     3040.00
02888            -216.00     3440.00
02889            -200.00     3200.00
02890            -248.00     3120.00
02891            -160.00     3440.00
02892            -224.00     3440.00
02893            -344.00     3280.00
02894            -216.00     3440.00
02895            -208.00     3600.00
02896            -280.00     3520.00
02897            -232.00     3600.00
02898            -264.00     3680.00
02899            -320.00     3600.00
02900            -288.00     3600.00
02901            -232.00     3760.00
02902            -296.00     3760.00
02903            -360.00     3680.00
02904            -280.00     3840.00
02905            -304.00     3920.00
02906            -384.00     3840.00
02907            -320.00     3760.00
02908            -312.00     3920.00
02909            -384.00     3920.00
02910            -352.00     3920.00
02911            -344.00     4000.00
02912            -416.00     3920.00
02913            -440.00     3920.00
02914            -360.00     4000.00
02915            -376.00     4000.00
02916            -456.00     3920.00
02917            -440.00     3920.00
02918            -392.00     4000.00
02919            -472.00     4000.00
02920            -488.00     4000.00
02921            -440.00     4000.00
02922            -472.00     4000.00
02923            -520.00     4000.00
02924            -488.00     4000.00
02925            -488.00     4000.00
02926            -552.00     3920.00
02927            -552.00     3920.00
02928            -512.00     4000.00
02929            -544.00     4000.00
02930            -576.00     3920.00
02931            -568.00     3920.00
02932            -576.00     3920.00
02933            -584.00     3920.00
02934            -584.00     3920.00
02935            -576.00     3920.00
02936            -600.00     3840.00
02937            -600.00     3760.00
02938            -576.00     3840.00
02939            -608.00     3760.00
02940            -616.00     3760.00
02941            -584.00     3760.00
02942            -576.00     3760.00
02943            -584.00     3680.00
02944            -592.00     3600.00
02945            -584.00     3680.00
02946            -600.00     3520.00
02947            -576.00     3440.00
02948            -552.00     3520.00
02949            -568.00     3440.00
02950            -568.00     3440.00
02951            -544.00     3440.00
02952            -544.00     3360.00
02953            -552.00     3280.00
02954            -536.00     3280.00
02955            -512.00     3280.00
02956            -504.00     3120.00
02957            -504.00     3120.00
02958            -488.00     3120.00
02959            -488.00     3040.00
02960            -472.00     2960.00
02961            -440.00     2960.00
02962            -440.00     2960.00
02963            -440.00     2800.00
02964            -424.00     2800.00
02965            -416.00     2720.00
02966            -408.00     2640.00
02967            -392.00     2640.00
02968            -384.00     2640.00
02969            -376.00     2480.00
02970            -368.00     2480.00
02971            -344.00     2400.00
02972            -352.00     2320.00
02973            -344.00     2320.00
02974            -312.00     2160.00
02975            -296.00     2080.00
02976            -296.00     2080.00
02977            -296.00     2000.00
02978            -288.00     2000.00
02979            -280.00     1840.00
02980            -256.00     1840.00
02981            -240.00     1760.00
02982            -232.00     1680.00
02983            -232.00     1600.00
02984            -232.00     1520.00
02985            -224.00     1440.00
02986            -224.00     1440.00
02987            -216.00     1360.00
02988            -192.00     1360.00
02989            -176.00     1200.00
02990            -176.00     1040.00
02991            -168.00     1040.00
02992            -160.00      960.00
02993            -152.00      880.00
02994            -152.00      800.00
02995            -136.00      720.00
02996            -128.00      720.00
02997            -128.00      560.00
02998            -128.00      560.00
02999            -120.00      480.00
03000            -104.00      400.00
03001             -96.00      240.00
03002             -88.00      240.00
03003             -72.00      160.00
03004             -72.00       80.00
03005             -72.00        0.00
03006             -72.00      -80.00
03007             -32.00     -160.00
03008               0.00     -240.00
03009              32.00     -240.00
03010              24.00     -400.00
03011               0.00     -320.00
03012             -16.00     -400.00
03013              -8.00     -480.00
03014              64.00     -560.00
03015             384.00     -720.00
03016             680.00     -880.00
03017             152.00     -960.00
03018           -1016.00     -880.00
03019           -1016.00     -880.00
03020             408.00    -1120.00
03021             960.00    -1200.00
03022            -336.00    -1040.00
03023            -296.00    -1360.00
03024             728.00    -1680.00
03025             192.00    -1040.00
03026            -424.00    -1360.00
03027               0.00    -2000.00
03028             360.00    -1520.00
03029             120.00    -1200.00
03030               0.00    -2000.00
03031               0.00    -2240.00
03032              32.00    -1360.00
03033              64.00    -1920.00
03034             104.00    -2400.00
03035             184.00    -1920.00
03036             184.00    -1840.00
03037            -120.00    -2480.00
03038             104.00    -2320.00
03039             488.00    -2000.00
03040             -96.00    -2480.00
03041            -144.00    -2720.00
03042             504.00    -2320.00
03043             216.00    -2400.00
03044            -224.00    -2880.00
03045             280.00    -2720.00
03046             344.00    -2400.00
03047              -8.00    -2880.00
03048             168.00    -3040.00
03049             288.00    -2640.00
03050              96.00    -2800.00
03051             120.00    -3280.00
03052             304.00    -2880.00
03053             216.00    -2880.00
03054              72.00    -3360.00
03055             192.00    -3280.00
03056             328.00    -3040.00
03057             168.00    -3360.00
03058             160.00    -3440.00
03059             344.00    -3280.00
03060             248.00    -3360.00
03061             120.00    -3600.00
03062             288.00    -3440.00
03063             320.00    -3360.00
03064             168.00    -3680.00
03065             264.00    -3600.00
03066             344.00    -3440.00
03067             216.00    -3680.00
03068             256.00    -3760.00
03069             392.00    -3600.00
03070             312.00    -3680.00
03071             248.00    -3760.00
03072             352.00    -3760.00
03073             352.00    -3680.00
03074             272.00    -3920.00
03075             344.00    -3840.00
03076             408.00    -3760.00
03077             344.00    -3840.00
03078             344.00    -4000.00
03079             424.00    -3920.00
03080             376.00    -3920.00
03081             344.00    -4000.00
03082             448.00    -3920.00
03083             456.00    -3840.00
03084             376.00    -4000.00
03085             424.00    -4000.00
03086             496.00    -3920.00
03087             432.00    -3920.00
03088             440.00    -4000.00
03089             520.00    -3920.00
03090             504.00    -3920.00
03091             456.00    -4000.00
03092             520.00    -3920.00
03093             544.00    -3840.00
03094             488.00    -3920.00
03095             520.00    -3920.00
03096             584.00    -3840.00
03097             560.00    -3920.00
03098             536.00    -3920.00
03099             584.00    -3920.00
03100             584.00    -3760.00
03101             552.00    -3920.00
03102             584.00    -3760.00
03103             608.00    -3760.00
03104             576.00    -3760.00
03105             576.00    -3760.00
03106             608.00    -3680.00
03107             584.00    -3680.00
03108             576.00    -3760.00
03109             600.00    -3680.00
03110             608.00    -3600.00
03111             576.00    -3680.00
03112             568.00    -3600.00
03113             576.00    -3440.00
03114             568.00    -3600.00
03115             568.00    -3520.00
03116             576.00    -3440.00
03117             544.00    -3440.00
03118             528.00    -3360.00
03119             544.00    -3280.00
03120             528.00    -3280.00
03121             504.00    -3200.00
03122             512.00    -3200.00
03123             528.00    -3120.00
03124             504.00    -3120.00
03125             472.00    -3040.00
03126             472.00    -2960.00
03127             448.00    -2880.00
03128             456.00    -2880.00
03129             472.00    -2800.00
03130             448.00    -2800.00
03131             408.00    -2720.00
03132             384.00    -2720.00
03133             392.00    -2640.00
03134             392.00    -2560.00
03135             384.00    -2560.00
03136             384.00    -2480.00
03137             352.00    -2400.00
03138             328.00    -2320.00
03139             320.00    -2320.00
03140             312.00    -2240.00
03141             304.00    -2160.00
03142             312.00    -2160.00
03143             312.00    -2000.00
03144             288.00    -2000.00
03145             264.00    -1840.00
03146             256.00    -1840.00
03147             248.00    -1760.00
03148             232.00    -1760.00
03149             232.00    -1680.00
03150             232.00    -1680.00
03151             224.00    -1440.00
03152             232.00    -1440.00
03153             208.00    -1360.00
03154             184.00    -1280.00
03155             168.00    -1200.00
03156             184.00    -1120.00
03157             192.00    -1120.00
03158             168.00    -1040.00
03159             152.00     -960.00
03160             136.00     -800.00
03161             120.00     -800.00
03162             120.00     -720.00
03163             120.00     -720.00
03164             128.00     -560.00
03165             128.00     -480.00
03166             120.00     -400.00
03167              96.00     -320.00
03168             104.00     -240.00
03169              64.00     -240.00
03170              40.00      -80.00
03171               0.00      -80.00
03172              56.00       80.00
03173              88.00      160.00
03174             128.00      160.00
03175             168.00      240.00
03176             168.00      320.00
03177             136.00      400.00
03178              56.00      480.00
03179              -8.00      560.00
03180             -32.00      560.00
03181             120.00      640.00
03182             648.00      800.00
03183             680.00      880.00
03184            -664.00      880.00
03185           -1016.00      800.00
03186            -408.00      880.00
03187             984.00     1360.00
03188             192.00     1280.00
03189            -808.00     1040.00
03190             248.00     1120.00
03191             736.00     1680.00
03192            -800.00     1600.00
03193            -664.00     1200.00
03194             800.00     1520.00
03195             216.00     2160.00
03196            -640.00     1520.00
03197              88.00     1360.00
03198             200.00     2400.00
03199            -344.00     2160.00
03200            -280.00     1440.00
03201              88.00     2160.00
03202               8.00     2640.00
03203            -320.00     1760.00
03204            -240.00     2000.00
03205             224.00     2800.00
03206               0.00     2320.00
03207            -496.00     2080.00
03208              32.00     2800.00
03209             160.00     2720.00
03210            -536.00     2400.00
03211            -232.00     2640.00
03212             120.00     2880.00
03213            -344.00     2800.00
03214            -192.00     2800.00
03215              56.00     2880.00
03216            -232.00     3120.00
03217            -200.00     2880.00
03218            -104.00     2960.00
03219            -224.00     3280.00
03220            -216.00     3040.00
03221            -280.00     3040.00
03222            -224.00     3440.00
03223            -176.00     3200.00
03224            -216.00     3120.00
03225            -128.00     3440.00
03226            -192.00     3440.00
03227            -344.00     3360.00
03228            -248.00     3440.00
03229            -216.00     3600.00
03230            -288.00     3520.00
03231            -256.00     3520.00
03232            -264.00     3680.00
03233            -328.00     3680.00
03234            -296.00     3680.00
03235            -224.00     3760.00
03236            -264.00     3760.00
03237            -344.00     3680.00
03238            -288.00     3840.00
03239            -312.00     3920.00
03240            -392.00     3760.00
03241            -344.00     3840.00
03242            -320.00     3920.00
03243            -384.00     3920.00
03244            -352.00     3840.00
03245            -328.00     4000.00
03246            -408.00     4000.00
03247            -440.00     3920.00
03248            -376.00     4000.00
03249            -384.00     4000.00
03250            -472.00     3920.00
03251            -448.00     3920.00
03252            -408.00     4000.00
03253            -456.00     4000.00
03254            -488.00     3920.00
03255            -440.00     4000.00
03256            -456.00     4000.00
03257            -520.00     4000.00
03258            -504.00     4000.00
03259            -504.00     4080.00
03260            -552.00     4000.00
03261            -568.00     3920.00
03262            -504.00     4000.00
03263            -536.00     4000.00
03264            -576.00     3920.00
03265            -568.00     3920.00
03266            -568.00     3920.00
03267            -584.00     3920.00
03268            -584.00     3920.00
03269            -576.00     3840.00
03270            -600.00     3920.00
03271            -600.00     3840.00
03272            -576.00     3840.00
03273            -600.00     3760.00
03274            -616.00     3760.00
03275            -600.00     3680.00
03276            -568.00     3760.00
03277            -584.00     3680.00
03278            -584.00     3600.00
03279            -592.00     3600.00
03280            -600.00     3600.00
03281            -584.00     3520.00
03282            -560.00     3520.00
03283            -552.00     3440.00
03284            -552.00     3440.00
03285            -552.00     3360.00
03286            -536.00     3360.00
03287            -536.00     3280.00
03288            -520.00     3200.00
03289            -504.00     3280.00
03290            -504.00     3120.00
03291            -504.00     3120.00
03292            -496.00     3120.00
03293            -488.00     3040.00
03294            -472.00     2960.00
03295            -456.00     2960.00
03296            -448.00     2960.00
03297            -440.00     2800.00
03298            -424.00     2800.00
03299            -392.00     2720.00
03300            -392.00     2640.00
03301            -392.00     2640.00
03302            -392.00     2560.00
03303            -376.00     2480.00
03304            -360.00     2480.00
03305            -352.00     2400.00
03306            -344.00     2320.00
03307            -352.00     2240.00
03308            -320.00     2240.00
03309            -304.00     2160.00
03310            -296.00     2080.00
03311            -296.00     2000.00
03312            -288.00     1920.00
03313            -264.00     1840.00
03314            -280.00     1760.00
03315            -256.00     1680.00
03316            -248.00     1680.00
03317            -224.00     1600.00
03318            -224.00     1520.00
03319            -216.00     1440.00
03320            -224.00     1360.00
03321            -224.00     1360.00
03322            -200.00     1200.00
03323            -192.00     1200.00
03324            -168.00     1120.00
03325            -176.00     1040.00
03326            -168.00      880.00
03327            -136.00      880.00
03328            -128.00      800.00
03329            -136.00      800.00
03330            -136.00      640.00
03331            -136.00      560.00
03332            -136.00      560.00
03333            -120.00      400.00
03334             -96.00      400.00
03335             -88.00      320.00
03336             -96.00      240.00
03337             -96.00      160.00
03338             -88.00       80.00
03339             -56.00       80.00
03340             -40.00      -80.00
03341             -24.00     -160.00
03342               0.00     -240.00
03343               8.00     -240.00
03344               8.00     -320.00
03345               8.00     -400.00
03346               0.00     -480.00
03347              -8.00     -560.00
03348              40.00     -560.00
03349             328.00     -720.00
03350             672.00     -880.00
03351             248.00     -960.00
03352           -1016.00     -880.00
03353           -1016.00     -800.00
03354             248.00    -1120.00
03355             984.00    -1200.00
03356            -264.00    -1040.00
03357            -360.00    -1280.00
03358             664.00    -1680.00
03359             280.00    -1040.00
03360            -416.00    -1200.00
03361             -80.00    -2000.00
03362             384.00    -1680.00
03363             144.00    -1200.00
03364               0.00    -1840.00
03365               0.00    -2240.00
03366               0.00    -1440.00
03367              64.00    -1840.00
03368             128.00    -2400.00
03369             152.00    -2000.00
03370             200.00    -1840.00
03371            -120.00    -2480.00
03372              40.00    -2400.00
03373             504.00    -2000.00
03374              -8.00    -2400.00
03375            -176.00    -2720.00
03376             448.00    -2400.00
03377             264.00    -2320.00
03378            -256.00    -2800.00
03379             224.00    -2800.00
03380             376.00    -2400.00
03381              24.00    -2800.00
03382             152.00    -3120.00
03383             288.00    -2640.00
03384              96.00    -2800.00
03385              88.00    -3280.00
03386             288.00    -2960.00
03387             232.00    -2800.00
03388              96.00    -3360.00
03389             176.00    -3280.00
03390             320.00    -3040.00
03391             168.00    -3360.00
03392             128.00    -3440.00
03393             344.00    -3280.00
03394             272.00    -3280.00
03395             120.00    -3600.00
03396             280.00    -3440.00
03397             328.00    -3440.00
03398             192.00    -3600.00
03399             248.00    -3680.00
03400             328.00    -3520.00
03401             224.00    -3680.00
03402             248.00    -3760.00
03403             400.00    -3600.00
03404             344.00    -3600.00
03405             248.00    -3840.00
03406             320.00    -3760.00
03407             344.00    -3680.00
03408             272.00    -3840.00
03409             344.00    -3920.00
03410             424.00    -3760.00
03411             360.00    -3840.00
03412             328.00    -4000.00
03413             408.00    -3760.00
03414             376.00    -3840.00
03415             344.00    -3920.00
03416             440.00    -3920.00
03417             472.00    -3840.00
03418             392.00    -3920.00
03419             424.00    -4000.00
03420             488.00    -3920.00
03421             424.00    -3920.00
03422             416.00    -4000.00
03423             512.00    -3920.00
03424             520.00    -3920.00
03425             472.00    -4000.00
03426             512.00    -4000.00
03427             544.00    -3840.00
03428             488.00    -3920.00
03429             520.00    -4000.00
03430             584.00    -3920.00
03431             568.00    -3840.00
03432             536.00    -3920.00
03433             576.00    -3840.00
03434             584.00    -3760.00
03435             552.00    -3920.00
03436             584.00    -3920.00
03437             624.00    -3760.00
03438             576.00    -3760.00
03439             584.00    -3760.00
03440             608.00    -3680.00
03441             576.00    -3680.00
03442             568.00    -3680.00
03443             600.00    -3680.00
03444             608.00    -3600.00
03445             576.00    -3600.00
03446             576.00    -3600.00
03447             576.00    -3520.00
03448             568.00    -3520.00
03449             552.00    -3440.00
03450             576.00    -3440.00
03451             560.00    -3360.00
03452             536.00    -3360.00
03453             536.00    -3280.00
03454             536.00    -3280.00
03455             504.00    -3280.00
03456             512.00    -3120.00
03457             520.00    -3120.00
03458             488.00    -3040.00
03459             472.00    -3040.00
03460             480.00    -3040.00
03461             456.00    -2880.00
03462             448.00    -2960.00
03463             448.00    -2880.00
03464             440.00    -2800.00
03465             408.00    -2720.00
03466             408.00    -2720.00
03467             400.00    -2640.00
03468             384.00    -2560.00
03469             384.00    -2560.00
03470             376.00    -2400.00
03471             360.00    -2400.00
03472             344.00    -2400.00
03473             344.00    -2320.00
03474             328.00    -2240.00
03475             312.00    -2160.00
03476             312.00    -2080.00
03477             312.00    -2080.00
03478             280.00    -2000.00
03479             272.00    -1920.00
03480             264.00    -1840.00
03481             256.00    -1760.00
03482             248.00    -1760.00
03483             248.00    -1680.00
03484             232.00    -1520.00
03485             224.00    -1520.00
03486             216.00    -1440.00
03487             208.00    -1360.00
03488             192.00    -1280.00
03489             184.00    -1200.00
03490             192.00    -1120.00
03491             184.00    -1120.00
03492             160.00    -1040.00
03493             152.00     -960.00
03494             144.00     -880.00
03495             128.00     -800.00
03496             136.00     -720.00
03497             128.00     -640.00
03498             120.00     -560.00
03499             104.00     -480.00
03500              96.00     -320.00
03501              96.00     -320.00
03502              88.00     -240.00
03503              88.00     -160.00
03504              80.00     -160.00
03505              72.00      -80.00
03506              72.00        0.00
03507              72.00       80.00
03508              64.00      160.00
03509              96.00      240.00
03510             120.00      240.00
03511             104.00      320.00
03512              64.00      400.00
03513              40.00      480.00
03514              32.00      560.00
03515             136.00      640.00
03516             616.00      800.00
03517             728.00      880.00
03518            -512.00      880.00
03519           -1016.00      800.00
03520            -640.00      880.00
03521             984.00     1360.00
03522             384.00     1360.00
03523            -776.00     1040.00
03524             128.00     1120.00
03525             888.00     1600.00
03526            -664.00     1680.00
03527            -792.00     1200.00
03528             712.00     1520.00
03529             296.00     2080.00
03530            -672.00     1600.00
03531             -40.00     1360.00
03532             232.00     2160.00
03533            -288.00     2320.00
03534            -280.00     1440.00
03535             128.00     2000.00
03536              88.00     2720.00
03537            -280.00     1840.00
03538            -296.00     1840.00
03539             136.00     2800.00
03540              24.00     2480.00
03541            -512.00     2080.00
03542             -40.00     2720.00
03543             232.00     2720.00
03544            -472.00     2320.00
03545            -264.00     2640.00
03546             168.00     2800.00
03547            -280.00     2800.00
03548            -248.00     2720.00
03549              40.00     2880.00
03550            -256.00     3120.00
03551            -248.00     2880.00
03552            -104.00     2960.00
03553            -200.00     3280.00
03554            -184.00     3120.00
03555            -224.00     2960.00
03556            -224.00     3360.00
03557            -192.00     3280.00
03558            -248.00     3200.00
03559            -168.00     3440.00
03560            -192.00     3440.00
03561            -328.00     3360.00
03562            -248.00     3440.00
03563            -200.00     3600.00
03564            -280.00     3440.00
03565            -248.00     3520.00
03566            -256.00     3680.00
03567            -320.00     3680.00
03568            -304.00     3600.00
03569            -232.00     3760.00
03570            -280.00     3760.00
03571            -360.00     3680.00
03572            -296.00     3760.00
03573            -296.00     3920.00
03574            -384.00     3760.00
03575            -344.00     3840.00
03576            -320.00     3920.00
03577            -384.00     3920.00
03578            -360.00     3840.00
03579            -328.00     4000.00
03580            -408.00     4000.00
03581            -448.00     3920.00
03582            -384.00     3920.00
03583            -360.00     4080.00
03584            -456.00     3920.00
03585            -456.00     4000.00
03586            -408.00     4000.00
03587            -472.00     4000.00
03588            -504.00     3920.00
03589            -448.00     4000.00
03590            -464.00     4000.00
03591            -520.00     4000.00
03592            -504.00     4000.00
03593            -480.00     4080.00
03594            -544.00     3920.00
03595            -568.00     4000.00
03596            -512.00     4000.00
03597            -536.00     4000.00
03598            -576.00     3920.00
03599            -568.00     3920.00
03600            -552.00     4000.00
03601            -592.00     3920.00
03602            -584.00     3920.00
03603            -576.00     3920.00
03604            -584.00     3840.00
03605            -600.00     3760.00
03606            -584.00     3840.00
03607            -600.00     3760.00
03608            -616.00     3760.00
03609            -592.00     3760.00
03610            -576.00     3760.00
03611            -576.00     3680.00
03612            -592.00     3680.00
03613            -576.00     3600.00
03614            -584.00     3520.00
03615            -576.00     3520.00
03616            -552.00     3520.00
03617            -552.00     3440.00
03618            -568.00     3360.00
03619            -552.00     3360.00
03620            -544.00     3360.00
03621            -544.00     3280.00
03622            -520.00     3280.00
03623            -512.00     3280.00
03624            -504.00     3120.00
03625            -488.00     3120.00
03626            -488.00     3120.00
03627            -488.00     3040.00
03628            -480.00     3040.00
03629            -448.00     2960.00
03630            -448.00     2960.00
03631            -448.00     2800.00
03632            -424.00     2800.00
03633            -416.00     2720.00
03634            -408.00     2640.00
03635            -400.00     2640.00
03636            -384.00     2640.00
03637            -376.00     2480.00
03638            -368.00     2480.00
03639            -344.00     2400.00
03640            -352.00     2320.00
03641            -352.00     2240.00
03642            -320.00     2240.00
03643            -312.00     2160.00
03644            -296.00     2080.00
03645            -296.00     2000.00
03646            -288.00     1840.00
03647            -280.00     1920.00
03648            -272.00     1760.00
03649            -248.00     1760.00
03650            -232.00     1680.00
03651            -232.00     1600.00
03652            -240.00     1520.00
03653            -224.00     1440.00
03654            -224.00     1440.00
03655            -216.00     1280.00
03656            -192.00     1200.00
03657            -168.00     1200.00
03658            -184.00     1120.00
03659            -184.00     1040.00
03660            -168.00      960.00
03661            -152.00      960.00
03662            -136.00      800.00
03663            -136.00      720.00
03664            -136.00      720.00
03665            -136.00      560.00
03666            -128.00      560.00
03667            -112.00      480.00
03668            -104.00      400.00
03669             -96.00      320.00
03670             -96.00      240.00
03671             -88.00      160.00
03672             -72.00       80.00
03673             -64.00       80.00
03674             -56.00      -80.00
03675             -40.00      -80.00
03676              -8.00     -160.00
03677              16.00     -240.00
03678               8.00     -240.00
03679               0.00     -400.00
03680              -8.00     -480.00
03681             -16.00     -480.00
03682              24.00     -560.00
03683             296.00     -640.00
03684             672.00     -880.00
03685             352.00     -880.00
03686           -1000.00     -880.00
03687           -1016.00     -720.00
03688              72.00    -1120.00
03689             984.00    -1120.00
03690            -168.00    -1040.00
03691            -416.00    -1200.00
03692             576.00    -1680.00
03693             384.00    -1200.00
03694            -376.00    -1200.00
03695            -160.00    -2000.00
03696             384.00    -1680.00
03697             160.00    -1200.00
03698              -8.00    -1840.00
03699               8.00    -2320.00
03700               0.00    -1440.00
03701              64.00    -1680.00
03702             128.00    -2400.00
03703             128.00    -2000.00
03704             232.00    -1760.00
03705            -104.00    -2480.00
03706               0.00    -2480.00
03707             504.00    -2000.00
03708              40.00    -2320.00
03709            -232.00    -2800.00
03710             408.00    -2400.00
03711             344.00    -2320.00
03712            -256.00    -2800.00
03713             168.00    -2800.00
03714             392.00    -2400.00
03715              32.00    -2720.00
03716             120.00    -3120.00
03717             312.00    -2720.00
03718             128.00    -2720.00
03719              88.00    -3280.00
03720             280.00    -3040.00
03721             248.00    -2800.00
03722              88.00    -3280.00
03723             152.00    -3280.00
03724             328.00    -3040.00
03725             200.00    -3280.00
03726             128.00    -3440.00
03727             320.00    -3280.00
03728             280.00    -3280.00
03729             120.00    -3600.00
03730             256.00    -3440.00
03731             344.00    -3360.00
03732             200.00    -3600.00
03733             248.00    -3600.00
03734             344.00    -3440.00
03735             232.00    -3600.00
03736             224.00    -3680.00
03737             384.00    -3600.00
03738             344.00    -3680.00
03739             248.00    -3760.00
03740             328.00    -3760.00
03741             360.00    -3680.00
03742             280.00    -3760.00
03743             320.00    -3840.00
03744             408.00    -3760.00
03745             360.00    -3920.00
03746             344.00    -3920.00
03747             408.00    -3840.00
03748             408.00    -3760.00
03749             344.00    -3920.00
03750             424.00    -3920.00
03751             456.00    -3840.00
03752             384.00    -3920.00
03753             416.00    -4000.00
03754             488.00    -3920.00
03755             448.00    -3920.00
03756             416.00    -4000.00
03757             504.00    -3920.00
03758             512.00    -3920.00
03759             456.00    -4000.00
03760             512.00    -4000.00
03761             544.00    -3840.00
03762             496.00    -3920.00
03763             512.00    -4000.00
03764             600.00    -3920.00
03765             576.00    -3920.00
03766             536.00    -3920.00
03767             576.00    -3840.00
03768             584.00    -3840.00
03769             552.00    -3840.00
03770             576.00    -3760.00
03771             616.00    -3760.00
03772             592.00    -3760.00
03773             576.00    -3760.00
03774             608.00    -3680.00
03775             584.00    -3680.00
03776             568.00    -3760.00
03777             600.00    -3600.00
03778             608.00    -3600.00
03779             576.00    -3600.00
03780             568.00    -3600.00
03781             576.00    -3520.00
03782             560.00    -3520.00
03783             568.00    -3520.00
03784             576.00    -3360.00
03785             568.00    -3360.00
03786             536.00    -3440.00
03787             536.00    -3360.00
03788             536.00    -3280.00
03789             504.00    -3280.00
03790             504.00    -3200.00
03791             512.00    -3120.00
03792             504.00    -3120.00
03793             488.00    -3040.00
03794             480.00    -2880.00
03795             472.00    -2960.00
03796             448.00    -2880.00
03797             448.00    -2800.00
03798             448.00    -2800.00
03799             416.00    -2800.00
03800             408.00    -2720.00
03801             400.00    -2640.00
03802             384.00    -2640.00
03803             384.00    -2480.00
03804             384.00    -2480.00
03805             376.00    -2400.00
03806             352.00    -2400.00
03807             344.00    -2320.00
03808             320.00    -2240.00
03809             312.00    -2160.00
03810             312.00    -2080.00
03811             320.00    -2000.00
03812             288.00    -2000.00
03813             280.00    -1840.00
03814             256.00    -1840.00
03815             264.00    -1760.00
03816             248.00    -1760.00
03817             248.00    -1680.00
03818             232.00    -1520.00
03819             216.00    -1520.00
03820             200.00    -1440.00
03821             200.00    -1360.00
03822             192.00    -1280.00
03823             184.00    -1200.00
03824             192.00    -1200.00
03825             176.00    -1040.00
03826             160.00    -1040.00
03827             152.00     -960.00
03828             152.00     -880.00
03829             144.00     -800.00
03830             136.00     -720.00
03831             136.00     -640.00
03832             120.00     -560.00
03833             104.00     -480.00
03834              96.00     -400.00
03835              96.00     -320.00
03836              88.00     -240.00
03837              88.00     -240.00
03838              88.00     -160.00
03839              72.00        0.00
03840              72.00       80.00
03841              72.00       80.00
03842              56.00      160.00
03843              88.00      240.00
03844             120.00      240.00
03845             104.00      400.00
03846              64.00      400.00
03847              40.00      480.00
03848              40.00      560.00
03849             112.00      640.00
03850             576.00      800.00
03851             776.00      880.00
03852            -344.00      880.00
03853           -1016.00      720.00
03854            -808.00      880.00
03855             984.00     1360.00
03856             568.00     1360.00
03857            -760.00     1040.00
03858             -24.00     1040.00
03859             952.00     1600.00
03860            -528.00     1680.00
03861            -888.00     1200.00
03862             616.00     1440.00
03863             408.00     2080.00
03864            -640.00     1680.00
03865            -128.00     1360.00
03866             256.00     2160.00
03867            -232.00     2320.00
03868            -320.00     1440.00
03869             136.00     1840.00
03870              96.00     2720.00
03871            -248.00     2000.00
03872            -320.00     1840.00
03873              96.00     2720.00
03874              80.00     2480.00
03875            -488.00     2000.00
03876            -128.00     2640.00
03877             264.00     2800.00
03878            -408.00     2400.00
03879            -328.00     2640.00
03880             168.00     2800.00
03881            -224.00     2800.00
03882            -280.00     2720.00
03883              32.00     2800.00
03884            -232.00     3120.00
03885            -280.00     2960.00
03886            -104.00     2960.00
03887            -192.00     3280.00
03888            -168.00     3120.00
03889            -208.00     3040.00
03890            -248.00     3360.00
03891            -200.00     3280.00
03892            -248.00     3200.00
03893            -192.00     3440.00
03894            -168.00     3440.00
03895            -320.00     3360.00
03896            -264.00     3440.00
03897            -192.00     3600.00
03898            -272.00     3600.00
03899            -256.00     3520.00
03900            -256.00     3680.00
03901            -328.00     3680.00
03902            -320.00     3600.00
03903            -248.00     3760.00
03904            -264.00     3760.00
03905            -352.00     3680.00
03906            -296.00     3760.00
03907            -288.00     3920.00
03908            -376.00     3760.00
03909            -360.00     3760.00
03910            -312.00     3920.00
03911            -376.00     3920.00
03912            -376.00     3840.00
03913            -344.00     3920.00
03914            -392.00     4000.00
03915            -448.00     3920.00
03916            -376.00     4000.00
03917            -360.00     4000.00
03918            -448.00     4000.00
03919            -456.00     4000.00
03920            -400.00     4080.00
03921            -456.00     4000.00
03922            -504.00     3920.00
03923            -448.00     4000.00
03924            -456.00     4080.00
03925            -520.00     3920.00
03926            -488.00     4000.00
03927            -480.00     4000.00
03928            -544.00     4000.00
03929            -576.00     3920.00
03930            -512.00     4000.00
03931            -520.00     3920.00
03932            -576.00     3920.00
03933            -568.00     3920.00
03934            -552.00     3920.00
03935            -584.00     3920.00
03936            -576.00     3840.00
03937            -576.00     3920.00
03938            -584.00     3760.00
03939            -600.00     3760.00
03940            -584.00     3760.00
03941            -600.00     3760.00
03942            -616.00     3760.00
03943            -600.00     3760.00
03944            -576.00     3680.00
03945            -584.00     3680.00
03946            -584.00     3600.00
03947            -584.00     3680.00
03948            -584.00     3600.00
03949            -576.00     3600.00
03950            -552.00     3600.00
03951            -552.00     3440.00
03952            -568.00     3360.00
03953            -552.00     3440.00
03954            -544.00     3360.00
03955            -544.00     3280.00
03956            -520.00     3280.00
03957            -512.00     3280.00
03958            -504.00     3280.00
03959            -488.00     3120.00
03960            -488.00     3120.00
03961            -488.00     3040.00
03962            -480.00     3040.00
03963            -456.00     2960.00
03964            -448.00     2960.00
03965            -448.00     2800.00
03966            -440.00     2800.00
03967            -408.00     2720.00
03968            -416.00     2720.00
03969            -392.00     2640.00
03970            -384.00     2640.00
03971            -384.00     2480.00
03972            -360.00     2400.00
03973            -352.00     2400.00
03974            -344.00     2320.00
03975            -352.00     2320.00
03976            -328.00     2160.00
03977            -312.00     2160.00
03978            -296.00     2080.00
03979            -296.00     2080.00
03980            -288.00     2000.00
03981            -280.00     1840.00
03982            -264.00     1840.00
03983            -256.00     1760.00
03984            -232.00     1680.00
03985            -248.00     1600.00
03986            -232.00     1520.00
03987            -216.00     1520.00
03988            -216.00     1360.00
03989            -200.00     1360.00
03990            -200.00     1280.00
03991            -192.00     1200.00
03992            -184.00     1200.00
03993            -176.00     1040.00
03994            -144.00      960.00
03995            -128.00      880.00
03996            -136.00      880.00
03997            -160.00      720.00
03998            -144.00      720.00
03999            -136.00      640.00
04000            -128.00      480.00
04001            -104.00      480.00
04002             -88.00      400.00
04003             -88.00      320.00
04004             -72.00      240.00
04005             -72.00      160.00
04006             -88.00      160.00
04007             -88.00        0.00
04008             -64.00        0.00
04009             -40.00      -80.00
04010              -8.00     -160.00
04011              32.00     -240.00
04012              40.00     -320.00
04013               8.00     -320.00
04014               0.00     -480.00
04015             -16.00     -480.00
04016               8.00     -560.00
04017             248.00     -720.00
04018             664.00     -800.00
04019             424.00    -1040.00
04020            -872.00     -960.00
04021           -1016.00     -800.00
04022             -72.00    -1120.00
04023             984.00    -1120.00
04024             -64.00    -1040.00
04025            -456.00    -1120.00
04026             480.00    -1680.00
04027             496.00    -1200.00
04028            -336.00    -1120.00
04029            -232.00    -1840.00
04030             376.00    -1760.00
04031             168.00    -1200.00
04032              -8.00    -1760.00
04033              32.00    -2400.00
04034               0.00    -1520.00
04035              64.00    -1680.00
04036             128.00    -2400.00
04037              88.00    -2080.00
04038             248.00    -1760.00
04039             -72.00    -2400.00
04040             -32.00    -2480.00
04041             472.00    -2000.00
04042             104.00    -2320.00
04043            -264.00    -2800.00
04044             352.00    -2400.00
04045             408.00    -2240.00
04046            -224.00    -2720.00
04047             120.00    -2880.00
04048             392.00    -2400.00
04049              64.00    -2720.00
04050              80.00    -3120.00
04051             312.00    -2800.00
04052             152.00    -2720.00
04053              80.00    -3280.00
04054             264.00    -3040.00
04055             264.00    -2800.00
04056             104.00    -3280.00
04057             128.00    -3360.00
04058             320.00    -2960.00
04059             216.00    -3280.00
04060             120.00    -3440.00
04061             296.00    -3280.00
04062             312.00    -3280.00
04063             128.00    -3520.00
04064             232.00    -3440.00
04065             352.00    -3360.00
04066             216.00    -3680.00
04067             224.00    -3600.00
04068             344.00    -3440.00
04069             256.00    -3600.00
04070             216.00    -3760.00
04071             352.00    -3600.00
04072             352.00    -3600.00
04073             248.00    -3760.00
04074             328.00    -3760.00
04075             384.00    -3680.00
04076             288.00    -3840.00
04077             304.00    -3920.00
04078             408.00    -3760.00
04079             376.00    -3760.00
04080             344.00    -4000.00
04081             408.00    -3920.00
04082             392.00    -3760.00
04083             344.00    -3920.00
04084             424.00    -4000.00
04085             464.00    -3840.00
04086             408.00    -3920.00
04087             416.00    -4000.00
04088             496.00    -3840.00
04089             448.00    -3920.00
04090             440.00    -4080.00
04091             512.00    -3920.00
04092             496.00    -3920.00
04093             440.00    -3920.00
04094             504.00    -4000.00
04095             568.00    -3840.00
04096             512.00    -3920.00
04097             512.00    -4000.00
04098             600.00    -3920.00
04099             552.00    -3840.00
04100             512.00    -3920.00
04101             568.00    -3840.00
04102             592.00    -3760.00
04103             552.00    -3840.00
04104             576.00    -3840.00
04105             616.00    -3760.00
04106             584.00    -3760.00
04107             568.00    -3760.00
04108             592.00    -3680.00
04109             584.00    -3680.00
04110             568.00    -3680.00
04111             600.00    -3680.00
04112             616.00    -3600.00
04113             584.00    -3600.00
04114             552.00    -3600.00
04115             552.00    -3440.00
04116             544.00    -3520.00
04117             568.00    -3440.00
04118             616.00    -3440.00
04119             632.00    -3360.00
04120             584.00    -3360.00
04121             552.00    -3360.00
04122             488.00    -3280.00
04123             440.00    -3280.00
04124             440.00    -3120.00
04125             472.00    -3200.00
04126             504.00    -3120.00
04127             520.00    -3040.00
04128             552.00    -2960.00
04129             536.00    -2960.00
04130             496.00    -2880.00
04131             448.00    -2800.00
04132             408.00    -2800.00
04133             360.00    -2720.00
04134             352.00    -2640.00
04135             384.00    -2640.00
04136             384.00    -2640.00
04137             408.00    -2480.00
04138             424.00    -2480.00
04139             416.00    -2400.00
04140             384.00    -2320.00
04141             352.00    -2320.00
04142             312.00    -2240.00
04143             280.00    -2160.00
04144             256.00    -2160.00
04145             280.00    -2000.00
04146             272.00    -2000.00
04147             280.00    -1920.00
04148             312.00    -1840.00
04149             312.00    -1760.00
04150             296.00    -1760.00
04151             280.00    -1680.00
04152             240.00    -1520.00
04153             184.00    -1520.00
04154             152.00    -1440.00
04155             152.00    -1440.00
04156             152.00    -1360.00
04157             184.00    -1200.00
04158             224.00    -1120.00
04159             232.00    -1120.00
04160             208.00    -1040.00
04161             168.00     -960.00
04162             128.00     -880.00
04163              96.00     -800.00
04164              88.00     -720.00
04165             104.00     -640.00
04166             120.00     -560.00
04167             120.00     -480.00
04168             128.00     -400.00
04169             136.00     -320.00
04170             128.00     -240.00
04171              96.00     -240.00
04172              48.00      -80.00
04173              16.00      -80.00
04174              24.00        0.00
04175              56.00       80.00
04176              72.00      160.00
04177             120.00      240.00
04178             144.00      320.00
04179             128.00      400.00
04180              96.00      400.00
04181              64.00      480.00
04182               0.00      560.00
04183              56.00      640.00
04184             512.00      800.00
04185             800.00      960.00
04186            -192.00      880.00
04187           -1016.00      720.00
04188            -936.00      880.00
04189             984.00     1280.00
04190             760.00     1440.00
04191            -680.00     1040.00
04192            -160.00     1120.00
04193             960.00     1520.00
04194            -424.00     1760.00
04195            -976.00     1280.00
04196             496.00     1360.00
04197             512.00     2080.00
04198            -544.00     1760.00
04199            -192.00     1360.00
04200             296.00     2080.00
04201            -192.00     2400.00
04202            -392.00     1520.00
04203              96.00     1760.00
04204              96.00     2720.00
04205            -216.00     2080.00
04206            -344.00     1760.00
04207              56.00     2720.00
04208             152.00     2480.00
04209            -424.00     2000.00
04210            -184.00     2640.00
04211             288.00     2800.00
04212            -376.00     2400.00
04213            -424.00     2560.00
04214             168.00     2800.00
04215            -168.00     2800.00
04216            -328.00     2640.00
04217              24.00     2800.00
04218            -184.00     3120.00
04219            -264.00     2960.00
04220            -104.00     2800.00
04221            -184.00     3280.00
04222            -176.00     3120.00
04223            -232.00     3040.00
04224            -256.00     3360.00
04225            -168.00     3280.00
04226            -232.00     3120.00
04227            -224.00     3360.00
04228            -152.00     3440.00
04229            -312.00     3360.00
04230            -280.00     3440.00
04231            -184.00     3520.00
04232            -256.00     3520.00
04233            -272.00     3440.00
04234            -264.00     3600.00
04235            -312.00     3680.00
04236            -312.00     3600.00
04237            -256.00     3760.00
04238            -264.00     3840.00
04239            -368.00     3680.00
04240            -344.00     3760.00
04241            -280.00     3840.00
04242            -320.00     3920.00
04243            -320.00     3760.00
04244            -296.00     3920.00
04245            -376.00     3920.00
04246            -392.00     3840.00
04247            -376.00     3920.00
04248            -392.00     4000.00
04249            -432.00     3920.00
04250            -376.00     4000.00
04251            -344.00     4080.00
04252            -424.00     4000.00
04253            -472.00     3920.00
04254            -424.00     4000.00
04255            -456.00     4000.00
04256            -504.00     4000.00
04257            -448.00     4080.00
04258            -432.00     4080.00
04259            -488.00     4000.00
04260            -512.00     3920.00
04261            -480.00     4080.00
04262            -536.00     4000.00
04263            -576.00     3920.00
04264            -520.00     4000.00
04265            -512.00     4000.00
04266            -568.00     3920.00
04267            -576.00     3920.00
04268            -568.00     3920.00
04269            -576.00     4000.00
04270            -584.00     3920.00
04271            -560.00     3920.00
04272            -552.00     3920.00
04273            -600.00     3760.00
04274            -608.00     3840.00
04275            -608.00     3760.00
04276            -616.00     3760.00
04277            -584.00     3680.00
04278            -552.00     3680.00
04279            -568.00     3680.00
04280            -608.00     3600.00
04281            -608.00     3680.00
04282            -608.00     3600.00
04283            -576.00     3520.00
04284            -552.00     3520.00
04285            -536.00     3440.00
04286            -552.00     3440.00
04287            -552.00     3440.00
04288            -544.00     3360.00
04289            -544.00     3280.00
04290            -536.00     3280.00
04291            -512.00     3200.00
04292            -496.00     3280.00
04293            -504.00     3120.00
04294            -504.00     3040.00
04295            -512.00     3040.00
04296            -480.00     2960.00
04297            -448.00     2960.00
04298            -424.00     2880.00
04299            -424.00     2800.00
04300            -432.00     2800.00
04301            -424.00     2720.00
04302            -416.00     2640.00
04303            -408.00     2640.00
04304            -392.00     2560.00
04305            -376.00     2480.00
04306            -360.00     2480.00
04307            -352.00     2400.00
04308            -344.00     2320.00
04309            -352.00     2320.00
04310            -328.00     2240.00
04311            -312.00     2160.00
04312            -296.00     2080.00
04313            -304.00     2080.00
04314            -288.00     2000.00
04315            -280.00     1840.00
04316            -264.00     1840.00
04317            -256.00     1760.00
04318            -232.00     1680.00
04319            -224.00     1680.00
04320            -232.00     1520.00
04321            -224.00     1520.00
04322            -216.00     1440.00
04323            -216.00     1360.00
04324            -192.00     1280.00
04325            -168.00     1200.00
04326            -168.00     1120.00
04327            -184.00     1040.00
04328            -168.00      960.00
04329            -152.00      880.00
04330            -136.00      880.00
04331            -128.00      720.00
04332            -136.00      720.00
04333            -136.00      560.00
04334            -128.00      560.00
04335            -120.00      560.00
04336             -96.00      400.00
04337             -96.00      320.00
04338             -88.00      240.00
04339             -88.00       80.00
04340             -72.00      160.00
04341             -72.00       80.00
04342             -64.00        0.00
04343             -40.00      -80.00
04344               0.00     -160.00
04345              32.00     -240.00
04346              24.00     -240.00
04347               0.00     -400.00
04348             -16.00     -400.00
04349             -16.00     -480.00
04350              24.00     -560.00
04351             224.00     -720.00
04352             640.00     -800.00
04353             488.00    -1040.00
04354            -744.00     -880.00
04355           -1016.00     -800.00
04356            -248.00    -1040.00
04357             984.00    -1200.00
04358              56.00    -1120.00
04359            -480.00    -1120.00
04360             376.00    -1760.00
04361             576.00    -1280.00
04362            -312.00    -1120.00
04363            -296.00    -1840.00
04364             376.00    -1840.00
04365             216.00    -1200.00
04366               8.00    -1680.00
04367              32.00    -2320.00
04368             -24.00    -1600.00
04369              56.00    -1600.00
04370             128.00    -2400.00
04371              88.00    -2160.00
04372             272.00    -1680.00
04373             -56.00    -2320.00
04374             -72.00    -2480.00
04375             440.00    -2000.00
04376             168.00    -2240.00
04377            -280.00    -2720.00
04378             296.00    -2480.00
04379             448.00    -2320.00
04380            -200.00    -2640.00
04381              56.00    -2960.00
04382             408.00    -2480.00
04383              88.00    -2640.00
04384              56.00    -3120.00
04385             312.00    -2800.00
04386             168.00    -2640.00
04387              88.00    -3200.00
04388             248.00    -3120.00
04389             264.00    -2800.00
04390             104.00    -3200.00
04391             120.00    -3360.00
04392             320.00    -3040.00
04393             248.00    -3200.00
04394             120.00    -3440.00
04395             288.00    -3280.00
04396             328.00    -3280.00
04397             128.00    -3520.00
04398             216.00    -3440.00
04399             360.00    -3360.00
04400             216.00    -3600.00
04401             216.00    -3680.00
04402             344.00    -3520.00
04403             256.00    -3520.00
04404             200.00    -3760.00
04405             352.00    -3600.00
04406             376.00    -3600.00
04407             256.00    -3760.00
04408             320.00    -3760.00
04409             392.00    -3680.00
04410             296.00    -3760.00
04411             312.00    -3920.00
04412             408.00    -3760.00
04413             360.00    -3760.00
04414             312.00    -4000.00
04415             408.00    -3920.00
04416             424.00    -3760.00
04417             344.00    -3920.00
04418             392.00    -3920.00
04419             456.00    -3840.00
04420             384.00    -3920.00
04421             408.00    -4000.00
04422             504.00    -3920.00
04423             472.00    -3920.00
04424             376.00    -4000.00
04425             448.00    -3920.00
04426             536.00    -3920.00
04427             488.00    -4000.00
04428             512.00    -4000.00
04429             560.00    -3920.00
04430             512.00    -3920.00
04431             480.00    -3920.00
04432             552.00    -3840.00
04433             584.00    -3920.00
04434             560.00    -3920.00
04435             536.00    -3920.00
04436             552.00    -3840.00
04437             568.00    -3840.00
04438             584.00    -3840.00
04439             632.00    -3840.00
04440             616.00    -3760.00
04441             584.00    -3760.00
04442             568.00    -3760.00
04443             552.00    -3680.00
04444             568.00    -3680.00
04445             608.00    -3680.00
04446             632.00    -3600.00
04447             592.00    -3600.00
04448             568.00    -3680.00
04449             568.00    -3520.00
04450             568.00    -3520.00
04451             568.00    -3520.00
04452             576.00    -3440.00
04453             568.00    -3360.00
04454             536.00    -3360.00
04455             536.00    -3360.00
04456             536.00    -3280.00
04457             512.00    -3280.00
04458             512.00    -3120.00
04459             520.00    -3120.00
04460             520.00    -3040.00
04461             504.00    -3040.00
04462             472.00    -3040.00
04463             456.00    -2880.00
04464             448.00    -2880.00
04465             448.00    -2800.00
04466             448.00    -2800.00
04467             440.00    -2720.00
04468             416.00    -2720.00
04469             408.00    -2640.00
04470             392.00    -2640.00
04471             384.00    -2560.00
04472             368.00    -2480.00
04473             376.00    -2400.00
04474             360.00    -2400.00
04475             344.00    -2320.00
04476             320.00    -2240.00
04477             312.00    -2160.00
04478             304.00    -2160.00
04479             312.00    -2080.00
04480             304.00    -2000.00
04481             288.00    -1840.00
04482             264.00    -1840.00
04483             248.00    -1840.00
04484             248.00    -1680.00
04485             248.00    -1680.00
04486             232.00    -1520.00
04487             224.00    -1440.00
04488             216.00    -1440.00
04489             200.00    -1360.00
04490             192.00    -1360.00
04491             184.00    -1200.00
04492             184.00    -1200.00
04493             184.00    -1120.00
04494             160.00    -1120.00
04495             152.00     -880.00
04496             136.00     -880.00
04497             136.00     -800.00
04498             136.00     -720.00
04499             128.00     -720.00
04500             128.00     -640.00
04501             120.00     -480.00
04502              96.00     -400.00
04503              88.00     -400.00
04504              96.00     -320.00
04505              88.00     -240.00
04506              88.00     -160.00
04507              64.00      -80.00
04508              72.00      -80.00
04509              64.00       80.00
04510              72.00      160.00
04511              88.00      240.00
04512             120.00      240.00
04513             112.00      320.00
04514              72.00      400.00
04515              40.00      480.00
04516              32.00      480.00
04517              72.00      560.00
04518             472.00      720.00
04519             808.00      880.00
04520             -24.00      880.00
04521           -1016.00      720.00
04522           -1016.00      880.00
04523             832.00     1200.00
04524             912.00     1440.00
04525            -664.00     1040.00
04526            -296.00     1040.00
04527             984.00     1440.00
04528            -232.00     1760.00
04529           -1016.00     1360.00
04530             376.00     1360.00
04531             600.00     2080.00
04532            -504.00     1840.00
04533            -320.00     1360.00
04534             312.00     1920.00
04535            -136.00     2480.00
04536            -408.00     1520.00
04537              88.00     1680.00
04538             112.00     2640.00
04539            -168.00     2240.00
04540            -328.00     1760.00
04541               8.00     2640.00
04542             168.00     2640.00
04543            -424.00     2000.00
04544            -264.00     2480.00
04545             296.00     2800.00
04546            -288.00     2480.00
04547            -448.00     2480.00
04548             152.00     2800.00
04549            -128.00     2800.00
04550            -360.00     2640.00
04551              24.00     2800.00
04552            -168.00     3120.00
04553            -312.00     2960.00
04554            -104.00     2800.00
04555            -168.00     3280.00
04556            -192.00     3120.00
04557            -200.00     2960.00
04558            -248.00     3360.00
04559            -192.00     3360.00
04560            -232.00     3120.00
04561            -216.00     3440.00
04562            -152.00     3440.00
04563            -296.00     3280.00
04564            -296.00     3440.00
04565            -200.00     3600.00
04566            -280.00     3600.00
04567            -264.00     3440.00
04568            -232.00     3680.00
04569            -304.00     3680.00
04570            -320.00     3600.00
04571            -248.00     3680.00
04572            -256.00     3760.00
04573            -352.00     3680.00
04574            -320.00     3760.00
04575            -288.00     3920.00
04576            -360.00     3840.00
04577            -360.00     3760.00
04578            -304.00     3920.00
04579            -360.00     3920.00
04580            -376.00     3840.00
04581            -336.00     3920.00
04582            -376.00     4000.00
04583            -440.00     3920.00
04584            -400.00     3920.00
04585            -352.00     4000.00
04586            -424.00     4000.00
04587            -472.00     3920.00
04588            -416.00     4000.00
04589            -440.00     4080.00
04590            -488.00     4000.00
04591            -456.00     4000.00
04592            -440.00     4000.00
04593            -512.00     3920.00
04594            -512.00     3920.00
04595            -472.00     4000.00
04596            -520.00     4000.00
04597            -568.00     3920.00
04598            -512.00     4000.00
04599            -512.00     4000.00
04600            -568.00     3920.00
04601            -568.00     3920.00
04602            -552.00     3920.00
04603            -576.00     3920.00
04604            -584.00     3920.00
04605            -576.00     3920.00
04606            -576.00     3760.00
04607            -608.00     3760.00
04608            -584.00     3760.00
04609            -584.00     3760.00
04610            -616.00     3760.00
04611            -600.00     3760.00
04612            -576.00     3680.00
04613            -576.00     3680.00
04614            -584.00     3600.00
04615            -584.00     3600.00
04616            -584.00     3600.00
04617            -584.00     3520.00
04618            -560.00     3520.00
04619            -560.00     3440.00
04620            -568.00     3440.00
04621            -552.00     3360.00
04622            -544.00     3360.00
04623            -544.00     3360.00
04624            -544.00     3280.00
04625            -512.00     3280.00
04626            -512.00     3120.00
04627            -504.00     3120.00
04628            -496.00     3120.00
04629            -496.00     3040.00
04630            -480.00     3040.00
04631            -456.00     2960.00
04632            -440.00     2880.00
04633            -448.00     2800.00
04634            -440.00     2800.00
04635            -424.00     2720.00
04636            -416.00     2720.00
04637            -392.00     2640.00
04638            -384.00     2640.00
04639            -376.00     2480.00
04640            -368.00     2480.00
04641            -360.00     2400.00
04642            -352.00     2400.00
04643            -352.00     2240.00
04644            -328.00     2160.00
04645            -304.00     2160.00
04646            -296.00     2160.00
04647            -296.00     2000.00
04648            -288.00     2000.00
04649            -280.00     1920.00
04650            -264.00     1840.00
04651            -256.00     1680.00
04652            -232.00     1760.00
04653            -232.00     1600.00
04654            -232.00     1600.00
04655            -224.00     1520.00
04656            -216.00     1440.00
04657            -224.00     1360.00
04658            -216.00     1280.00
04659            -168.00     1200.00
04660            -160.00     1200.00
04661            -168.00     1040.00
04662            -168.00     1040.00
04663            -160.00      880.00
04664            -152.00      800.00
04665            -144.00      720.00
04666            -136.00      720.00
04667            -128.00      720.00
04668            -120.00      560.00
04669            -104.00      480.00
04670             -96.00      400.00
04671             -96.00      400.00
04672             -96.00      240.00
04673             -80.00      160.00
04674             -64.00      160.00
04675             -72.00       80.00
04676             -64.00      -80.00
04677             -56.00      -80.00
04678              -8.00     -160.00
04679               8.00     -240.00
04680              24.00     -320.00
04681               8.00     -320.00
04682               0.00     -400.00
04683              -8.00     -480.00
04684              16.00     -560.00
04685             168.00     -720.00
04686             576.00     -800.00
04687             504.00     -960.00
04688            -616.00     -960.00
04689           -1016.00     -800.00
04690            -344.00    -1040.00
04691             984.00    -1200.00
04692             184.00    -1120.00
04693            -520.00    -1040.00
04694             224.00    -1680.00
04695             640.00    -1360.00
04696            -232.00    -1120.00
04697            -320.00    -1760.00
04698             368.00    -1840.00
04699             240.00    -1200.00
04700               0.00    -1600.00
04701              -8.00    -2320.00
04702             -56.00    -1680.00
04703              48.00    -1520.00
04704             128.00    -2320.00
04705              88.00    -2240.00
04706             280.00    -1680.00
04707             -24.00    -2320.00
04708             -72.00    -2560.00
04709             416.00    -2080.00
04710             248.00    -2160.00
04711            -280.00    -2720.00
04712             248.00    -2480.00
04713             488.00    -2240.00
04714            -168.00    -2640.00
04715               0.00    -2880.00
04716             408.00    -2480.00
04717             128.00    -2560.00
04718              40.00    -3120.00
04719             320.00    -2800.00
04720             192.00    -2640.00
04721              56.00    -3120.00
04722             216.00    -3120.00
04723             288.00    -2800.00
04724             128.00    -3200.00
04725             120.00    -3360.00
04726             320.00    -3040.00
04727             256.00    -3040.00
04728             120.00    -3440.00
04729             280.00    -3280.00
04730             336.00    -3280.00
04731             128.00    -3440.00
04732             192.00    -3520.00
04733             352.00    -3360.00
04734             248.00    -3600.00
04735             216.00    -3680.00
04736             344.00    -3440.00
04737             280.00    -3520.00
04738             200.00    -3760.00
04739             344.00    -3680.00
04740             376.00    -3600.00
04741             248.00    -3760.00
04742             288.00    -3840.00
04743             376.00    -3680.00
04744             296.00    -3760.00
04745             296.00    -3920.00
04746             408.00    -3760.00
04747             384.00    -3760.00
04748             320.00    -4000.00
04749             384.00    -3920.00
04750             408.00    -3760.00
04751             344.00    -3920.00
04752             408.00    -4000.00
04753             472.00    -3840.00
04754             392.00    -3920.00
04755             384.00    -4000.00
04756             472.00    -3920.00
04757             456.00    -3840.00
04758             416.00    -4000.00
04759             480.00    -3920.00
04760             520.00    -3920.00
04761             464.00    -3920.00
04762             480.00    -4000.00
04763             536.00    -3920.00
04764             504.00    -3920.00
04765             488.00    -4000.00
04766             568.00    -3920.00
04767             576.00    -3840.00
04768             536.00    -3920.00
04769             568.00    -3920.00
04770             600.00    -3840.00
04771             568.00    -3840.00
04772             560.00    -3840.00
04773             608.00    -3760.00
04774             592.00    -3760.00
04775             576.00    -3760.00
04776             600.00    -3760.00
04777             600.00    -3680.00
04778             576.00    -3760.00
04779             592.00    -3680.00
04780             608.00    -3600.00
04781             584.00    -3600.00
04782             568.00    -3600.00
04783             576.00    -3520.00
04784             568.00    -3600.00
04785             552.00    -3520.00
04786             568.00    -3440.00
04787             576.00    -3360.00
04788             544.00    -3360.00
04789             544.00    -3360.00
04790             544.00    -3280.00
04791             520.00    -3280.00
04792             512.00    -3200.00
04793             520.00    -3120.00
04794             504.00    -3040.00
04795             480.00    -3040.00
04796             480.00    -2960.00
04797             472.00    -2880.00
04798             456.00    -2880.00
04799             456.00    -2800.00
04800             456.00    -2800.00
04801             424.00    -2800.00
04802             408.00    -2720.00
04803             408.00    -2640.00
04804             392.00    -2640.00
04805             384.00    -2560.00
04806             384.00    -2480.00
04807             376.00    -2400.00
04808             344.00    -2400.00
04809             328.00    -2320.00
04810             320.00    -2240.00
04811             312.00    -2160.00
04812             312.00    -2160.00
04813             312.00    -2080.00
04814             296.00    -2000.00
04815             280.00    -1920.00
04816             256.00    -1840.00
04817             264.00    -1840.00
04818             256.00    -1760.00
04819             248.00    -1680.00
04820             248.00    -1600.00
04821             224.00    -1520.00
04822             216.00    -1440.00
04823             200.00    -1360.00
04824             192.00    -1280.00
04825             192.00    -1200.00
04826             184.00    -1200.00
04827             184.00    -1120.00
04828             160.00    -1040.00
04829             152.00     -960.00
04830             144.00     -880.00
04831             128.00     -880.00
04832             136.00     -720.00
04833             128.00     -720.00
04834             128.00     -560.00
04835             104.00     -560.00
04836             104.00     -480.00
04837              96.00     -320.00
04838              96.00     -240.00
04839              88.00     -240.00
04840              88.00     -160.00
04841              72.00      -80.00
04842              72.00        0.00
04843              64.00       80.00
04844              88.00       80.00
04845              88.00      240.00
04846             112.00      240.00
04847             120.00      320.00
04848              88.00      400.00
04849              56.00      480.00
04850              32.00      480.00
04851              64.00      560.00
04852             408.00      720.00
04853             824.00      880.00
04854             128.00      880.00
04855           -1016.00      800.00
04856           -1016.00      800.00
04857             664.00     1200.00
04858             984.00     1440.00
04859            -576.00      960.00
04860            -424.00     1120.00
04861             968.00     1440.00
04862             -72.00     1760.00
04863           -1016.00     1360.00
04864             224.00     1200.00
04865             696.00     2000.00
04866            -416.00     1840.00
04867            -416.00     1360.00
04868             312.00     1920.00
04869             -88.00     2480.00
04870            -416.00     1680.00
04871              64.00     1680.00
04872             120.00     2640.00
04873            -136.00     2240.00
04874            -328.00     1680.00
04875             -32.00     2480.00
04876             192.00     2720.00
04877            -384.00     2000.00
04878            -328.00     2400.00
04879             296.00     2880.00
04880            -216.00     2400.00
04881            -488.00     2480.00
04882             128.00     2800.00
04883             -88.00     2880.00
04884            -384.00     2720.00
04885              24.00     2800.00
04886            -136.00     3040.00
04887            -312.00     3040.00
04888            -128.00     2800.00
04889            -168.00     3120.00
04890            -200.00     3200.00
04891            -192.00     2960.00
04892            -256.00     3280.00
04893            -184.00     3360.00
04894            -232.00     3120.00
04895            -224.00     3280.00
04896            -152.00     3440.00
04897            -296.00     3280.00
04898            -296.00     3440.00
04899            -192.00     3520.00
04900            -256.00     3600.00
04901            -280.00     3520.00
04902            -240.00     3600.00
04903            -304.00     3760.00
04904            -320.00     3600.00
04905            -256.00     3680.00
04906            -248.00     3760.00
04907            -328.00     3680.00
04908            -328.00     3760.00
04909            -280.00     3920.00
04910            -360.00     3840.00
04911            -360.00     3760.00
04912            -296.00     3920.00
04913            -352.00     3920.00
04914            -384.00     3840.00
04915            -344.00     3920.00
04916            -368.00     4000.00
04917            -448.00     3920.00
04918            -392.00     3920.00
04919            -344.00     4080.00
04920            -416.00     4000.00
04921            -472.00     3920.00
04922            -416.00     4000.00
04923            -440.00     4000.00
04924            -496.00     4000.00
04925            -456.00     3920.00
04926            -440.00     4000.00
04927            -496.00     4000.00
04928            -512.00     3920.00
04929            -480.00     4000.00
04930            -512.00     4000.00
04931            -568.00     3920.00
04932            -520.00     4000.00
04933            -512.00     4000.00
04934            -552.00     3920.00
04935            -576.00     3920.00
04936            -552.00     3920.00
04937            -576.00     3920.00
04938            -584.00     3920.00
04939            -576.00     3920.00
04940            -584.00     3920.00
04941            -608.00     3840.00
04942            -592.00     3840.00
04943            -600.00     3840.00
04944            -616.00     3760.00
04945            -600.00     3680.00
04946            -576.00     3760.00
04947            -576.00     3760.00
04948            -576.00     3680.00
04949            -584.00     3600.00
04950            -584.00     3680.00
04951            -584.00     3520.00
04952            -568.00     3600.00
04953            -552.00     3440.00
04954            -568.00     3440.00
04955            -560.00     3360.00
04956            -552.00     3360.00
04957            -552.00     3360.00
04958            -544.00     3280.00
04959            -512.00     3280.00
04960            -488.00     3200.00
04961            -496.00     3120.00
04962            -496.00     3120.00
04963            -504.00     3040.00
04964            -488.00     2960.00
04965            -456.00     2960.00
04966            -440.00     2880.00
04967            -440.00     2880.00
04968            -424.00     2800.00
04969            -416.00     2720.00
04970            -416.00     2720.00
04971            -408.00     2640.00
04972            -392.00     2560.00
04973            -384.00     2480.00
04974            -376.00     2480.00
04975            -360.00     2480.00
04976            -344.00     2400.00
04977            -344.00     2320.00
04978            -344.00     2240.00
04979            -312.00     2160.00
04980            -296.00     2080.00
04981            -296.00     2080.00
04982            -288.00     1920.00
04983            -264.00     1840.00
04984            -272.00     1840.00
04985            -264.00     1760.00
04986            -248.00     1680.00
04987            -232.00     1680.00
04988            -232.00     1520.00
04989            -216.00     1520.00
04990            -216.00     1440.00
04991            -216.00     1360.00
04992            -200.00     1280.00
04993            -184.00     1200.00
04994            -160.00     1120.00
04995            -160.00     1040.00
04996            -160.00     1040.00
04997            -152.00      880.00
04998            -136.00      800.00
04999            -136.00      800.00
05000            -136.00      720.00
