Unit:(mV)
                     CH1         CH2
Frequency              ? 298.903 kHz
00001              60.00    -1200.00
00002             260.00    -1200.00
00003             820.00    -1400.00
00004             740.00    -1800.00
00005            -100.00    -2000.00
00006           -1100.00    -2000.00
00007           -1600.00    -1800.00
00008            -320.00    -1800.00
00009             860.00    -2600.00
00010               0.00    -2200.00
00011             100.00    -2600.00
00012             540.00    -3000.00
00013             -20.00    -2600.00
00014             100.00    -2800.00
00015               0.00    -3400.00
00016            -160.00    -3000.00
00017             400.00    -3400.00
00018              60.00    -3600.00
00019            -320.00    -3600.00
00020              60.00    -3800.00
00021             -60.00    -3600.00
00022              20.00    -4200.00
00023             220.00    -4200.00
00024               0.00    -4200.00
00025             -80.00    -4600.00
00026              60.00    -4400.00
00027             220.00    -4600.00
00028               0.00    -4800.00
00029             -20.00    -5000.00
00030             180.00    -4800.00
00031              80.00    -5000.00
00032             -20.00    -5200.00
00033              40.00    -5400.00
00034             100.00    -5200.00
00035             140.00    -5600.00
00036              80.00    -5400.00
00037             120.00    -5400.00
00038              60.00    -5800.00
00039              40.00    -6000.00
00040             160.00    -6000.00
00041              80.00    -6000.00
00042               0.00    -6200.00
00043              80.00    -6200.00
00044             140.00    -6200.00
00045             100.00    -6600.00
00046              80.00    -6400.00
00047             160.00    -6600.00
00048              80.00    -6600.00
00049              60.00    -6600.00
00050             140.00    -6800.00
00051             140.00    -6800.00
00052             100.00    -7000.00
00053             140.00    -7000.00
00054             100.00    -7000.00
00055              80.00    -7000.00
00056             100.00    -7000.00
00057             180.00    -7000.00
00058             160.00    -7000.00
00059             100.00    -7200.00
00060             140.00    -7400.00
00061             100.00    -7200.00
00062              80.00    -7400.00
00063             120.00    -7400.00
00064             160.00    -7400.00
00065             120.00    -7600.00
00066             120.00    -7600.00
00067             140.00    -7600.00
00068             100.00    -7600.00
00069              80.00    -7600.00
00070             160.00    -7600.00
00071             160.00    -7600.00
00072             140.00    -7600.00
00073             140.00    -7800.00
00074             100.00    -7600.00
00075             100.00    -7600.00
00076             140.00    -7600.00
00077             160.00    -7600.00
00078             140.00    -7600.00
00079             140.00    -7600.00
00080             140.00    -7600.00
00081             140.00    -7600.00
00082             100.00    -7600.00
00083             140.00    -7200.00
00084             160.00    -7600.00
00085             160.00    -7600.00
00086             140.00    -7200.00
00087             100.00    -7400.00
00088             120.00    -7600.00
00089             140.00    -7200.00
00090             160.00    -7400.00
00091             160.00    -7200.00
00092             160.00    -7000.00
00093             160.00    -7200.00
00094             140.00    -7000.00
00095             100.00    -7200.00
00096             140.00    -7000.00
00097             140.00    -7000.00
00098             160.00    -7000.00
00099             180.00    -6800.00
00100             160.00    -7000.00
00101             140.00    -6800.00
00102              80.00    -6600.00
00103             100.00    -6800.00
00104             160.00    -6600.00
00105             180.00    -6600.00
00106             160.00    -6600.00
00107             140.00    -6200.00
00108             100.00    -6200.00
00109             100.00    -6200.00
00110             140.00    -6200.00
00111             160.00    -6000.00
00112             140.00    -5800.00
00113             140.00    -5800.00
00114             100.00    -5800.00
00115             140.00    -5600.00
00116             140.00    -5600.00
00117             140.00    -5400.00
00118             140.00    -5400.00
00119             100.00    -5200.00
00120             100.00    -5000.00
00121             140.00    -5000.00
00122             140.00    -5000.00
00123             100.00    -5000.00
00124             100.00    -4600.00
00125             100.00    -4600.00
00126             100.00    -4600.00
00127             100.00    -4400.00
00128             100.00    -4200.00
00129             100.00    -4200.00
00130             100.00    -3800.00
00131              80.00    -4000.00
00132             100.00    -3600.00
00133             100.00    -3800.00
00134             100.00    -3400.00
00135              80.00    -3400.00
00136              80.00    -3400.00
00137              80.00    -3000.00
00138              60.00    -2800.00
00139              80.00    -2800.00
00140              80.00    -2600.00
00141              80.00    -2600.00
00142              80.00    -2400.00
00143              80.00    -2400.00
00144              80.00    -2200.00
00145              60.00    -2200.00
00146              60.00    -2000.00
00147              60.00    -1800.00
00148              60.00    -1400.00
00149              60.00    -1400.00
00150              80.00    -1400.00
00151              60.00    -1200.00
00152              20.00     -800.00
00153              60.00     -800.00
00154              40.00     -600.00
00155              60.00     -600.00
00156              60.00     -400.00
00157              80.00     -400.00
00158              60.00     -200.00
00159              60.00     -200.00
00160              40.00      200.00
00161              40.00      200.00
00162             100.00      400.00
00163             140.00      600.00
00164             160.00      600.00
00165             100.00      600.00
00166              80.00     1000.00
00167              80.00     1000.00
00168              80.00     1200.00
00169             400.00     1400.00
00170            1040.00     1600.00
00171             720.00     1800.00
00172            -460.00     1800.00
00173           -1840.00     1600.00
00174           -1440.00     2200.00
00175             720.00     2600.00
00176             720.00     2200.00
00177            -260.00     2400.00
00178             540.00     2200.00
00179             380.00     2600.00
00180            -440.00     3400.00
00181             -20.00     2600.00
00182             -60.00     3000.00
00183             180.00     3600.00
00184             240.00     3000.00
00185            -460.00     3400.00
00186             100.00     4200.00
00187              60.00     3400.00
00188            -420.00     3800.00
00189             300.00     4000.00
00190              60.00     4000.00
00191            -260.00     4400.00
00192              60.00     4200.00
00193               0.00     4600.00
00194              20.00     4600.00
00195            -160.00     4400.00
00196             -20.00     5000.00
00197              80.00     4800.00
00198            -180.00     5000.00
00199             -80.00     5200.00
00200             -80.00     5200.00
00201             -20.00     5600.00
00202             -20.00     5200.00
00203             -80.00     5800.00
00204             -20.00     5800.00
00205            -180.00     5600.00
00206            -100.00     6000.00
00207               0.00     6000.00
00208            -100.00     6000.00
00209            -100.00     6000.00
00210             -80.00     6200.00
00211            -100.00     6400.00
00212            -100.00     6200.00
00213             -20.00     6400.00
00214             -60.00     6600.00
00215            -160.00     6600.00
00216            -140.00     6600.00
00217            -100.00     6800.00
00218            -100.00     6800.00
00219            -100.00     7000.00
00220            -100.00     6800.00
00221            -160.00     7000.00
00222            -120.00     7000.00
00223             -80.00     7200.00
00224            -100.00     7000.00
00225            -100.00     7200.00
00226            -120.00     7200.00
00227            -100.00     7400.00
00228            -160.00     7200.00
00229            -140.00     7400.00
00230            -100.00     7400.00
00231            -100.00     7400.00
00232            -100.00     7600.00
00233             -80.00     7600.00
00234            -140.00     7600.00
00235            -160.00     7600.00
00236            -100.00     7600.00
00237             -80.00     7600.00
00238            -120.00     7600.00
00239            -140.00     7600.00
00240            -120.00     7800.00
00241            -140.00     7600.00
00242            -160.00     7600.00
00243            -100.00     7600.00
00244            -120.00     7600.00
00245            -140.00     7800.00
00246            -100.00     7800.00
00247            -120.00     7600.00
00248            -140.00     7600.00
00249            -160.00     7600.00
00250            -100.00     7600.00
00251            -100.00     7400.00
00252            -120.00     7600.00
00253            -140.00     7600.00
00254            -140.00     7400.00
00255            -160.00     7400.00
00256            -140.00     7400.00
00257            -140.00     7400.00
00258            -140.00     7400.00
00259            -140.00     7400.00
00260            -140.00     7400.00
00261            -140.00     7200.00
00262            -160.00     7000.00
00263            -160.00     7000.00
00264            -140.00     7000.00
00265            -140.00     7000.00
00266            -140.00     7000.00
00267            -160.00     6800.00
00268            -160.00     6800.00
00269            -140.00     6800.00
00270            -140.00     6600.00
00271            -120.00     6600.00
00272            -140.00     6600.00
00273            -140.00     6400.00
00274            -140.00     6600.00
00275            -140.00     6200.00
00276            -140.00     6200.00
00277            -140.00     6200.00
00278            -100.00     6000.00
00279            -120.00     6000.00
00280            -140.00     5800.00
00281            -140.00     5800.00
00282            -140.00     5800.00
00283            -120.00     5600.00
00284            -100.00     5400.00
00285            -100.00     5400.00
00286            -140.00     5400.00
00287            -140.00     5200.00
00288            -120.00     5200.00
00289            -140.00     5000.00
00290            -100.00     4800.00
00291            -100.00     4800.00
00292            -100.00     4600.00
00293            -100.00     4400.00
00294            -100.00     4400.00
00295            -100.00     4400.00
00296            -100.00     4200.00
00297            -100.00     4200.00
00298             -80.00     4000.00
00299            -100.00     3800.00
00300            -100.00     3600.00
00301            -100.00     3600.00
00302            -100.00     3400.00
00303             -80.00     3400.00
00304             -80.00     3400.00
00305             -80.00     3000.00
00306            -100.00     3000.00
00307             -80.00     2800.00
00308             -80.00     2800.00
00309             -80.00     2600.00
00310             -80.00     2200.00
00311             -60.00     2200.00
00312             -80.00     2000.00
00313             -80.00     2000.00
00314             -80.00     1800.00
00315             -80.00     1800.00
00316             -60.00     1400.00
00317             -60.00     1200.00
00318             -20.00     1200.00
00319             -60.00     1200.00
00320             -60.00     1000.00
00321             -60.00      800.00
00322             -60.00      600.00
00323             -60.00      400.00
00324             -60.00      400.00
00325             -20.00      200.00
00326             -20.00      200.00
00327             -20.00      200.00
00328             -20.00     -200.00
00329              20.00     -200.00
00330             100.00     -600.00
00331             100.00     -600.00
00332              60.00     -600.00
00333               0.00     -800.00
00334               0.00    -1000.00
00335               0.00    -1000.00
00336              80.00    -1200.00
00337             480.00    -1200.00
00338             900.00    -1800.00
00339             460.00    -1800.00
00340            -520.00    -2000.00
00341           -1460.00    -2000.00
00342           -1260.00    -1800.00
00343             420.00    -2200.00
00344             560.00    -2600.00
00345            -140.00    -2200.00
00346             420.00    -3000.00
00347             340.00    -2600.00
00348             -80.00    -2600.00
00349             160.00    -3400.00
00350            -180.00    -3200.00
00351              80.00    -3000.00
00352             420.00    -3400.00
00353            -200.00    -3400.00
00354            -140.00    -3600.00
00355              60.00    -3600.00
00356             -80.00    -3800.00
00357             160.00    -4400.00
00358             160.00    -4000.00
00359             -80.00    -4400.00
00360               0.00    -4600.00
00361             160.00    -4400.00
00362             160.00    -4600.00
00363             -60.00    -4800.00
00364              80.00    -5000.00
00365             180.00    -4800.00
00366               0.00    -5000.00
00367               0.00    -5400.00
00368              60.00    -5200.00
00369             160.00    -5400.00
00370              80.00    -5600.00
00371              80.00    -5600.00
00372             120.00    -5600.00
00373              60.00    -5800.00
00374             100.00    -6000.00
00375             160.00    -6000.00
00376              60.00    -6000.00
00377              20.00    -6200.00
00378             100.00    -6200.00
00379             120.00    -6200.00
00380              60.00    -6600.00
00381             140.00    -6600.00
00382             160.00    -6600.00
00383              60.00    -6600.00
00384              80.00    -6600.00
00385             140.00    -6600.00
00386             100.00    -6800.00
00387             100.00    -7000.00
00388             120.00    -6800.00
00389              80.00    -7000.00
00390              60.00    -7000.00
00391             140.00    -7000.00
00392             160.00    -7200.00
00393             100.00    -7000.00
00394             100.00    -7400.00
00395             100.00    -7200.00
00396              80.00    -7400.00
00397             100.00    -7400.00
00398             140.00    -7200.00
00399             140.00    -7400.00
00400             140.00    -7400.00
00401             120.00    -7400.00
00402             140.00    -7400.00
00403              80.00    -7600.00
00404             100.00    -7600.00
00405             160.00    -7600.00
00406             140.00    -7600.00
00407             100.00    -7600.00
00408             140.00    -7600.00
00409             140.00    -7600.00
00410             100.00    -7600.00
00411             140.00    -7600.00
00412             160.00    -7600.00
00413             140.00    -7600.00
00414             140.00    -7800.00
00415             140.00    -7600.00
00416             140.00    -7600.00
00417             100.00    -7600.00
00418             140.00    -7600.00
00419             160.00    -7600.00
00420             140.00    -7600.00
00421             140.00    -7200.00
00422             140.00    -7400.00
00423             140.00    -7600.00
00424             140.00    -7200.00
00425             160.00    -7200.00
00426             160.00    -7200.00
00427             140.00    -7200.00
00428             140.00    -7200.00
00429             140.00    -7400.00
00430             140.00    -7000.00
00431             160.00    -7200.00
00432             160.00    -7000.00
00433             160.00    -7000.00
00434             140.00    -6800.00
00435             140.00    -6800.00
00436             140.00    -6800.00
00437             140.00    -6600.00
00438             140.00    -6600.00
00439             160.00    -6600.00
00440             160.00    -6400.00
00441             140.00    -6600.00
00442             140.00    -6200.00
00443             140.00    -6200.00
00444             120.00    -6000.00
00445             160.00    -6000.00
00446             160.00    -6000.00
00447             140.00    -6000.00
00448             140.00    -5800.00
00449             100.00    -5600.00
00450             120.00    -5600.00
00451             140.00    -5400.00
00452             140.00    -5400.00
00453             140.00    -5400.00
00454             120.00    -5200.00
00455             100.00    -5000.00
00456             120.00    -5000.00
00457             100.00    -5000.00
00458             100.00    -4600.00
00459             120.00    -4600.00
00460             100.00    -4600.00
00461             100.00    -4400.00
00462             100.00    -4400.00
00463              80.00    -4200.00
00464             100.00    -4200.00
00465             100.00    -4200.00
00466             100.00    -3800.00
00467              80.00    -3600.00
00468              80.00    -3600.00
00469              80.00    -3400.00
00470              80.00    -3400.00
00471              80.00    -3200.00
00472              80.00    -3000.00
00473              80.00    -2800.00
00474              80.00    -2800.00
00475              80.00    -2600.00
00476              80.00    -2600.00
00477              60.00    -2400.00
00478              80.00    -2600.00
00479              80.00    -2200.00
00480              80.00    -2000.00
00481              60.00    -1800.00
00482              60.00    -1600.00
00483              80.00    -1400.00
00484              80.00    -1400.00
00485              60.00    -1200.00
00486              60.00    -1200.00
00487              60.00     -800.00
00488              60.00     -800.00
00489              40.00     -800.00
00490              60.00     -600.00
00491              60.00     -400.00
00492              60.00     -200.00
00493              60.00     -200.00
00494              60.00      200.00
00495              40.00      200.00
00496              80.00      200.00
00497             140.00      400.00
00498             140.00      600.00
00499             140.00      600.00
00500             100.00     1000.00
00501              60.00      800.00
00502              60.00     1200.00
00503             140.00     1400.00
00504             740.00     1400.00
00505            1060.00     1600.00
00506             260.00     1800.00
00507           -1120.00     1600.00
00508           -2020.00     1800.00
00509            -480.00     2200.00
00510            1160.00     2400.00
00511              60.00     2200.00
00512               0.00     2400.00
00513             760.00     2600.00
00514            -140.00     3000.00
00515            -280.00     3000.00
00516              60.00     2600.00
00517             -60.00     3600.00
00518             420.00     3400.00
00519            -140.00     3000.00
00520            -380.00     3800.00
00521             300.00     3800.00
00522            -340.00     3600.00
00523            -140.00     4200.00
00524             400.00     3800.00
00525            -200.00     4400.00
00526             -80.00     4400.00
00527              20.00     4200.00
00528             -20.00     5000.00
00529             -60.00     4600.00
00530            -160.00     4600.00
00531             100.00     5200.00
00532             -60.00     4600.00
00533            -140.00     5200.00
00534             -20.00     5400.00
00535            -100.00     5400.00
00536               0.00     5600.00
00537             -80.00     5400.00
00538             -40.00     5800.00
00539             -60.00     5800.00
00540            -160.00     5800.00
00541               0.00     6000.00
00542             -80.00     6000.00
00543            -100.00     6200.00
00544            -100.00     6200.00
00545            -100.00     6200.00
00546            -100.00     6400.00
00547             -20.00     6200.00
00548             -20.00     6600.00
00549            -100.00     6600.00
00550            -140.00     6600.00
00551            -100.00     6800.00
00552             -80.00     6600.00
00553             -80.00     6800.00
00554            -100.00     6800.00
00555            -100.00     7000.00
00556            -160.00     7000.00
00557            -100.00     7000.00
00558             -60.00     7200.00
00559            -100.00     7200.00
00560            -100.00     7400.00
00561            -100.00     7400.00
00562            -100.00     7400.00
00563            -140.00     7200.00
00564            -100.00     7400.00
00565            -100.00     7400.00
00566            -100.00     7400.00
00567            -100.00     7600.00
00568            -100.00     7600.00
00569            -160.00     7600.00
00570            -140.00     7600.00
00571             -80.00     7600.00
00572            -100.00     7600.00
00573            -140.00     7600.00
00574            -160.00     7600.00
00575            -120.00     7800.00
00576            -140.00     7600.00
00577            -140.00     7800.00
00578            -100.00     7800.00
00579            -120.00     7800.00
00580            -140.00     7600.00
00581            -100.00     7800.00
00582            -140.00     7600.00
00583            -160.00     7600.00
00584            -140.00     7600.00
00585            -100.00     7600.00
00586            -140.00     7400.00
00587            -140.00     7600.00
00588            -140.00     7400.00
00589            -140.00     7600.00
00590            -140.00     7400.00
00591            -140.00     7400.00
00592            -140.00     7400.00
00593            -140.00     7400.00
00594            -100.00     7400.00
00595            -140.00     7200.00
00596            -160.00     7000.00
00597            -160.00     7000.00
00598            -140.00     7000.00
00599            -100.00     7000.00
00600            -100.00     7000.00
00601            -140.00     6800.00
00602            -140.00     6800.00
00603            -160.00     6800.00
00604            -140.00     6800.00
00605            -100.00     6800.00
00606            -140.00     6600.00
00607            -140.00     6600.00
00608            -140.00     6600.00
00609            -140.00     6400.00
00610            -140.00     6200.00
00611            -120.00     6200.00
00612            -100.00     6200.00
00613            -100.00     6000.00
00614            -140.00     6000.00
00615            -140.00     5800.00
00616            -160.00     5800.00
00617            -100.00     5800.00
00618            -100.00     5600.00
00619            -100.00     5600.00
00620            -140.00     5400.00
00621            -140.00     5200.00
00622            -120.00     5200.00
00623            -100.00     5000.00
00624            -100.00     5000.00
00625            -100.00     5000.00
00626            -100.00     4600.00
00627            -100.00     4600.00
00628            -100.00     4600.00
00629            -100.00     4400.00
00630            -100.00     4200.00
00631             -80.00     4200.00
00632            -100.00     4200.00
00633            -100.00     3800.00
00634            -100.00     3800.00
00635            -100.00     3600.00
00636            -100.00     3600.00
00637            -100.00     3400.00
00638             -80.00     3400.00
00639            -100.00     3200.00
00640             -80.00     3000.00
00641             -80.00     2800.00
00642             -80.00     2800.00
00643             -80.00     2600.00
00644             -80.00     2400.00
00645             -60.00     2200.00
00646             -80.00     2200.00
00647             -60.00     2000.00
00648            -100.00     1800.00
00649             -80.00     1800.00
00650             -80.00     1800.00
00651             -60.00     1400.00
00652             -60.00     1400.00
00653             -60.00     1200.00
00654             -80.00     1000.00
00655             -60.00     1000.00
00656             -60.00      600.00
00657             -60.00      800.00
00658             -60.00      400.00
00659             -60.00      400.00
00660             -20.00      200.00
00661             -20.00      200.00
00662             -20.00     -200.00
00663               0.00     -200.00
00664              60.00     -400.00
00665             100.00     -600.00
00666              80.00     -600.00
00667              20.00     -800.00
00668               0.00     -800.00
00669               0.00     -800.00
00670              20.00    -1200.00
00671             220.00    -1200.00
00672             760.00    -1400.00
00673             820.00    -1800.00
00674              20.00    -2000.00
00675            -980.00    -2000.00
00676           -1620.00    -2000.00
00677            -520.00    -1800.00
00678             820.00    -2400.00
00679             100.00    -2200.00
00680              40.00    -2600.00
00681             580.00    -3000.00
00682              40.00    -2400.00
00683              60.00    -2800.00
00684              60.00    -3400.00
00685            -180.00    -3000.00
00686             380.00    -3200.00
00687             160.00    -3600.00
00688            -320.00    -3600.00
00689              20.00    -3600.00
00690             -20.00    -3800.00
00691               0.00    -4200.00
00692             220.00    -4200.00
00693              60.00    -4000.00
00694             -60.00    -4400.00
00695              80.00    -4400.00
00696             220.00    -4400.00
00697              20.00    -4600.00
00698             -60.00    -5000.00
00699             160.00    -5000.00
00700             140.00    -5000.00
00701               0.00    -5200.00
00702              20.00    -5400.00
00703             100.00    -5200.00
00704             160.00    -5600.00
00705              60.00    -5600.00
00706             100.00    -5600.00
00707              80.00    -5800.00
00708              40.00    -5800.00
00709             160.00    -5800.00
00710             120.00    -6000.00
00711              20.00    -6200.00
00712              60.00    -6200.00
00713             140.00    -6200.00
00714              80.00    -6400.00
00715              80.00    -6400.00
00716             140.00    -6600.00
00717             100.00    -6600.00
00718              60.00    -6800.00
00719             100.00    -6800.00
00720             120.00    -6800.00
00721             100.00    -6800.00
00722             100.00    -7000.00
00723             120.00    -6800.00
00724              60.00    -7000.00
00725              80.00    -7000.00
00726             160.00    -7000.00
00727             140.00    -7200.00
00728             100.00    -7400.00
00729             120.00    -7200.00
00730             100.00    -7400.00
00731              80.00    -7400.00
00732             100.00    -7200.00
00733             160.00    -7400.00
00734             140.00    -7600.00
00735             120.00    -7600.00
00736             140.00    -7400.00
00737             100.00    -7400.00
00738              80.00    -7600.00
00739             140.00    -7600.00
00740             160.00    -7600.00
00741             140.00    -7600.00
00742             100.00    -7600.00
00743             140.00    -7600.00
00744             120.00    -7600.00
00745             140.00    -7600.00
00746             160.00    -7600.00
00747             180.00    -7800.00
00748             140.00    -7600.00
00749             140.00    -7600.00
00750             140.00    -7600.00
00751             100.00    -7400.00
00752             120.00    -7600.00
00753             160.00    -7600.00
00754             160.00    -7200.00
00755             140.00    -7600.00
00756             160.00    -7600.00
00757             140.00    -7400.00
00758             120.00    -7200.00
00759             140.00    -7600.00
00760             160.00    -7200.00
00761             140.00    -7200.00
00762             140.00    -7200.00
00763             140.00    -7200.00
00764             140.00    -7200.00
00765             140.00    -7200.00
00766             160.00    -7000.00
00767             160.00    -7000.00
00768             140.00    -7000.00
00769             160.00    -6800.00
00770             140.00    -7000.00
00771             140.00    -6800.00
00772             140.00    -6600.00
00773             160.00    -6600.00
00774             160.00    -6600.00
00775             140.00    -6400.00
00776             140.00    -6400.00
00777             140.00    -6200.00
00778             120.00    -6200.00
00779             140.00    -6200.00
00780             160.00    -6000.00
00781             140.00    -6000.00
00782             100.00    -5800.00
00783             140.00    -5800.00
00784             140.00    -5600.00
00785             140.00    -5600.00
00786              60.00    -5400.00
00787              80.00    -5400.00
00788              20.00    -5400.00
00789              80.00    -5200.00
00790             160.00    -5000.00
00791             220.00    -5000.00
00792             220.00    -5000.00
00793             160.00    -4800.00
00794              80.00    -4600.00
00795             -20.00    -4600.00
00796             -60.00    -4400.00
00797              20.00    -4400.00
00798             140.00    -4000.00
00799             160.00    -4200.00
00800             160.00    -3800.00
00801             140.00    -3800.00
00802             100.00    -3600.00
00803             100.00    -3600.00
00804             100.00    -3400.00
00805              80.00    -3400.00
00806              20.00    -3200.00
00807              20.00    -3000.00
00808               0.00    -3000.00
00809              80.00    -2600.00
00810             100.00    -2600.00
00811             140.00    -2600.00
00812             100.00    -2200.00
00813             140.00    -2200.00
00814             100.00    -2200.00
00815              80.00    -2000.00
00816              40.00    -1800.00
00817               0.00    -1600.00
00818               0.00    -1400.00
00819              20.00    -1200.00
00820              80.00    -1200.00
00821             140.00    -1200.00
00822             100.00     -800.00
00823              80.00     -600.00
00824              60.00     -600.00
00825               0.00     -600.00
00826               0.00     -400.00
00827              20.00     -200.00
00828              20.00     -200.00
00829              20.00      200.00
00830             100.00      200.00
00831             160.00      400.00
00832             160.00      400.00
00833             160.00      600.00
00834             100.00      800.00
00835              60.00     1000.00
00836              40.00     1000.00
00837              60.00     1200.00
00838             320.00     1400.00
00839            1020.00     1600.00
00840             860.00     1800.00
00841            -300.00     1600.00
00842           -1720.00     1400.00
00843           -1620.00     1800.00
00844             500.00     2400.00
00845             860.00     2200.00
00846            -260.00     2200.00
00847             420.00     2200.00
00848             480.00     2600.00
00849            -420.00     3400.00
00850             -60.00     2800.00
00851               0.00     2800.00
00852             140.00     3600.00
00853             320.00     3000.00
00854            -460.00     3400.00
00855             -20.00     4200.00
00856             120.00     3600.00
00857            -480.00     3600.00
00858             220.00     4000.00
00859             160.00     4000.00
00860            -260.00     4400.00
00861              60.00     4200.00
00862               0.00     4400.00
00863               0.00     5000.00
00864            -140.00     4200.00
00865             -20.00     5000.00
00866             100.00     5000.00
00867            -180.00     4600.00
00868             -80.00     5200.00
00869             -80.00     5000.00
00870             -20.00     5600.00
00871               0.00     5400.00
00872             -60.00     5600.00
00873             -20.00     6000.00
00874            -140.00     5600.00
00875            -100.00     6000.00
00876               0.00     6000.00
00877            -100.00     6200.00
00878            -100.00     6000.00
00879            -100.00     6200.00
00880            -100.00     6400.00
00881             -80.00     6200.00
00882             -20.00     6600.00
00883             -60.00     6600.00
00884            -140.00     6600.00
00885            -100.00     6800.00
00886            -100.00     6800.00
00887             -80.00     6800.00
00888            -100.00     6800.00
00889            -100.00     7000.00
00890            -140.00     7000.00
00891            -120.00     7000.00
00892             -80.00     7200.00
00893             -80.00     7200.00
00894            -100.00     7200.00
00895            -100.00     7200.00
00896            -100.00     7400.00
00897            -140.00     7400.00
00898            -140.00     7600.00
00899            -100.00     7600.00
00900            -100.00     7400.00
00901            -100.00     7400.00
00902            -100.00     7400.00
00903            -120.00     7800.00
00904            -160.00     7600.00
00905            -100.00     7600.00
00906            -100.00     7600.00
00907            -120.00     7600.00
00908            -140.00     7600.00
00909            -140.00     7600.00
00910            -160.00     7600.00
00911            -160.00     7600.00
00912            -120.00     7600.00
00913            -100.00     7600.00
00914            -140.00     7600.00
00915            -140.00     7600.00
00916            -100.00     7600.00
00917            -160.00     7600.00
00918            -160.00     7400.00
00919            -140.00     7600.00
00920            -140.00     7400.00
00921            -140.00     7600.00
00922            -140.00     7600.00
00923            -140.00     7600.00
00924            -160.00     7600.00
00925            -140.00     7400.00
00926            -140.00     7400.00
00927            -140.00     7400.00
00928            -140.00     7400.00
00929            -140.00     7400.00
00930            -160.00     7200.00
00931            -160.00     7200.00
00932            -160.00     7000.00
00933            -140.00     7000.00
00934            -100.00     7000.00
00935            -140.00     6800.00
00936            -140.00     6800.00
00937            -140.00     6800.00
00938            -140.00     6800.00
00939            -120.00     6600.00
00940            -140.00     6600.00
00941            -140.00     6600.00
00942            -140.00     6600.00
00943            -140.00     6200.00
00944            -140.00     6200.00
00945            -140.00     6200.00
00946            -140.00     6000.00
00947            -100.00     6000.00
00948            -100.00     6000.00
00949            -140.00     6000.00
00950            -140.00     5800.00
00951            -140.00     5800.00
00952            -120.00     5600.00
00953            -100.00     5400.00
00954            -120.00     5600.00
00955            -120.00     5400.00
00956            -140.00     5200.00
00957            -100.00     5200.00
00958            -100.00     5000.00
00959            -100.00     4800.00
00960            -100.00     4800.00
00961            -100.00     4600.00
00962            -100.00     4600.00
00963            -140.00     4400.00
00964            -100.00     4400.00
00965            -100.00     4200.00
00966            -100.00     4000.00
00967             -80.00     4000.00
00968            -100.00     3800.00
00969            -100.00     3800.00
00970            -100.00     3800.00
00971            -100.00     3400.00
00972            -100.00     3400.00
00973             -80.00     3200.00
00974             -80.00     3000.00
00975            -100.00     2800.00
00976             -80.00     2800.00
00977             -80.00     2800.00
00978            -100.00     2600.00
00979             -80.00     2400.00
00980             -60.00     2200.00
00981             -80.00     2000.00
00982             -80.00     2000.00
00983             -80.00     1800.00
00984            -100.00     1600.00
00985             -80.00     1600.00
00986             -60.00     1400.00
00987             -40.00     1200.00
00988             -80.00     1000.00
00989             -60.00      800.00
00990             -60.00      800.00
00991             -80.00      800.00
00992             -80.00      400.00
00993             -60.00      400.00
00994             -20.00      200.00
00995             -60.00      200.00
00996             -20.00        0.00
00997             -20.00     -200.00
00998               0.00     -400.00
00999              60.00     -600.00
01000              80.00     -400.00
01001              60.00     -600.00
01002              20.00     -800.00
01003              20.00     -800.00
01004              20.00    -1000.00
01005              80.00    -1200.00
01006             420.00    -1400.00
01007             900.00    -1800.00
01008             520.00    -2000.00
01009            -420.00    -2000.00
01010           -1360.00    -2000.00
01011           -1360.00    -1800.00
01012             260.00    -2200.00
01013             700.00    -2600.00
01014            -140.00    -2200.00
01015             340.00    -2800.00
01016             400.00    -2800.00
01017             -80.00    -2400.00
01018             160.00    -3000.00
01019            -100.00    -3000.00
01020               0.00    -3000.00
01021             460.00    -3600.00
01022            -140.00    -3600.00
01023            -180.00    -3600.00
01024              60.00    -3600.00
01025            -100.00    -3800.00
01026             100.00    -4200.00
01027             180.00    -4200.00
01028             -40.00    -4200.00
01029             -20.00    -4600.00
01030             180.00    -4400.00
01031             180.00    -4600.00
01032             -80.00    -4800.00
01033              60.00    -5000.00
01034             220.00    -5000.00
01035              20.00    -5000.00
01036             -20.00    -5400.00
01037              60.00    -5200.00
01038             140.00    -5200.00
01039             100.00    -5800.00
01040              80.00    -5400.00
01041             120.00    -5800.00
01042               0.00    -5800.00
01043              80.00    -6000.00
01044             160.00    -6000.00
01045              60.00    -6000.00
01046               0.00    -6200.00
01047             100.00    -6200.00
01048             140.00    -6200.00
01049              80.00    -6600.00
01050             140.00    -6600.00
01051             160.00    -6600.00
01052              60.00    -6600.00
01053              60.00    -6800.00
01054             100.00    -6600.00
01055             120.00    -6800.00
01056             100.00    -7000.00
01057             140.00    -7000.00
01058              80.00    -6800.00
01059              60.00    -7000.00
01060             140.00    -7200.00
01061             160.00    -7200.00
01062             120.00    -7200.00
01063             100.00    -7400.00
01064             100.00    -7200.00
01065              80.00    -7200.00
01066              80.00    -7400.00
01067             140.00    -7200.00
01068             140.00    -7400.00
01069             140.00    -7400.00
01070             160.00    -7600.00
01071             160.00    -7200.00
01072             100.00    -7600.00
01073             100.00    -7600.00
01074             160.00    -7600.00
01075             140.00    -7600.00
01076             100.00    -7800.00
01077             120.00    -7600.00
01078             100.00    -7600.00
01079             100.00    -7600.00
01080             140.00    -7600.00
01081             160.00    -7600.00
01082             160.00    -7800.00
01083             140.00    -7800.00
01084             140.00    -7600.00
01085             140.00    -7600.00
01086             100.00    -7200.00
01087             140.00    -7800.00
01088             160.00    -7200.00
01089             160.00    -7400.00
01090             140.00    -7400.00
01091             140.00    -7400.00
01092             140.00    -7200.00
01093             140.00    -7400.00
01094             160.00    -7200.00
01095             160.00    -7200.00
01096             160.00    -7200.00
01097             140.00    -7200.00
01098             140.00    -7000.00
01099             120.00    -7000.00
01100             140.00    -7000.00
01101             160.00    -7000.00
01102             160.00    -7000.00
01103             140.00    -6800.00
01104             140.00    -7000.00
01105             100.00    -7000.00
01106             140.00    -6800.00
01107             140.00    -6600.00
01108             140.00    -6600.00
01109             140.00    -6400.00
01110             100.00    -6400.00
01111             140.00    -6200.00
01112             100.00    -6200.00
01113             140.00    -6000.00
01114             140.00    -6200.00
01115             140.00    -6000.00
01116             140.00    -6000.00
01117             100.00    -5800.00
01118             120.00    -5800.00
01119             100.00    -5800.00
01120             100.00    -5400.00
01121             140.00    -5400.00
01122             140.00    -5400.00
01123             100.00    -5200.00
01124             140.00    -5000.00
01125             100.00    -5000.00
01126             100.00    -5000.00
01127             100.00    -4800.00
01128             140.00    -4600.00
01129             120.00    -4600.00
01130              80.00    -4400.00
01131              80.00    -4400.00
01132             100.00    -4200.00
01133             100.00    -4200.00
01134             100.00    -3800.00
01135             120.00    -3800.00
01136              80.00    -3600.00
01137             100.00    -3600.00
01138             100.00    -3600.00
01139              80.00    -3200.00
01140              80.00    -3200.00
01141              80.00    -3000.00
01142             100.00    -3000.00
01143              80.00    -2800.00
01144              80.00    -2600.00
01145              80.00    -2600.00
01146              80.00    -2600.00
01147              80.00    -2200.00
01148              80.00    -2200.00
01149              80.00    -2000.00
01150              60.00    -1800.00
01151              60.00    -1800.00
01152              60.00    -1400.00
01153              60.00    -1400.00
01154              80.00    -1200.00
01155              60.00    -1000.00
01156              60.00     -800.00
01157              40.00     -800.00
01158              60.00     -600.00
01159              60.00     -600.00
01160              60.00     -400.00
01161              60.00     -200.00
01162              60.00        0.00
01163              60.00      200.00
01164              20.00      200.00
01165              60.00      200.00
01166             120.00      400.00
01167             160.00      600.00
01168             140.00      600.00
01169             120.00      600.00
01170              80.00     1000.00
01171              60.00     1000.00
01172             100.00     1000.00
01173             640.00     1400.00
01174            1100.00     1600.00
01175             400.00     1800.00
01176            -960.00     1600.00
01177           -2040.00     1600.00
01178            -760.00     2200.00
01179            1120.00     2200.00
01180             220.00     2000.00
01181            -100.00     2200.00
01182             720.00     2400.00
01183             -20.00     3000.00
01184            -340.00     3000.00
01185              40.00     2400.00
01186             -80.00     3400.00
01187             380.00     3400.00
01188             -60.00     2800.00
01189            -420.00     3600.00
01190             280.00     3800.00
01191            -260.00     3400.00
01192            -240.00     4000.00
01193             380.00     4200.00
01194            -160.00     4200.00
01195            -160.00     4400.00
01196              60.00     4200.00
01197             -20.00     4800.00
01198             -20.00     4600.00
01199            -180.00     4600.00
01200              60.00     5200.00
01201             -20.00     4800.00
01202            -160.00     5000.00
01203             -20.00     5200.00
01204            -100.00     5400.00
01205               0.00     5600.00
01206             -40.00     5200.00
01207             -20.00     5800.00
01208             -60.00     5800.00
01209            -160.00     5800.00
01210             -20.00     6200.00
01211             -60.00     6000.00
01212            -100.00     6200.00
01213             -80.00     6200.00
01214             -80.00     6200.00
01215            -100.00     6200.00
01216             -60.00     6200.00
01217             -20.00     6600.00
01218            -100.00     6600.00
01219            -140.00     6600.00
01220            -100.00     6800.00
01221             -80.00     6800.00
01222            -100.00     6600.00
01223             -80.00     6800.00
01224            -100.00     7000.00
01225            -160.00     7000.00
01226             -80.00     7200.00
01227             -80.00     7200.00
01228            -100.00     7200.00
01229            -100.00     7000.00
01230            -100.00     7400.00
01231            -140.00     7400.00
01232            -140.00     7400.00
01233            -100.00     7400.00
01234            -100.00     7400.00
01235            -100.00     7400.00
01236            -100.00     7400.00
01237            -100.00     7600.00
01238            -160.00     7600.00
01239            -160.00     7400.00
01240            -100.00     7600.00
01241            -120.00     7600.00
01242            -140.00     7600.00
01243            -140.00     7600.00
01244            -140.00     7600.00
01245            -160.00     7800.00
01246            -140.00     7600.00
01247            -100.00     7800.00
01248            -140.00     7600.00
01249            -100.00     7600.00
01250            -120.00     7600.00
01251            -140.00     7800.00
01252            -180.00     7600.00
01253            -160.00     7600.00
01254            -140.00     7600.00
01255            -140.00     7400.00
01256            -140.00     7600.00
01257            -140.00     7400.00
01258            -140.00     7400.00
01259            -140.00     7400.00
01260            -140.00     7400.00
01261            -140.00     7400.00
01262            -140.00     7200.00
01263            -140.00     7200.00
01264            -100.00     7200.00
01265            -140.00     7400.00
01266            -160.00     7000.00
01267            -140.00     7000.00
01268            -120.00     7000.00
01269            -140.00     7000.00
01270            -140.00     6800.00
01271            -160.00     6800.00
01272            -140.00     6800.00
01273            -140.00     6800.00
01274            -140.00     6600.00
01275            -120.00     6800.00
01276            -140.00     6600.00
01277            -140.00     6600.00
01278            -140.00     6400.00
01279            -140.00     6400.00
01280            -120.00     6200.00
01281            -100.00     6200.00
01282            -140.00     6000.00
01283            -120.00     6000.00
01284            -140.00     5800.00
01285            -140.00     5800.00
01286            -140.00     5600.00
01287            -100.00     5600.00
01288            -100.00     5400.00
01289            -100.00     5400.00
01290            -100.00     5200.00
01291            -100.00     5200.00
01292            -100.00     5000.00
01293            -100.00     5000.00
01294            -100.00     4800.00
01295            -100.00     4600.00
01296            -100.00     4600.00
01297            -100.00     4400.00
01298            -100.00     4400.00
01299            -100.00     4200.00
01300            -100.00     4200.00
01301            -100.00     3800.00
01302             -80.00     3800.00
01303            -100.00     3800.00
01304            -100.00     3600.00
01305            -100.00     3600.00
01306            -100.00     3400.00
01307             -80.00     3200.00
01308             -80.00     3200.00
01309            -100.00     3000.00
01310            -100.00     2800.00
01311            -100.00     2800.00
01312            -100.00     2600.00
01313            -100.00     2400.00
01314             -80.00     2200.00
01315             -60.00     2200.00
01316             -80.00     2000.00
01317             -80.00     1800.00
01318             -80.00     1800.00
01319             -80.00     1600.00
01320             -60.00     1400.00
01321             -40.00     1400.00
01322             -60.00     1200.00
01323             -60.00     1000.00
01324             -80.00     1000.00
01325             -80.00      600.00
01326             -80.00      600.00
01327             -60.00      400.00
01328             -40.00      400.00
01329             -20.00      200.00
01330             -20.00      200.00
01331             -20.00      200.00
01332             -20.00     -200.00
01333              60.00     -400.00
01334              80.00     -400.00
01335              80.00     -600.00
01336              40.00     -600.00
01337               0.00    -1000.00
01338              20.00     -800.00
01339              20.00    -1000.00
01340             180.00    -1200.00
01341             720.00    -1200.00
01342             860.00    -1800.00
01343             140.00    -2000.00
01344            -900.00    -2200.00
01345           -1620.00    -1800.00
01346            -720.00    -1800.00
01347             800.00    -2400.00
01348             220.00    -2200.00
01349               0.00    -2400.00
01350             560.00    -3000.00
01351              80.00    -2600.00
01352              20.00    -2800.00
01353             100.00    -3400.00
01354            -220.00    -3000.00
01355             300.00    -3000.00
01356             260.00    -3600.00
01357            -320.00    -3400.00
01358               0.00    -3800.00
01359               0.00    -3600.00
01360             -40.00    -4000.00
01361             220.00    -4200.00
01362              80.00    -3800.00
01363             -80.00    -4400.00
01364              40.00    -4600.00
01365             220.00    -4400.00
01366              40.00    -4800.00
01367             -80.00    -5000.00
01368             160.00    -5000.00
01369             140.00    -4800.00
01370               0.00    -5200.00
01371               0.00    -5400.00
01372              80.00    -5200.00
01373             140.00    -5400.00
01374              60.00    -5600.00
01375             100.00    -5600.00
01376              80.00    -5800.00
01377              20.00    -5800.00
01378             140.00    -6000.00
01379             100.00    -6000.00
01380               0.00    -6200.00
01381              60.00    -6200.00
01382             140.00    -6200.00
01383              80.00    -6600.00
01384              80.00    -6600.00
01385             140.00    -6600.00
01386             140.00    -6600.00
01387              20.00    -6800.00
01388              80.00    -6600.00
01389             140.00    -6600.00
01390              80.00    -7000.00
01391             100.00    -7000.00
01392             120.00    -6800.00
01393              80.00    -7200.00
01394              60.00    -7000.00
01395             140.00    -7000.00
01396             160.00    -7200.00
01397             100.00    -7200.00
01398             100.00    -7200.00
01399             120.00    -7200.00
01400              80.00    -7400.00
01401             120.00    -7400.00
01402             160.00    -7400.00
01403             140.00    -7600.00
01404             140.00    -7600.00
01405             140.00    -7600.00
01406             120.00    -7200.00
01407              80.00    -7600.00
01408             140.00    -7600.00
01409             160.00    -7600.00
01410             140.00    -7600.00
01411             140.00    -7800.00
01412             140.00    -7600.00
01413             100.00    -7600.00
01414             100.00    -7600.00
01415             140.00    -7600.00
01416             160.00    -7600.00
01417             140.00    -7800.00
01418             140.00    -7600.00
01419             140.00    -7600.00
01420             140.00    -7600.00
01421             120.00    -7600.00
01422             160.00    -7400.00
01423             160.00    -7200.00
01424             160.00    -7600.00
01425             140.00    -7200.00
01426             140.00    -7600.00
01427             140.00    -7400.00
01428             160.00    -7400.00
01429             160.00    -7200.00
01430             160.00    -7200.00
01431             140.00    -7000.00
01432             140.00    -7000.00
01433             140.00    -7200.00
01434             100.00    -7000.00
01435             140.00    -7000.00
01436             160.00    -7000.00
01437             140.00    -7000.00
01438             140.00    -6800.00
01439             100.00    -6800.00
01440             100.00    -6800.00
01441             140.00    -6600.00
01442             140.00    -6600.00
01443             140.00    -6600.00
01444             100.00    -6600.00
01445             140.00    -6400.00
01446             100.00    -6200.00
01447             100.00    -6200.00
01448             140.00    -6200.00
01449             140.00    -6000.00
01450             140.00    -6000.00
01451             140.00    -6000.00
01452             120.00    -6000.00
01453             100.00    -5800.00
01454             100.00    -5400.00
01455             100.00    -5400.00
01456             140.00    -5600.00
01457             120.00    -5200.00
01458             100.00    -5200.00
01459             100.00    -5000.00
01460             100.00    -5000.00
01461             100.00    -5000.00
01462             140.00    -4600.00
01463             120.00    -4600.00
01464             100.00    -4600.00
01465             100.00    -4400.00
01466             100.00    -4200.00
01467              60.00    -4200.00
01468             100.00    -4200.00
01469             100.00    -3800.00
01470             120.00    -3800.00
01471             100.00    -3600.00
01472              80.00    -3600.00
01473              80.00    -3400.00
01474              80.00    -3400.00
01475             100.00    -3000.00
01476              80.00    -2800.00
01477              80.00    -3000.00
01478              80.00    -2800.00
01479              80.00    -2800.00
01480              80.00    -2600.00
01481              80.00    -2200.00
01482             100.00    -2200.00
01483              80.00    -2000.00
01484              60.00    -2000.00
01485              60.00    -1800.00
01486              60.00    -1400.00
01487              60.00    -1400.00
01488              60.00    -1400.00
01489              80.00    -1200.00
01490              60.00    -1000.00
01491              60.00     -800.00
01492              60.00     -800.00
01493              60.00     -600.00
01494              60.00     -600.00
01495              60.00     -400.00
01496              40.00     -200.00
01497              60.00     -200.00
01498              20.00        0.00
01499              60.00      200.00
01500              80.00      400.00
01501             140.00      400.00
01502             160.00      600.00
01503             100.00      800.00
01504              80.00     1000.00
01505              60.00     1000.00
01506              60.00     1000.00
01507             300.00     1400.00
01508             960.00     1400.00
01509             900.00     1600.00
01510            -160.00     1800.00
01511           -1600.00     1800.00
01512           -1780.00     1800.00
01513             320.00     2600.00
01514            1020.00     2200.00
01515            -240.00     2200.00
01516             320.00     2400.00
01517             620.00     2600.00
01518            -400.00     3400.00
01519            -140.00     2800.00
01520               0.00     2800.00
01521              60.00     3800.00
01522             380.00     3000.00
01523            -420.00     3200.00
01524            -100.00     4200.00
01525             220.00     3800.00
01526            -460.00     3600.00
01527             180.00     4200.00
01528             240.00     3800.00
01529            -300.00     4400.00
01530               0.00     4200.00
01531               0.00     4400.00
01532               0.00     5000.00
01533            -120.00     4200.00
01534            -100.00     5000.00
01535             140.00     5000.00
01536            -140.00     5000.00
01537             -80.00     5200.00
01538             -20.00     5200.00
01539             -60.00     5600.00
01540               0.00     5400.00
01541             -80.00     5600.00
01542             -20.00     6000.00
01543            -140.00     5800.00
01544            -100.00     6000.00
01545               0.00     6000.00
01546            -100.00     6000.00
01547            -100.00     6200.00
01548            -100.00     6200.00
01549            -100.00     6400.00
01550            -100.00     6200.00
01551             -20.00     6600.00
01552             -60.00     6600.00
01553            -140.00     6600.00
01554            -120.00     6800.00
01555            -100.00     6800.00
01556             -80.00     6800.00
01557            -100.00     6800.00
01558             -80.00     7000.00
01559            -140.00     7000.00
01560            -140.00     7000.00
01561             -80.00     7000.00
01562             -80.00     7000.00
01563            -100.00     7200.00
01564            -120.00     7200.00
01565            -100.00     7400.00
01566            -140.00     7400.00
01567            -140.00     7400.00
01568            -120.00     7600.00
01569            -100.00     7400.00
01570            -100.00     7400.00
01571             -80.00     7600.00
01572            -120.00     7400.00
01573            -160.00     7600.00
01574            -140.00     7400.00
01575            -100.00     7600.00
01576            -140.00     7600.00
01577            -160.00     7600.00
01578            -100.00     7600.00
01579            -140.00     7600.00
01580            -160.00     7600.00
01581            -140.00     7600.00
01582            -120.00     7800.00
01583            -160.00     7600.00
01584            -140.00     7600.00
01585            -140.00     7600.00
01586            -140.00     7600.00
01587            -160.00     7600.00
01588            -140.00     7600.00
01589            -140.00     7600.00
01590            -140.00     7600.00
01591            -140.00     7600.00
01592            -140.00     7600.00
01593            -140.00     7400.00
01594            -160.00     7400.00
01595            -120.00     7400.00
01596            -120.00     7400.00
01597            -140.00     7200.00
01598            -140.00     7400.00
01599            -160.00     7400.00
01600            -160.00     7200.00
01601            -160.00     7400.00
01602            -100.00     7000.00
01603            -100.00     7000.00
01604            -120.00     6800.00
01605            -140.00     7000.00
01606            -140.00     6800.00
01607            -140.00     6800.00
01608            -140.00     6800.00
01609            -100.00     6600.00
01610            -140.00     6600.00
01611            -140.00     6400.00
01612            -140.00     6600.00
01613            -140.00     6200.00
01614            -100.00     6200.00
01615            -120.00     6200.00
01616            -100.00     6200.00
01617            -100.00     6000.00
01618            -140.00     6000.00
01619            -140.00     5800.00
01620            -140.00     5800.00
01621            -120.00     5800.00
01622            -100.00     5600.00
01623            -100.00     5400.00
01624            -100.00     5400.00
01625            -140.00     5200.00
01626            -140.00     5200.00
01627            -120.00     5200.00
01628            -100.00     5000.00
01629            -100.00     4600.00
01630            -100.00     4600.00
01631            -100.00     4400.00
01632            -100.00     4400.00
01633            -140.00     4200.00
01634            -100.00     4200.00
01635            -100.00     4200.00
01636            -100.00     4000.00
01637            -100.00     3800.00
01638            -100.00     3600.00
01639            -120.00     3600.00
01640            -100.00     3400.00
01641            -100.00     3400.00
01642            -100.00     3200.00
01643            -100.00     3000.00
01644             -80.00     3000.00
01645             -80.00     2800.00
01646             -80.00     2800.00
01647             -80.00     2600.00
01648            -100.00     2200.00
01649            -100.00     2200.00
01650             -80.00     1800.00
01651             -80.00     2000.00
01652            -100.00     1800.00
01653            -100.00     1600.00
01654             -60.00     1600.00
01655             -20.00     1400.00
01656             -60.00     1400.00
01657             -80.00     1200.00
01658             -60.00     1000.00
01659             -20.00     1000.00
01660             -40.00      600.00
01661             -60.00      600.00
01662             -40.00      400.00
01663             -60.00      400.00
01664             -60.00      200.00
01665               0.00        0.00
01666              20.00        0.00
01667              20.00     -200.00
01668              80.00     -200.00
01669             100.00     -600.00
01670              60.00     -600.00
01671               0.00     -600.00
01672               0.00     -800.00
01673              20.00    -1000.00
01674              60.00     -800.00
01675             400.00    -1200.00
01676             880.00    -1800.00
01677             640.00    -1800.00
01678            -320.00    -2000.00
01679           -1280.00    -2000.00
01680           -1500.00    -1800.00
01681             100.00    -2000.00
01682             780.00    -2600.00
01683            -100.00    -2200.00
01684             300.00    -2800.00
01685             500.00    -2800.00
01686            -100.00    -2400.00
01687             100.00    -3000.00
01688            -100.00    -3200.00
01689             -40.00    -3000.00
01690             480.00    -3400.00
01691             -80.00    -3600.00
01692            -240.00    -3600.00
01693              60.00    -3600.00
01694             -80.00    -3800.00
01695              80.00    -4200.00
01696             180.00    -4200.00
01697             -40.00    -4200.00
01698             -60.00    -4600.00
01699             140.00    -4400.00
01700             180.00    -4600.00
01701             -80.00    -5000.00
01702               0.00    -5000.00
01703             200.00    -5000.00
01704              60.00    -5000.00
01705               0.00    -5400.00
01706              60.00    -5200.00
01707             140.00    -5200.00
01708              80.00    -5600.00
01709              40.00    -5600.00
01710             100.00    -5800.00
01711              20.00    -5800.00
01712              80.00    -6000.00
01713             160.00    -6000.00
01714              60.00    -6000.00
01715               0.00    -6200.00
01716             100.00    -6200.00
01717             140.00    -6200.00
01718              60.00    -6400.00
01719             100.00    -6600.00
01720             160.00    -6600.00
01721              80.00    -6600.00
01722              60.00    -6800.00
01723             140.00    -6600.00
01724             140.00    -6800.00
01725             120.00    -7000.00
01726             140.00    -6800.00
01727             100.00    -7000.00
01728              60.00    -7000.00
01729             100.00    -7000.00
01730             160.00    -7200.00
01731             120.00    -7200.00
01732             100.00    -7200.00
01733             140.00    -7400.00
01734             100.00    -7200.00
01735             100.00    -7400.00
01736             160.00    -7200.00
01737             160.00    -7400.00
01738             140.00    -7400.00
01739             140.00    -7600.00
01740             160.00    -7600.00
01741             120.00    -7400.00
01742             100.00    -7600.00
01743             160.00    -7600.00
01744             140.00    -7600.00
01745             100.00    -7600.00
01746             140.00    -7600.00
01747             140.00    -7600.00
01748             100.00    -7600.00
01749             140.00    -7600.00
01750             160.00    -7600.00
01751             140.00    -7600.00
01752             120.00    -7600.00
01753             140.00    -7400.00
01754             140.00    -7600.00
01755             100.00    -7200.00
01756             140.00    -7600.00
01757             160.00    -7400.00
01758             140.00    -7600.00
01759             140.00    -7600.00
01760             140.00    -7200.00
01761             140.00    -7200.00
01762             140.00    -7600.00
01763             140.00    -7200.00
01764             140.00    -7400.00
01765             140.00    -7200.00
01766             140.00    -7000.00
01767             140.00    -7200.00
01768             100.00    -7200.00
01769             140.00    -7000.00
01770             160.00    -7000.00
01771             160.00    -7000.00
01772             140.00    -7000.00
01773             140.00    -6800.00
01774             100.00    -6800.00
01775             100.00    -6600.00
01776             140.00    -6600.00
01777             160.00    -6600.00
01778             140.00    -6600.00
01779             140.00    -6400.00
01780             100.00    -6200.00
01781             140.00    -6400.00
01782             140.00    -6200.00
01783             140.00    -6000.00
01784             160.00    -6000.00
01785             160.00    -5800.00
01786             120.00    -5800.00
01787             100.00    -5800.00
01788             120.00    -5600.00
01789             120.00    -5400.00
01790              80.00    -5400.00
01791             100.00    -5400.00
01792             140.00    -5200.00
01793             160.00    -5200.00
01794             100.00    -5000.00
01795             120.00    -5000.00
01796             100.00    -4800.00
01797             100.00    -4600.00
01798             100.00    -4600.00
01799             140.00    -4400.00
01800             100.00    -4400.00
01801             100.00    -4200.00
01802              80.00    -4000.00
01803             100.00    -3800.00
01804             100.00    -3800.00
01805             100.00    -3800.00
01806             100.00    -3600.00
01807             100.00    -3400.00
01808              80.00    -3400.00
01809              80.00    -3200.00
01810              60.00    -3000.00
01811              80.00    -2800.00
01812              80.00    -3000.00
01813              80.00    -2800.00
01814              80.00    -2600.00
01815              80.00    -2400.00
01816              80.00    -2200.00
01817              80.00    -2200.00
01818              60.00    -2000.00
01819              60.00    -2000.00
01820              60.00    -1800.00
01821              60.00    -1400.00
01822              80.00    -1400.00
01823              80.00    -1400.00
01824              60.00    -1200.00
01825              20.00     -800.00
01826              20.00     -800.00
01827              40.00     -600.00
01828              60.00     -600.00
01829              60.00     -600.00
01830              60.00     -200.00
01831              60.00     -200.00
01832               0.00        0.00
01833              20.00      200.00
01834              60.00      400.00
01835             120.00      400.00
01836             160.00      600.00
01837             140.00      600.00
01838             100.00      800.00
01839              60.00     1000.00
01840              60.00     1000.00
01841             100.00     1200.00
01842             580.00     1400.00
01843            1080.00     1800.00
01844             500.00     1600.00
01845            -800.00     1600.00
01846           -2020.00     1600.00
01847            -980.00     2200.00
01848            1040.00     2600.00
01849             400.00     2000.00
01850            -160.00     2200.00
01851             660.00     2200.00
01852              80.00     2800.00
01853            -400.00     3400.00
01854              20.00     2400.00
01855             -60.00     3400.00
01856             320.00     3600.00
01857               0.00     3000.00
01858            -480.00     3600.00
01859             300.00     4000.00
01860            -100.00     3400.00
01861            -320.00     4000.00
01862             380.00     4000.00
01863            -100.00     4200.00
01864            -220.00     4400.00
01865              80.00     4000.00
01866               0.00     4600.00
01867               0.00     4600.00
01868            -180.00     4400.00
01869              20.00     5200.00
01870              20.00     4800.00
01871            -160.00     5000.00
01872             -20.00     5400.00
01873             -80.00     5400.00
01874               0.00     5600.00
01875             -40.00     5200.00
01876             -60.00     5800.00
01877             -20.00     5800.00
01878            -140.00     5800.00
01879             -20.00     6000.00
01880             -60.00     5800.00
01881            -100.00     6200.00
01882             -80.00     6200.00
01883             -80.00     6200.00
01884            -100.00     6200.00
01885             -60.00     6200.00
01886               0.00     6600.00
01887            -100.00     6600.00
01888            -160.00     6400.00
01889            -100.00     6800.00
01890            -100.00     6800.00
01891            -100.00     6800.00
01892            -100.00     7000.00
01893            -100.00     7000.00
01894            -140.00     7000.00
01895            -120.00     7000.00
01896             -80.00     7000.00
01897            -100.00     7000.00
01898            -100.00     7000.00
01899            -100.00     7200.00
01900            -100.00     7200.00
01901            -160.00     7400.00
01902            -160.00     7400.00
01903            -120.00     7400.00
01904            -100.00     7400.00
01905             -80.00     7600.00
01906             -80.00     7400.00
01907            -160.00     7600.00
01908            -160.00     7600.00
01909            -140.00     7600.00
01910            -100.00     7600.00
01911            -140.00     7600.00
01912            -140.00     7600.00
01913            -100.00     7600.00
01914            -140.00     7600.00
01915            -140.00     7600.00
01916            -120.00     7600.00
01917            -100.00     7600.00
01918            -140.00     7600.00
01919            -120.00     7600.00
01920            -100.00     7600.00
01921            -140.00     7600.00
01922            -160.00     7600.00
01923            -140.00     7600.00
01924            -100.00     7600.00
01925            -140.00     7600.00
01926            -100.00     7400.00
01927            -140.00     7400.00
01928            -140.00     7400.00
01929            -140.00     7400.00
01930            -120.00     7400.00
01931            -140.00     7400.00
01932            -140.00     7400.00
01933            -100.00     7400.00
01934            -140.00     7400.00
01935            -160.00     7000.00
01936            -100.00     7000.00
01937            -100.00     7000.00
01938            -120.00     7000.00
01939            -160.00     6800.00
01940            -140.00     6800.00
01941            -140.00     6800.00
01942            -140.00     6800.00
01943            -140.00     6600.00
01944            -120.00     6600.00
01945            -140.00     6600.00
01946            -140.00     6600.00
01947            -100.00     6400.00
01948            -100.00     6200.00
01949            -140.00     6200.00
01950            -140.00     6000.00
01951            -140.00     6000.00
01952            -120.00     6000.00
01953            -140.00     5800.00
01954            -140.00     5600.00
01955            -140.00     5800.00
01956            -100.00     5600.00
01957            -100.00     5600.00
01958            -140.00     5400.00
01959            -120.00     5200.00
01960            -140.00     5200.00
01961            -120.00     5200.00
01962            -100.00     5000.00
01963            -100.00     4800.00
01964            -100.00     4800.00
01965            -120.00     4600.00
01966            -140.00     4400.00
01967            -100.00     4400.00
01968            -140.00     4200.00
01969            -120.00     4200.00
01970            -100.00     4000.00
01971            -100.00     3800.00
01972            -100.00     3800.00
01973            -100.00     3600.00
01974            -120.00     3600.00
01975            -100.00     3400.00
01976            -100.00     3200.00
01977            -100.00     3000.00
01978             -80.00     3000.00
01979             -80.00     2800.00
01980             -80.00     2600.00
01981             -80.00     2600.00
01982            -100.00     2400.00
01983             -80.00     2200.00
01984             -80.00     2200.00
01985             -80.00     2000.00
01986             -80.00     2000.00
01987             -80.00     1800.00
01988             -60.00     1400.00
01989             -60.00     1400.00
01990             -60.00     1400.00
01991             -60.00     1200.00
01992             -60.00     1200.00
01993             -60.00     1000.00
01994             -20.00      600.00
01995             -60.00      600.00
01996             -60.00      400.00
01997             -60.00      400.00
01998             -20.00      200.00
01999             -20.00      200.00
02000             -20.00     -200.00
02001               0.00     -200.00
02002              60.00     -400.00
02003              80.00     -400.00
02004              80.00     -600.00
02005              60.00     -600.00
02006              20.00     -800.00
02007              20.00     -800.00
02008              40.00    -1000.00
02009             140.00    -1200.00
02010             620.00    -1400.00
02011             880.00    -1800.00
02012             240.00    -2000.00
02013            -760.00    -2000.00
02014           -1580.00    -2000.00
02015            -900.00    -1800.00
02016             720.00    -2400.00
02017             320.00    -2400.00
02018             -80.00    -2400.00
02019             540.00    -3400.00
02020             160.00    -2600.00
02021             -20.00    -2800.00
02022             140.00    -3400.00
02023            -220.00    -3000.00
02024             260.00    -3200.00
02025             320.00    -3800.00
02026            -300.00    -3400.00
02027             -80.00    -3800.00
02028               0.00    -3600.00
02029             -60.00    -4000.00
02030             180.00    -4200.00
02031              80.00    -3800.00
02032             -80.00    -4400.00
02033              20.00    -4600.00
02034             180.00    -4400.00
02035              60.00    -4600.00
02036            -100.00    -5000.00
02037             160.00    -5000.00
02038             180.00    -5000.00
02039              20.00    -5200.00
02040               0.00    -5400.00
02041              40.00    -5200.00
02042             100.00    -5400.00
02043              20.00    -5600.00
02044             100.00    -5400.00
02045             140.00    -5800.00
02046              60.00    -6000.00
02047             140.00    -6000.00
02048             100.00    -6000.00
02049               0.00    -6200.00
02050              20.00    -6200.00
02051             140.00    -6000.00
02052             120.00    -6400.00
02053              80.00    -6600.00
02054             160.00    -6600.00
02055             140.00    -6600.00
02056              60.00    -6600.00
02057              80.00    -6800.00
02058             120.00    -6800.00
02059             100.00    -7000.00
02060             140.00    -7000.00
02061             140.00    -6800.00
02062              80.00    -7000.00
02063              80.00    -7200.00
02064             100.00    -7000.00
02065             140.00    -7200.00
02066             100.00    -7400.00
02067             140.00    -7200.00
02068             160.00    -7400.00
02069             100.00    -7200.00
02070              80.00    -7400.00
02071             140.00    -7200.00
02072             160.00    -7400.00
02073             140.00    -7400.00
02074             140.00    -7400.00
02075             140.00    -7600.00
02076             100.00    -7600.00
02077             140.00    -7600.00
02078             160.00    -7600.00
02079             100.00    -7600.00
02080             140.00    -7600.00
02081             160.00    -7600.00
02082             140.00    -7800.00
02083             140.00    -7600.00
02084             140.00    -7600.00
02085             140.00    -7600.00
02086             120.00    -7600.00
02087             140.00    -7600.00
02088             140.00    -7600.00
02089             120.00    -7600.00
02090             120.00    -7600.00
02091             160.00    -7400.00
02092             160.00    -7200.00
02093             140.00    -7600.00
02094             140.00    -7200.00
02095             160.00    -7400.00
02096             120.00    -7200.00
02097             140.00    -7200.00
02098             140.00    -7200.00
02099             160.00    -7400.00
02100             140.00    -7200.00
02101             140.00    -7200.00
02102             120.00    -7000.00
02103             100.00    -7000.00
02104             140.00    -7000.00
02105             160.00    -7000.00
02106             160.00    -7000.00
02107             140.00    -7000.00
02108             100.00    -6800.00
02109             100.00    -6800.00
02110             100.00    -6600.00
02111             160.00    -6800.00
02112             180.00    -6600.00
02113             160.00    -6600.00
02114             140.00    -6400.00
02115             120.00    -6200.00
02116             100.00    -6200.00
02117             140.00    -6200.00
02118             140.00    -6000.00
02119             140.00    -6000.00
02120             140.00    -5800.00
02121             100.00    -5800.00
02122             100.00    -5600.00
02123             120.00    -5600.00
02124             140.00    -5600.00
02125             140.00    -5400.00
02126             140.00    -5400.00
02127             140.00    -5200.00
02128             140.00    -5000.00
02129             100.00    -5000.00
02130             100.00    -5000.00
02131             120.00    -4800.00
02132             140.00    -4600.00
02133             100.00    -4600.00
02134             100.00    -4400.00
02135             100.00    -4400.00
02136             100.00    -4200.00
02137             100.00    -4200.00
02138             120.00    -4000.00
02139             100.00    -3800.00
02140              80.00    -3600.00
02141              80.00    -3600.00
02142              80.00    -3400.00
02143              80.00    -3400.00
02144             100.00    -3000.00
02145             100.00    -3000.00
02146             100.00    -2800.00
02147              80.00    -2800.00
02148              80.00    -2600.00
02149              60.00    -2600.00
02150              60.00    -2600.00
02151              80.00    -2200.00
02152              80.00    -2200.00
02153              80.00    -2000.00
02154              60.00    -1800.00
02155              60.00    -1800.00
02156              60.00    -1400.00
02157              60.00    -1400.00
02158              60.00    -1400.00
02159              60.00    -1200.00
02160              60.00     -800.00
02161              60.00    -1000.00
02162              40.00     -600.00
02163              60.00     -600.00
02164              40.00     -400.00
02165              60.00     -200.00
02166              60.00     -200.00
02167              60.00        0.00
02168              60.00      200.00
02169              80.00      200.00
02170             140.00      400.00
02171             160.00      600.00
02172             140.00      600.00
02173              80.00      800.00
02174              60.00      800.00
02175              60.00     1000.00
02176             220.00     1200.00
02177             920.00     1600.00
02178             960.00     1800.00
02179             -20.00     1800.00
02180           -1440.00     1600.00
02181           -1900.00     1800.00
02182              80.00     2400.00
02183            1080.00     2200.00
02184            -160.00     2200.00
02185             220.00     2400.00
02186             700.00     2600.00
02187            -340.00     3200.00
02188            -160.00     2800.00
02189              20.00     2800.00
02190              40.00     3600.00
02191             420.00     3200.00
02192            -340.00     3000.00
02193            -200.00     4000.00
02194             260.00     3600.00
02195            -440.00     3600.00
02196              80.00     4200.00
02197             320.00     4000.00
02198            -300.00     4400.00
02199               0.00     4200.00
02200              60.00     4200.00
02201               0.00     5000.00
02202            -100.00     4400.00
02203            -100.00     5000.00
02204             140.00     5000.00
02205            -140.00     4800.00
02206            -100.00     5200.00
02207             -20.00     5200.00
02208             -80.00     5400.00
02209              20.00     5400.00
02210             -60.00     5600.00
02211               0.00     6000.00
02212            -100.00     5800.00
02213            -120.00     6000.00
02214               0.00     6000.00
02215            -100.00     6000.00
02216            -100.00     6200.00
02217             -80.00     6000.00
02218            -100.00     6400.00
02219            -100.00     6200.00
02220             -40.00     6200.00
02221             -60.00     6600.00
02222            -140.00     6200.00
02223            -140.00     6800.00
02224            -100.00     6600.00
02225             -80.00     6800.00
02226            -100.00     7000.00
02227            -100.00     6800.00
02228            -140.00     7000.00
02229            -160.00     7000.00
02230             -80.00     7200.00
02231             -80.00     7000.00
02232            -100.00     7400.00
02233            -100.00     7000.00
02234            -100.00     7400.00
02235            -140.00     7400.00
02236            -140.00     7200.00
02237            -100.00     7400.00
02238            -120.00     7400.00
02239            -100.00     7600.00
02240             -80.00     7400.00
02241            -120.00     7400.00
02242            -160.00     7600.00
02243            -140.00     7400.00
02244             -80.00     7600.00
02245            -100.00     7600.00
02246            -120.00     7600.00
02247            -100.00     7800.00
02248            -120.00     7600.00
02249            -160.00     7800.00
02250            -100.00     7800.00
02251            -100.00     7600.00
02252            -120.00     7600.00
02253            -100.00     7600.00
02254            -100.00     7600.00
02255            -140.00     7600.00
02256            -160.00     7600.00
02257            -100.00     7600.00
02258            -100.00     7600.00
02259            -140.00     7400.00
02260            -120.00     7600.00
02261            -140.00     7400.00
02262            -140.00     7400.00
02263            -140.00     7400.00
02264            -120.00     7400.00
02265            -140.00     7400.00
02266            -140.00     7400.00
02267            -100.00     7400.00
02268            -120.00     7200.00
02269            -140.00     7200.00
02270            -140.00     7200.00
02271            -100.00     7000.00
02272            -120.00     7000.00
02273            -140.00     6800.00
02274            -140.00     6800.00
02275            -140.00     6800.00
02276            -140.00     6800.00
02277            -120.00     6800.00
02278            -100.00     6600.00
02279            -140.00     6600.00
02280            -140.00     6600.00
02281            -140.00     6600.00
02282            -140.00     6200.00
02283            -140.00     6200.00
02284            -140.00     6000.00
02285            -100.00     6000.00
02286            -120.00     6000.00
02287            -120.00     6000.00
02288            -140.00     5800.00
02289            -140.00     5800.00
02290            -140.00     5600.00
02291            -100.00     5600.00
02292            -100.00     5200.00
02293            -120.00     5200.00
02294            -100.00     5200.00
02295            -140.00     5000.00
02296            -120.00     5000.00
02297            -140.00     4800.00
02298            -100.00     4600.00
02299            -100.00     4600.00
02300            -100.00     4400.00
02301            -100.00     4400.00
02302            -100.00     4200.00
02303            -100.00     4200.00
02304            -100.00     4200.00
02305            -100.00     3800.00
02306            -100.00     3800.00
02307            -100.00     3800.00
02308            -100.00     3600.00
02309            -100.00     3400.00
02310            -100.00     3400.00
02311             -80.00     3200.00
02312            -100.00     3000.00
02313             -80.00     3000.00
02314             -80.00     2800.00
02315             -60.00     2800.00
02316             -80.00     2400.00
02317             -80.00     2600.00
02318             -80.00     2200.00
02319             -60.00     2000.00
02320            -100.00     2000.00
02321             -80.00     1800.00
02322             -80.00     1600.00
02323             -60.00     1600.00
02324             -40.00     1400.00
02325             -20.00     1200.00
02326             -60.00     1200.00
02327             -40.00     1000.00
02328             -60.00      800.00
02329             -60.00      800.00
02330             -60.00      600.00
02331             -60.00      400.00
02332             -20.00      400.00
02333             -20.00      200.00
02334             -20.00        0.00
02335             -20.00     -200.00
02336               0.00     -400.00
02337              80.00     -400.00
02338              80.00     -600.00
02339              80.00     -600.00
02340              40.00     -600.00
02341               0.00     -800.00
02342               0.00    -1000.00
02343              40.00    -1200.00
02344             320.00    -1200.00
02345             860.00    -1600.00
02346             700.00    -1800.00
02347            -220.00    -2000.00
02348           -1200.00    -2000.00
02349           -1560.00    -1800.00
02350             -80.00    -2000.00
02351             800.00    -2600.00
02352             -80.00    -2200.00
02353             220.00    -2600.00
02354             520.00    -2800.00
02355             -80.00    -2400.00
02356             120.00    -3000.00
02357             -60.00    -3400.00
02358            -100.00    -3000.00
02359             460.00    -3400.00
02360               0.00    -3600.00
02361            -260.00    -3600.00
02362              60.00    -3600.00
02363             -60.00    -3800.00
02364              60.00    -4200.00
02365             220.00    -4200.00
02366               0.00    -4200.00
02367             -60.00    -4600.00
02368             100.00    -4400.00
02369             180.00    -4600.00
02370             -60.00    -4800.00
02371               0.00    -5000.00
02372             180.00    -5000.00
02373              60.00    -5000.00
02374               0.00    -5400.00
02375              60.00    -5200.00
02376             120.00    -5200.00
02377             100.00    -5600.00
02378              60.00    -5400.00
02379             100.00    -5600.00
02380              60.00    -5800.00
02381              80.00    -6000.00
02382             160.00    -6000.00
02383              80.00    -6000.00
02384               0.00    -6200.00
02385              80.00    -6200.00
02386             140.00    -6200.00
02387              80.00    -6400.00
02388              80.00    -6600.00
02389             160.00    -6600.00
02390             100.00    -6600.00
02391              80.00    -6800.00
02392             140.00    -6800.00
02393             140.00    -6800.00
02394             100.00    -7000.00
02395             140.00    -6800.00
02396             120.00    -7000.00
02397              80.00    -7000.00
02398             100.00    -7000.00
02399             180.00    -7000.00
02400             140.00    -7200.00
02401             100.00    -7400.00
02402             140.00    -7200.00
02403             100.00    -7200.00
02404              80.00    -7400.00
02405             140.00    -7400.00
02406             140.00    -7200.00
02407             140.00    -7400.00
02408             140.00    -7400.00
02409             140.00    -7400.00
02410              80.00    -7600.00
02411             100.00    -7600.00
02412             160.00    -7600.00
02413             140.00    -7800.00
02414             100.00    -7600.00
02415             140.00    -7600.00
02416             140.00    -7600.00
02417             100.00    -7600.00
02418             140.00    -7600.00
02419             160.00    -7600.00
02420             160.00    -7600.00
02421             120.00    -7600.00
02422             140.00    -7600.00
02423             140.00    -7600.00
02424             120.00    -7600.00
02425             140.00    -7600.00
02426             160.00    -7600.00
02427             140.00    -7200.00
02428             120.00    -7400.00
02429             140.00    -7400.00
02430             140.00    -7200.00
02431             140.00    -7200.00
02432             140.00    -7400.00
02433             160.00    -7200.00
02434             140.00    -7200.00
02435             140.00    -7200.00
02436             140.00    -7200.00
02437             140.00    -7000.00
02438             140.00    -7000.00
02439             160.00    -7000.00
02440             160.00    -7000.00
02441             140.00    -7000.00
02442             140.00    -6800.00
02443             100.00    -6600.00
02444             100.00    -6600.00
02445             140.00    -6800.00
02446             140.00    -6600.00
02447             160.00    -6400.00
02448             140.00    -6400.00
02449             140.00    -6400.00
02450             100.00    -6200.00
02451             140.00    -6200.00
02452             160.00    -6000.00
02453             140.00    -6000.00
02454             140.00    -6000.00
02455             140.00    -5800.00
02456             140.00    -5800.00
02457             120.00    -5600.00
02458             100.00    -5600.00
02459             140.00    -5400.00
02460             140.00    -5400.00
02461             120.00    -5200.00
02462             140.00    -5200.00
02463             140.00    -5000.00
02464              80.00    -5000.00
02465             100.00    -4800.00
02466             100.00    -4600.00
02467             120.00    -4600.00
02468             100.00    -4400.00
02469             100.00    -4600.00
02470             100.00    -4200.00
02471             100.00    -4200.00
02472             100.00    -4000.00
02473             100.00    -3800.00
02474             100.00    -3800.00
02475             100.00    -3600.00
02476             100.00    -3400.00
02477              80.00    -3400.00
02478              80.00    -3400.00
02479              80.00    -3200.00
02480              80.00    -3000.00
02481              80.00    -2800.00
02482              80.00    -2800.00
02483              80.00    -2600.00
02484              80.00    -2400.00
02485              60.00    -2200.00
02486              60.00    -2200.00
02487              60.00    -2000.00
02488              80.00    -2000.00
02489              60.00    -1800.00
02490              60.00    -1600.00
02491              60.00    -1400.00
02492              60.00    -1200.00
02493              80.00    -1200.00
02494              60.00    -1200.00
02495              60.00     -800.00
02496              60.00     -800.00
02497              40.00     -600.00
02498              20.00     -400.00
02499              60.00     -400.00
02500              60.00     -200.00
02501              40.00        0.00
02502              40.00      200.00
02503              60.00      400.00
02504             120.00      400.00
02505             160.00      400.00
02506             140.00      600.00
02507             100.00      600.00
02508              60.00     1000.00
02509              60.00     1000.00
02510              80.00     1200.00
02511             480.00     1400.00
02512            1100.00     1800.00
02513             620.00     1600.00
02514            -660.00     1800.00
02515           -1940.00     1600.00
02516           -1200.00     2200.00
02517             940.00     2200.00
02518             540.00     2200.00
02519            -240.00     2200.00
02520             640.00     2400.00
02521             240.00     2800.00
02522            -420.00     3200.00
02523               0.00     2400.00
02524             -80.00     3000.00
02525             300.00     3800.00
02526             160.00     3000.00
02527            -480.00     3800.00
02528             180.00     4200.00
02529             -60.00     3600.00
02530            -380.00     4000.00
02531             380.00     4000.00
02532             -20.00     4200.00
02533            -240.00     4400.00
02534              80.00     4200.00
02535               0.00     4600.00
02536               0.00     4800.00
02537            -180.00     4200.00
02538              20.00     5200.00
02539              40.00     4600.00
02540            -180.00     5000.00
02541             -20.00     5200.00
02542             -80.00     5200.00
02543             -20.00     5600.00
02544             -20.00     5200.00
02545             -80.00     5800.00
02546             -20.00     5800.00
02547            -160.00     5800.00
02548             -20.00     6200.00
02549             -20.00     5800.00
02550            -100.00     6000.00
02551             -80.00     6200.00
02552            -100.00     6200.00
02553            -100.00     6200.00
02554            -100.00     6200.00
02555             -20.00     6600.00
02556            -100.00     6600.00
02557            -160.00     6600.00
02558            -100.00     6600.00
02559             -60.00     6800.00
02560             -20.00     6800.00
02561             -20.00     6800.00
02562             -80.00     6800.00
02563            -160.00     7000.00
02564            -160.00     7000.00
02565            -160.00     7000.00
02566            -180.00     7200.00
02567            -160.00     7200.00
02568            -100.00     7000.00
02569             -20.00     7400.00
02570             -20.00     7400.00
02571             -20.00     7400.00
02572             -60.00     7600.00
02573            -140.00     7400.00
02574            -180.00     7600.00
02575            -200.00     7600.00
02576            -240.00     7600.00
02577            -180.00     7600.00
02578             -80.00     7400.00
02579             -40.00     7800.00
02580             -60.00     7600.00
02581             -80.00     7600.00
02582            -100.00     7600.00
02583            -160.00     7600.00
02584            -160.00     7600.00
02585            -140.00     7800.00
02586            -160.00     7600.00
02587            -160.00     7600.00
02588            -120.00     7600.00
02589            -100.00     7600.00
02590            -120.00     7600.00
02591            -140.00     7600.00
02592            -100.00     7600.00
02593            -100.00     7800.00
02594            -140.00     7600.00
02595            -160.00     7600.00
02596            -160.00     7400.00
02597            -160.00     7400.00
02598            -160.00     7600.00
02599            -140.00     7400.00
02600            -100.00     7400.00
02601             -80.00     7200.00
02602             -80.00     7200.00
02603            -140.00     7200.00
02604            -160.00     7200.00
02605            -160.00     7000.00
02606            -160.00     7000.00
02607            -160.00     7000.00
02608            -160.00     6800.00
02609            -140.00     6800.00
02610            -100.00     6800.00
02611            -100.00     6600.00
02612            -100.00     6600.00
02613            -140.00     6600.00
02614            -160.00     6600.00
02615            -160.00     6400.00
02616            -160.00     6400.00
02617            -140.00     6200.00
02618            -100.00     6200.00
02619            -100.00     6200.00
02620            -100.00     6000.00
02621            -140.00     6000.00
02622            -140.00     5800.00
02623            -160.00     5800.00
02624            -160.00     5800.00
02625            -140.00     5600.00
02626            -100.00     5400.00
02627            -100.00     5400.00
02628            -100.00     5400.00
02629            -100.00     5200.00
02630            -140.00     5000.00
02631            -140.00     5000.00
02632            -100.00     4800.00
02633            -100.00     4600.00
02634             -80.00     4600.00
02635             -80.00     4400.00
02636            -100.00     4400.00
02637            -100.00     4200.00
02638            -120.00     4200.00
02639            -100.00     4000.00
02640            -100.00     3800.00
02641            -100.00     3800.00
02642            -100.00     3600.00
02643            -100.00     3400.00
02644             -80.00     3400.00
02645             -80.00     3400.00
02646             -80.00     3000.00
02647            -100.00     3000.00
02648             -80.00     2800.00
02649             -80.00     2800.00
02650             -80.00     2600.00
02651             -80.00     2600.00
02652             -80.00     2400.00
02653             -80.00     2200.00
02654             -60.00     2200.00
02655             -80.00     1800.00
02656             -60.00     1800.00
02657             -60.00     1600.00
02658             -60.00     1400.00
02659             -60.00     1400.00
02660             -60.00     1200.00
02661             -60.00     1000.00
02662             -60.00     1000.00
02663             -60.00     1000.00
02664             -40.00      600.00
02665             -60.00      400.00
02666             -40.00      400.00
02667             -20.00      200.00
02668             -40.00      200.00
02669             -20.00        0.00
02670             -20.00     -200.00
02671              60.00     -200.00
02672              80.00     -400.00
02673              80.00     -600.00
02674              60.00     -800.00
02675               0.00     -800.00
02676               0.00     -800.00
02677               0.00    -1000.00
02678             100.00    -1200.00
02679             580.00    -1200.00
02680             880.00    -1800.00
02681             340.00    -2000.00
02682            -660.00    -2200.00
02683           -1540.00    -2000.00
02684           -1060.00    -1800.00
02685             620.00    -2200.00
02686             460.00    -2600.00
02687            -100.00    -2200.00
02688             480.00    -3000.00
02689             240.00    -2600.00
02690             -60.00    -2800.00
02691             140.00    -3400.00
02692            -180.00    -3200.00
02693             160.00    -3000.00
02694             380.00    -3600.00
02695            -260.00    -3600.00
02696            -100.00    -3600.00
02697              20.00    -3600.00
02698             -80.00    -3800.00
02699             200.00    -4200.00
02700             140.00    -4200.00
02701             -80.00    -4400.00
02702              20.00    -4600.00
02703             180.00    -4400.00
02704             100.00    -4600.00
02705            -100.00    -4800.00
02706             100.00    -5000.00
02707             160.00    -4800.00
02708               0.00    -5000.00
02709              20.00    -5400.00
02710              80.00    -5200.00
02711             160.00    -5400.00
02712              60.00    -5800.00
02713              80.00    -5600.00
02714             120.00    -5600.00
02715              60.00    -5800.00
02716             140.00    -6000.00
02717             160.00    -6000.00
02718              40.00    -6200.00
02719              20.00    -6200.00
02720             120.00    -6200.00
02721              80.00    -6400.00
02722              60.00    -6400.00
02723             160.00    -6600.00
02724             160.00    -6400.00
02725              80.00    -6800.00
02726              80.00    -6600.00
02727             140.00    -6600.00
02728             100.00    -6800.00
02729             100.00    -7000.00
02730             140.00    -7000.00
02731              80.00    -7000.00
02732              80.00    -7000.00
02733             140.00    -7000.00
02734             160.00    -7200.00
02735             100.00    -7200.00
02736             100.00    -7200.00
02737             140.00    -7200.00
02738              80.00    -7400.00
02739             100.00    -7200.00
02740             140.00    -7400.00
02741             140.00    -7400.00
02742             100.00    -7600.00
02743             140.00    -7600.00
02744             140.00    -7600.00
02745             100.00    -7600.00
02746             100.00    -7600.00
02747             160.00    -7600.00
02748             140.00    -7600.00
02749             100.00    -7600.00
02750             140.00    -7600.00
02751             120.00    -7800.00
02752              80.00    -7600.00
02753             140.00    -7800.00
02754             160.00    -7600.00
02755             140.00    -7600.00
02756             140.00    -7600.00
02757             140.00    -7800.00
02758             100.00    -7600.00
02759             120.00    -7600.00
02760             140.00    -7200.00
02761             160.00    -7600.00
02762             160.00    -7600.00
02763             140.00    -7400.00
02764             140.00    -7400.00
02765             140.00    -7200.00
02766             140.00    -7200.00
02767             160.00    -7200.00
02768             140.00    -7200.00
02769             140.00    -7200.00
02770             140.00    -7200.00
02771             140.00    -7000.00
02772             120.00    -7000.00
02773             140.00    -7000.00
02774             160.00    -7000.00
02775             140.00    -7000.00
02776             140.00    -6800.00
02777             140.00    -6800.00
02778             140.00    -6600.00
02779             140.00    -6800.00
02780             160.00    -6600.00
02781             160.00    -6600.00
02782             140.00    -6600.00
02783             140.00    -6400.00
02784             140.00    -6200.00
02785             140.00    -6200.00
02786             140.00    -6200.00
02787             140.00    -6000.00
02788             140.00    -6000.00
02789             140.00    -6000.00
02790             140.00    -5800.00
02791             100.00    -5600.00
02792             100.00    -5400.00
02793             140.00    -5600.00
02794             140.00    -5400.00
02795             140.00    -5200.00
02796             100.00    -5200.00
02797             100.00    -5200.00
02798             100.00    -5000.00
02799             100.00    -4800.00
02800             100.00    -4600.00
02801             100.00    -4600.00
02802             100.00    -4600.00
02803             100.00    -4400.00
02804              80.00    -4200.00
02805             100.00    -4200.00
02806              80.00    -4200.00
02807             100.00    -4000.00
02808             120.00    -3800.00
02809              80.00    -3800.00
02810              80.00    -3600.00
02811              60.00    -3400.00
02812              80.00    -3400.00
02813              80.00    -3000.00
02814              80.00    -3000.00
02815              80.00    -2800.00
02816              80.00    -2800.00
02817              80.00    -2600.00
02818              60.00    -2600.00
02819              60.00    -2400.00
02820              80.00    -2200.00
02821              80.00    -2200.00
02822              80.00    -2000.00
02823              60.00    -1800.00
02824              60.00    -1800.00
02825              60.00    -1400.00
02826              40.00    -1400.00
02827              80.00    -1200.00
02828              60.00    -1200.00
02829              60.00     -800.00
02830              60.00     -800.00
02831              40.00     -600.00
02832              20.00     -400.00
02833              60.00     -600.00
02834              60.00     -200.00
02835              60.00     -200.00
02836              60.00     -200.00
02837              40.00      200.00
02838              80.00      200.00
02839             140.00      400.00
02840             160.00      600.00
02841             140.00      600.00
02842             100.00      600.00
02843              60.00     1000.00
02844              60.00     1000.00
02845             180.00     1200.00
02846             840.00     1400.00
02847            1040.00     1800.00
02848             100.00     1800.00
02849           -1300.00     1600.00
02850           -1980.00     1600.00
02851            -160.00     2600.00
02852            1140.00     2400.00
02853             -80.00     2200.00
02854             100.00     2600.00
02855             740.00     2200.00
02856            -260.00     3000.00
02857            -240.00     3000.00
02858              20.00     2800.00
02859             -20.00     3600.00
02860             460.00     3200.00
02861            -240.00     3000.00
02862            -300.00     3800.00
02863             300.00     3800.00
02864            -400.00     3600.00
02865               0.00     4000.00
02866             340.00     4000.00
02867            -260.00     4400.00
02868             -60.00     4200.00
02869              40.00     4200.00
02870               0.00     4800.00
02871             -80.00     4400.00
02872            -160.00     4600.00
02873             100.00     5200.00
02874            -100.00     4600.00
02875            -160.00     5200.00
02876             -20.00     5200.00
02877             -80.00     5600.00
02878               0.00     5600.00
02879             -80.00     5400.00
02880             -20.00     5800.00
02881            -100.00     5800.00
02882            -160.00     6000.00
02883               0.00     6000.00
02884            -100.00     6000.00
02885            -100.00     6200.00
02886             -80.00     6200.00
02887            -100.00     6400.00
02888            -100.00     6400.00
02889             -40.00     6200.00
02890             -20.00     6600.00
02891            -140.00     6400.00
02892            -140.00     6600.00
02893            -100.00     6800.00
02894             -80.00     6800.00
02895             -80.00     6800.00
02896            -100.00     6800.00
02897            -120.00     7000.00
02898            -160.00     7000.00
02899             -80.00     7000.00
02900             -80.00     7200.00
02901            -100.00     7200.00
02902            -100.00     7400.00
02903            -100.00     7400.00
02904            -100.00     7200.00
02905            -160.00     7400.00
02906            -100.00     7400.00
02907            -100.00     7400.00
02908            -100.00     7400.00
02909            -100.00     7600.00
02910            -100.00     7600.00
02911            -160.00     7600.00
02912            -140.00     7600.00
02913            -100.00     7600.00
02914            -100.00     7600.00
02915            -140.00     7600.00
02916            -140.00     7600.00
02917            -140.00     7600.00
02918            -160.00     7600.00
02919            -120.00     7800.00
02920            -100.00     7600.00
02921            -140.00     7600.00
02922            -140.00     7400.00
02923            -100.00     7800.00
02924            -140.00     7600.00
02925            -160.00     7600.00
02926            -120.00     7600.00
02927            -100.00     7600.00
02928            -140.00     7400.00
02929            -140.00     7600.00
02930            -140.00     7600.00
02931            -140.00     7400.00
02932            -160.00     7400.00
02933            -140.00     7400.00
02934            -140.00     7400.00
02935            -160.00     7200.00
02936            -140.00     7400.00
02937            -140.00     7400.00
02938            -160.00     7200.00
02939            -160.00     7000.00
02940            -140.00     7000.00
02941            -120.00     7000.00
02942            -120.00     7000.00
02943            -140.00     6800.00
02944            -160.00     6800.00
02945            -160.00     6600.00
02946            -140.00     6600.00
02947            -140.00     6600.00
02948            -140.00     6600.00
02949            -140.00     6400.00
02950            -140.00     6400.00
02951            -160.00     6200.00
02952            -120.00     6200.00
02953            -140.00     6200.00
02954            -100.00     6000.00
02955            -120.00     5800.00
02956            -100.00     5800.00
02957            -140.00     5800.00
02958            -140.00     5800.00
02959            -120.00     5600.00
02960            -100.00     5600.00
02961             -80.00     5400.00
02962            -120.00     5400.00
02963            -100.00     5200.00
02964            -100.00     5200.00
02965            -100.00     5000.00
02966            -100.00     5000.00
02967            -100.00     4600.00
02968            -100.00     4600.00
02969            -100.00     4600.00
02970            -100.00     4400.00
02971            -100.00     4400.00
02972            -100.00     4200.00
02973            -100.00     4200.00
02974            -100.00     4000.00
02975             -80.00     3800.00
02976            -100.00     3800.00
02977            -100.00     3400.00
02978            -100.00     3400.00
02979            -100.00     3400.00
02980             -80.00     3200.00
02981             -80.00     3000.00
02982             -80.00     3000.00
02983             -80.00     3000.00
02984             -80.00     2800.00
02985             -80.00     2400.00
02986             -80.00     2600.00
02987             -80.00     2200.00
02988             -60.00     2200.00
02989             -80.00     2000.00
02990             -80.00     1800.00
02991             -80.00     1800.00
02992             -60.00     1800.00
02993             -60.00     1400.00
02994             -60.00     1200.00
02995             -60.00     1200.00
02996             -60.00     1000.00
02997             -20.00     1000.00
02998             -60.00      800.00
02999             -60.00      400.00
03000             -60.00      400.00
03001             -20.00      200.00
03002             -20.00      200.00
03003             -20.00      200.00
03004             -20.00     -200.00
03005               0.00     -200.00
03006              80.00     -400.00
03007              80.00     -600.00
03008              60.00     -600.00
03009              20.00     -800.00
03010               0.00    -1000.00
03011               0.00     -800.00
03012              20.00    -1200.00
03013             260.00    -1200.00
03014             820.00    -1400.00
03015             780.00    -1800.00
03016            -100.00    -2000.00
03017           -1120.00    -2000.00
03018           -1620.00    -2000.00
03019            -260.00    -2000.00
03020             860.00    -2600.00
03021               0.00    -2200.00
03022             140.00    -2600.00
03023             540.00    -3000.00
03024             -40.00    -2400.00
03025              80.00    -3000.00
03026               0.00    -3400.00
03027            -160.00    -3000.00
03028             420.00    -3200.00
03029              60.00    -3600.00
03030            -320.00    -3600.00
03031              60.00    -3800.00
03032             -60.00    -3600.00
03033               0.00    -4000.00
03034             220.00    -4200.00
03035               0.00    -4000.00
03036             -80.00    -4600.00
03037             100.00    -4400.00
03038             220.00    -4400.00
03039             -20.00    -4600.00
03040             -20.00    -4800.00
03041             180.00    -5000.00
03042              80.00    -5000.00
03043             -20.00    -5400.00
03044              60.00    -5200.00
03045             100.00    -5200.00
03046             140.00    -5600.00
03047              60.00    -5400.00
03048             120.00    -5800.00
03049              80.00    -5800.00
03050              40.00    -6000.00
03051             160.00    -6000.00
03052             100.00    -6000.00
03053               0.00    -6200.00
03054              60.00    -6200.00
03055             140.00    -6200.00
03056              80.00    -6400.00
03057             100.00    -6400.00
03058             160.00    -6600.00
03059             100.00    -6600.00
03060              40.00    -6800.00
03061             100.00    -6800.00
03062             140.00    -6800.00
03063             100.00    -7000.00
03064             100.00    -6800.00
03065             100.00    -7000.00
03066              60.00    -7200.00
03067             100.00    -7200.00
03068             160.00    -7000.00
03069             140.00    -7200.00
03070             100.00    -7200.00
03071             120.00    -7200.00
03072              80.00    -7400.00
03073              80.00    -7400.00
03074             140.00    -7200.00
03075             140.00    -7400.00
03076             140.00    -7600.00
03077             100.00    -7600.00
03078             140.00    -7200.00
03079             100.00    -7600.00
03080              80.00    -7600.00
03081             160.00    -7600.00
03082             140.00    -7600.00
03083             120.00    -7800.00
03084             140.00    -7800.00
03085             140.00    -7600.00
03086             100.00    -7600.00
03087             100.00    -7600.00
03088             160.00    -7600.00
03089             160.00    -7600.00
03090             140.00    -7600.00
03091             140.00    -7600.00
03092             140.00    -7600.00
03093             120.00    -7600.00
03094             140.00    -7400.00
03095             180.00    -7600.00
03096             160.00    -7600.00
03097             140.00    -7400.00
03098             140.00    -7400.00
03099             140.00    -7200.00
03100             100.00    -7400.00
03101             160.00    -7200.00
03102             160.00    -7200.00
03103             160.00    -7200.00
03104             160.00    -7200.00
03105             140.00    -7200.00
03106             140.00    -7200.00
03107             140.00    -7000.00
03108             160.00    -7000.00
03109             160.00    -7000.00
03110             140.00    -7000.00
03111             140.00    -7000.00
03112             140.00    -6800.00
03113             140.00    -6800.00
03114             140.00    -6600.00
03115             140.00    -6600.00
03116             160.00    -6600.00
03117             140.00    -6400.00
03118             140.00    -6400.00
03119             140.00    -6200.00
03120             140.00    -6200.00
03121             140.00    -6200.00
03122             160.00    -6000.00
03123             140.00    -6000.00
03124             140.00    -5800.00
03125             100.00    -5800.00
03126             140.00    -5600.00
03127             120.00    -5600.00
03128             140.00    -5400.00
03129             140.00    -5400.00
03130             120.00    -5200.00
03131             120.00    -5000.00
03132             100.00    -5000.00
03133             100.00    -5000.00
03134             100.00    -4800.00
03135             120.00    -4800.00
03136             100.00    -4600.00
03137             100.00    -4400.00
03138             100.00    -4400.00
03139              80.00    -4200.00
03140             100.00    -4200.00
03141             100.00    -3800.00
03142             100.00    -3800.00
03143             100.00    -3800.00
03144              80.00    -3600.00
03145              80.00    -3400.00
03146              80.00    -3400.00
03147              80.00    -3200.00
03148             100.00    -3000.00
03149             100.00    -3000.00
03150              80.00    -2800.00
03151              80.00    -2800.00
03152              60.00    -2600.00
03153              60.00    -2400.00
03154              60.00    -2400.00
03155              80.00    -2200.00
03156              80.00    -2000.00
03157              60.00    -2000.00
03158              60.00    -1800.00
03159              60.00    -1800.00
03160              60.00    -1400.00
03161              80.00    -1400.00
03162              80.00    -1200.00
03163              60.00    -1000.00
03164              60.00     -800.00
03165              40.00     -600.00
03166              60.00     -600.00
03167              60.00     -600.00
03168              60.00     -400.00
03169              60.00     -200.00
03170              20.00        0.00
03171              20.00        0.00
03172              60.00      200.00
03173             100.00      400.00
03174             160.00      600.00
03175             160.00      600.00
03176             120.00      600.00
03177              80.00      800.00
03178              60.00     1000.00
03179              80.00     1200.00
03180             420.00     1400.00
03181            1060.00     1800.00
03182             720.00     1600.00
03183            -500.00     1800.00
03184           -1860.00     1600.00
03185           -1380.00     2000.00
03186             800.00     2600.00
03187             700.00     2200.00
03188            -260.00     2200.00
03189             580.00     2200.00
03190             340.00     2600.00
03191            -480.00     3400.00
03192             -60.00     2600.00
03193             -80.00     3000.00
03194             220.00     3800.00
03195             260.00     2800.00
03196            -460.00     3400.00
03197             100.00     4000.00
03198               0.00     3400.00
03199            -460.00     3800.00
03200             300.00     4200.00
03201              60.00     4200.00
03202            -260.00     4400.00
03203              80.00     4200.00
03204               0.00     4600.00
03205               0.00     4800.00
03206            -160.00     4200.00
03207             -20.00     5000.00
03208              80.00     5000.00
03209            -180.00     5000.00
03210             -60.00     5400.00
03211             -80.00     5200.00
03212             -20.00     5600.00
03213             -20.00     5400.00
03214             -80.00     5600.00
03215             -20.00     5800.00
03216            -160.00     5600.00
03217             -40.00     6000.00
03218               0.00     5800.00
03219            -100.00     6000.00
03220             -80.00     6200.00
03221            -100.00     6200.00
03222            -100.00     6400.00
03223             -80.00     6400.00
03224               0.00     6600.00
03225             -80.00     6600.00
03226            -140.00     6600.00
03227            -100.00     6600.00
03228             -80.00     6600.00
03229             -80.00     6800.00
03230            -100.00     7000.00
03231             -80.00     6800.00
03232            -140.00     6800.00
03233            -120.00     7000.00
03234             -60.00     7200.00
03235             -80.00     7000.00
03236            -100.00     7200.00
03237            -140.00     7200.00
03238            -100.00     7200.00
03239            -140.00     7400.00
03240            -100.00     7400.00
03241            -100.00     7400.00
03242            -100.00     7600.00
03243            -100.00     7400.00
03244            -100.00     7600.00
03245            -140.00     7600.00
03246            -160.00     7400.00
03247            -100.00     7400.00
03248            -100.00     7800.00
03249            -140.00     7600.00
03250            -140.00     7800.00
03251            -120.00     7600.00
03252            -140.00     7600.00
03253            -140.00     7600.00
03254            -100.00     7600.00
03255            -100.00     7600.00
03256            -140.00     7600.00
03257            -140.00     7600.00
03258            -140.00     7600.00
03259            -160.00     7600.00
03260            -180.00     7600.00
03261            -140.00     7600.00
03262            -100.00     7600.00
03263            -140.00     7400.00
03264            -140.00     7400.00
03265            -140.00     7600.00
03266            -160.00     7400.00
03267            -160.00     7400.00
03268            -140.00     7400.00
03269            -140.00     7200.00
03270            -140.00     7200.00
03271            -140.00     7200.00
03272            -160.00     7200.00
03273            -160.00     7200.00
03274            -140.00     7000.00
03275            -100.00     7000.00
03276            -120.00     7000.00
03277            -140.00     6800.00
03278            -160.00     6800.00
03279            -160.00     6800.00
03280            -140.00     6800.00
03281            -140.00     6600.00
03282            -140.00     6600.00
03283            -140.00     6400.00
03284            -140.00     6600.00
03285            -140.00     6400.00
03286            -140.00     6400.00
03287            -140.00     6200.00
03288            -120.00     6000.00
03289            -100.00     6000.00
03290            -120.00     6000.00
03291            -100.00     6000.00
03292            -140.00     5800.00
03293            -140.00     5800.00
03294            -100.00     5600.00
03295            -100.00     5600.00
03296            -100.00     5400.00
03297            -140.00     5200.00
03298            -100.00     5200.00
03299            -120.00     5000.00
03300            -140.00     5200.00
03301            -100.00     4600.00
03302            -100.00     4600.00
03303            -100.00     4600.00
03304            -100.00     4600.00
03305            -100.00     4400.00
03306            -100.00     4200.00
03307            -100.00     4200.00
03308            -100.00     4200.00
03309            -100.00     3800.00
03310            -100.00     3800.00
03311            -100.00     3600.00
03312            -100.00     3400.00
03313            -100.00     3400.00
03314             -80.00     3400.00
03315             -80.00     3200.00
03316             -80.00     3000.00
03317             -80.00     2800.00
03318             -80.00     2800.00
03319            -100.00     2600.00
03320            -100.00     2400.00
03321            -100.00     2200.00
03322             -80.00     2200.00
03323             -80.00     2000.00
03324             -80.00     2000.00
03325             -80.00     1800.00
03326             -80.00     1400.00
03327             -40.00     1600.00
03328             -60.00     1400.00
03329             -40.00     1000.00
03330             -60.00     1000.00
03331             -80.00     1000.00
03332             -60.00      800.00
03333             -60.00      600.00
03334             -60.00      400.00
03335             -40.00      400.00
03336             -20.00      200.00
03337             -20.00      200.00
03338             -20.00     -200.00
03339             -20.00     -200.00
03340              20.00     -400.00
03341              80.00     -400.00
03342             100.00     -600.00
03343              60.00     -600.00
03344              20.00     -800.00
03345               0.00    -1000.00
03346               0.00     -800.00
03347             100.00    -1200.00
03348             540.00    -1400.00
03349             900.00    -1800.00
03350             420.00    -2000.00
03351            -580.00    -2000.00
03352           -1500.00    -2200.00
03353           -1200.00    -1800.00
03354             480.00    -2200.00
03355             560.00    -2600.00
03356            -120.00    -2200.00
03357             460.00    -3000.00
03358             340.00    -2800.00
03359             -80.00    -2600.00
03360             160.00    -3400.00
03361            -180.00    -3000.00
03362             100.00    -3000.00
03363             420.00    -3600.00
03364            -220.00    -3600.00
03365            -140.00    -3800.00
03366              60.00    -3600.00
03367             -80.00    -3800.00
03368             160.00    -4200.00
03369             160.00    -3800.00
03370             -80.00    -4400.00
03371               0.00    -4600.00
03372             200.00    -4400.00
03373             140.00    -4600.00
03374            -100.00    -4800.00
03375             100.00    -5000.00
03376             160.00    -5000.00
03377               0.00    -5000.00
03378               0.00    -5400.00
03379              80.00    -5000.00
03380             140.00    -5400.00
03381              80.00    -5600.00
03382              80.00    -5400.00
03383             100.00    -5800.00
03384              20.00    -5800.00
03385             100.00    -6000.00
03386             140.00    -6000.00
03387              20.00    -6200.00
03388              60.00    -6200.00
03389             140.00    -6200.00
03390             100.00    -6200.00
03391              60.00    -6600.00
03392             100.00    -6600.00
03393             140.00    -6600.00
03394              60.00    -6600.00
03395             100.00    -6800.00
03396             140.00    -6800.00
03397             100.00    -6800.00
03398              80.00    -7000.00
03399             100.00    -7000.00
03400              80.00    -7000.00
03401              60.00    -7200.00
03402             140.00    -7000.00
03403             160.00    -7200.00
03404             120.00    -7200.00
03405             100.00    -7200.00
03406             140.00    -7400.00
03407             100.00    -7200.00
03408             100.00    -7400.00
03409             140.00    -7400.00
03410             140.00    -7200.00
03411             100.00    -7600.00
03412             140.00    -7600.00
03413             140.00    -7600.00
03414              80.00    -7600.00
03415             140.00    -7600.00
03416             160.00    -7200.00
03417             140.00    -7600.00
03418             100.00    -7600.00
03419             160.00    -7600.00
03420             100.00    -7600.00
03421             100.00    -7600.00
03422             120.00    -7600.00
03423             160.00    -7600.00
03424             160.00    -7600.00
03425             160.00    -7800.00
03426             140.00    -7600.00
03427             120.00    -7200.00
03428             100.00    -7600.00
03429             160.00    -7600.00
03430             160.00    -7600.00
03431             140.00    -7400.00
03432             140.00    -7600.00
03433             140.00    -7200.00
03434             140.00    -7400.00
03435             160.00    -7200.00
03436             160.00    -7400.00
03437             140.00    -7200.00
03438             140.00    -7200.00
03439             140.00    -7200.00
03440             140.00    -7000.00
03441             140.00    -7000.00
03442             160.00    -7000.00
03443             160.00    -7000.00
03444             140.00    -7000.00
03445             140.00    -7000.00
03446             140.00    -6800.00
03447             140.00    -6800.00
03448             120.00    -6600.00
03449             140.00    -6600.00
03450             160.00    -6600.00
03451             140.00    -6400.00
03452             140.00    -6400.00
03453             120.00    -6400.00
03454             140.00    -6200.00
03455             140.00    -6200.00
03456             160.00    -6000.00
03457             140.00    -6000.00
03458             140.00    -6000.00
03459             120.00    -5800.00
03460             100.00    -5800.00
03461             100.00    -5600.00
03462             100.00    -5400.00
03463             140.00    -5400.00
03464             100.00    -5200.00
03465             140.00    -5200.00
03466             100.00    -5000.00
03467              80.00    -5000.00
03468             100.00    -5000.00
03469             140.00    -5000.00
03470             140.00    -4600.00
03471             100.00    -4600.00
03472             100.00    -4400.00
03473             100.00    -4400.00
03474              80.00    -4200.00
03475             100.00    -4200.00
03476             100.00    -3800.00
03477             100.00    -3800.00
03478              80.00    -3800.00
03479             100.00    -3600.00
03480              80.00    -3400.00
03481             100.00    -3400.00
03482             100.00    -3200.00
03483             100.00    -3000.00
03484              80.00    -2800.00
03485              80.00    -2800.00
03486              60.00    -2600.00
03487              80.00    -2600.00
03488              80.00    -2200.00
03489              80.00    -2200.00
03490              80.00    -2200.00
03491              60.00    -2200.00
03492              60.00    -1800.00
03493              60.00    -1800.00
03494              80.00    -1400.00
03495              60.00    -1400.00
03496              60.00    -1400.00
03497              60.00    -1000.00
03498              60.00     -800.00
03499              60.00     -800.00
03500              60.00     -600.00
03501              40.00     -600.00
03502              60.00     -400.00
03503              60.00     -200.00
03504              60.00     -200.00
03505              20.00        0.00
03506              20.00      200.00
03507              60.00      200.00
03508             140.00      400.00
03509             160.00      600.00
03510             160.00      600.00
03511             100.00      800.00
03512              80.00     1000.00
03513              60.00     1000.00
03514             160.00     1200.00
03515             740.00     1600.00
03516            1060.00     1800.00
03517             240.00     1800.00
03518           -1160.00     1800.00
03519           -2020.00     1600.00
03520            -420.00     2400.00
03521            1140.00     2600.00
03522              20.00     2000.00
03523               0.00     2400.00
03524             740.00     2400.00
03525            -180.00     3000.00
03526            -300.00     3000.00
03527              40.00     2600.00
03528             -60.00     3400.00
03529             420.00     3600.00
03530            -160.00     2800.00
03531            -380.00     3800.00
03532             300.00     3800.00
03533            -340.00     3600.00
03534            -100.00     4200.00
03535             400.00     4000.00
03536            -240.00     4200.00
03537            -100.00     4200.00
03538              40.00     4000.00
03539             -20.00     5000.00
03540             -60.00     4200.00
03541            -160.00     4600.00
03542              80.00     5200.00
03543             -60.00     4800.00
03544            -140.00     5000.00
03545             -20.00     5400.00
03546            -100.00     5600.00
03547              20.00     5600.00
03548             -40.00     5400.00
03549             -20.00     6000.00
03550             -80.00     5600.00
03551            -140.00     5800.00
03552             -20.00     6000.00
03553            -100.00     5800.00
03554            -100.00     6200.00
03555             -60.00     6000.00
03556             -80.00     6200.00
03557            -100.00     6200.00
03558             -20.00     6200.00
03559             -20.00     6600.00
03560            -140.00     6600.00
03561            -140.00     6600.00
03562             -80.00     6800.00
03563             -60.00     6600.00
03564             -80.00     6800.00
03565            -100.00     7000.00
03566            -120.00     7000.00
03567            -140.00     6800.00
03568             -80.00     7000.00
03569             -60.00     7200.00
03570             -80.00     7200.00
03571            -140.00     7000.00
03572            -120.00     7400.00
03573            -100.00     7400.00
03574            -100.00     7400.00
03575            -100.00     7400.00
03576            -100.00     7400.00
03577            -120.00     7400.00
03578            -100.00     7400.00
03579            -100.00     7400.00
03580            -160.00     7400.00
03581            -140.00     7600.00
03582            -100.00     7600.00
03583            -120.00     7600.00
03584            -160.00     7600.00
03585            -120.00     7800.00
03586            -120.00     7600.00
03587            -160.00     7600.00
03588            -140.00     7600.00
03589            -100.00     7600.00
03590            -140.00     7600.00
03591            -140.00     7800.00
03592            -120.00     7600.00
03593            -140.00     7600.00
03594            -160.00     7600.00
03595            -140.00     7600.00
03596            -140.00     7600.00
03597            -140.00     7600.00
03598            -140.00     7400.00
03599            -140.00     7400.00
03600            -160.00     7400.00
03601            -140.00     7400.00
03602            -140.00     7400.00
03603            -140.00     7400.00
03604            -140.00     7400.00
03605            -140.00     7400.00
03606            -140.00     7400.00
03607            -160.00     7000.00
03608            -140.00     7200.00
03609            -120.00     7000.00
03610            -100.00     7000.00
03611            -120.00     7000.00
03612            -140.00     7000.00
03613            -140.00     6800.00
03614            -140.00     6800.00
03615            -140.00     6800.00
03616            -140.00     6800.00
03617            -140.00     6600.00
03618            -140.00     6600.00
03619            -140.00     6400.00
03620            -120.00     6400.00
03621            -140.00     6200.00
03622            -140.00     6200.00
03623            -140.00     6200.00
03624            -100.00     6000.00
03625            -100.00     6000.00
03626            -140.00     5800.00
03627            -140.00     5800.00
03628            -140.00     5600.00
03629            -100.00     5600.00
03630            -100.00     5400.00
03631            -100.00     5200.00
03632            -100.00     5200.00
03633            -140.00     5200.00
03634            -100.00     5200.00
03635            -100.00     5000.00
03636            -100.00     4600.00
03637            -100.00     4800.00
03638             -80.00     4600.00
03639            -100.00     4400.00
03640            -100.00     4400.00
03641            -100.00     4200.00
03642            -100.00     4200.00
03643            -100.00     3800.00
03644            -100.00     3800.00
03645            -100.00     3800.00
03646            -100.00     3600.00
03647            -100.00     3600.00
03648             -80.00     3400.00
03649             -80.00     3200.00
03650             -80.00     3000.00
03651            -100.00     3000.00
03652             -80.00     2800.00
03653             -80.00     2600.00
03654             -80.00     2600.00
03655             -80.00     2400.00
03656             -80.00     2200.00
03657             -80.00     2000.00
03658             -80.00     2000.00
03659             -80.00     1800.00
03660             -80.00     1800.00
03661             -60.00     1800.00
03662             -60.00     1400.00
03663             -60.00     1400.00
03664             -60.00     1200.00
03665             -60.00     1000.00
03666             -60.00     1000.00
03667             -40.00      600.00
03668             -60.00      600.00
03669             -60.00      600.00
03670             -20.00      200.00
03671             -20.00      200.00
03672               0.00      200.00
03673             -20.00        0.00
03674               0.00     -200.00
03675              60.00     -400.00
03676             100.00     -600.00
03677              80.00     -600.00
03678              20.00     -600.00
03679              20.00     -800.00
03680               0.00     -800.00
03681              40.00    -1000.00
03682             220.00    -1200.00
03683             780.00    -1400.00
03684             820.00    -2000.00
03685               0.00    -2000.00
03686           -1020.00    -2000.00
03687           -1600.00    -2000.00
03688            -480.00    -1800.00
03689             820.00    -2400.00
03690             100.00    -2200.00
03691              80.00    -2600.00
03692             560.00    -2800.00
03693              20.00    -2400.00
03694              80.00    -2800.00
03695              60.00    -3400.00
03696            -180.00    -2800.00
03697             400.00    -3400.00
03698             160.00    -3600.00
03699            -320.00    -3600.00
03700              20.00    -3800.00
03701             -20.00    -3800.00
03702               0.00    -4200.00
03703             220.00    -4200.00
03704              60.00    -4000.00
03705             -80.00    -4400.00
03706              80.00    -4400.00
03707             220.00    -4400.00
03708              20.00    -4800.00
03709             -60.00    -5000.00
03710             180.00    -5000.00
03711             100.00    -4800.00
03712             -20.00    -5400.00
03713               0.00    -5200.00
03714             100.00    -5000.00
03715             140.00    -5600.00
03716              60.00    -5600.00
03717             140.00    -5800.00
03718              80.00    -5600.00
03719              40.00    -6000.00
03720             160.00    -6000.00
03721             100.00    -5800.00
03722               0.00    -6200.00
03723              60.00    -6200.00
03724             140.00    -6200.00
03725             100.00    -6400.00
03726              80.00    -6600.00
03727             140.00    -6600.00
03728             100.00    -6600.00
03729              60.00    -6800.00
03730              80.00    -6800.00
03731             100.00    -6800.00
03732             100.00    -7000.00
03733             140.00    -7000.00
03734             100.00    -7000.00
03735              60.00    -7000.00
03736              60.00    -7000.00
03737             140.00    -7000.00
03738             140.00    -7200.00
03739             140.00    -7400.00
03740             160.00    -7200.00
03741             100.00    -7200.00
03742              60.00    -7400.00
03743             100.00    -7400.00
03744             140.00    -7600.00
03745             140.00    -7400.00
03746             140.00    -7600.00
03747             140.00    -7400.00
03748             100.00    -7600.00
03749              80.00    -7600.00
03750             140.00    -7600.00
03751             140.00    -7600.00
03752             140.00    -7600.00
03753             140.00    -7600.00
03754             140.00    -7600.00
03755             140.00    -7600.00
03756             120.00    -7600.00
03757             160.00    -7600.00
03758             160.00    -7600.00
03759             120.00    -7600.00
03760             140.00    -7600.00
03761             160.00    -7600.00
03762             140.00    -7400.00
03763             140.00    -7600.00
03764             160.00    -7200.00
03765             160.00    -7400.00
03766             140.00    -7400.00
03767             160.00    -7400.00
03768             140.00    -7400.00
03769             160.00    -7400.00
03770             160.00    -7200.00
03771             160.00    -7200.00
03772             140.00    -7200.00
03773             140.00    -7200.00
03774             140.00    -7200.00
03775             140.00    -7000.00
03776             140.00    -7000.00
03777             160.00    -7000.00
03778             160.00    -7000.00
03779             160.00    -7000.00
03780             140.00    -6800.00
03781             100.00    -6800.00
03782             100.00    -6800.00
03783             140.00    -6800.00
03784             160.00    -6600.00
03785             140.00    -6600.00
03786             160.00    -6400.00
03787             140.00    -6200.00
03788             100.00    -6400.00
03789              80.00    -6200.00
03790             120.00    -6200.00
03791             140.00    -6000.00
03792             140.00    -6000.00
03793             160.00    -5800.00
03794             100.00    -5800.00
03795              60.00    -5600.00
03796             120.00    -5400.00
03797             180.00    -5400.00
03798             180.00    -5400.00
03799             100.00    -5400.00
03800              80.00    -5200.00
03801              80.00    -5000.00
03802              80.00    -5000.00
03803             100.00    -5000.00
03804             160.00    -4600.00
03805             140.00    -4600.00
03806              80.00    -4600.00
03807              80.00    -4400.00
03808             100.00    -4200.00
03809             100.00    -4200.00
03810             100.00    -4200.00
03811             100.00    -3800.00
03812             100.00    -4000.00
03813              80.00    -3600.00
03814              80.00    -3600.00
03815             140.00    -3200.00
03816             120.00    -3200.00
03817              80.00    -3000.00
03818              60.00    -3000.00
03819              80.00    -2800.00
03820              80.00    -2800.00
03821              80.00    -2600.00
03822              80.00    -2200.00
03823              80.00    -2200.00
03824              80.00    -2200.00
03825              80.00    -2000.00
03826              80.00    -1800.00
03827              60.00    -1800.00
03828              60.00    -1400.00
03829              60.00    -1400.00
03830              80.00    -1400.00
03831              60.00    -1200.00
03832              60.00    -1200.00
03833              40.00     -800.00
03834              20.00     -600.00
03835              60.00     -600.00
03836              60.00     -400.00
03837              60.00     -200.00
03838              60.00     -200.00
03839              60.00        0.00
03840              20.00      200.00
03841              20.00      200.00
03842             100.00      400.00
03843             160.00      400.00
03844             160.00      600.00
03845             120.00      600.00
03846              80.00     1000.00
03847              20.00     1000.00
03848              60.00     1200.00
03849             340.00     1200.00
03850            1040.00     1400.00
03851             800.00     1800.00
03852            -340.00     1800.00
03853           -1760.00     1400.00
03854           -1600.00     2000.00
03855             580.00     2600.00
03856             820.00     2200.00
03857            -260.00     2400.00
03858             480.00     2200.00
03859             480.00     2800.00
03860            -420.00     3200.00
03861             -80.00     2800.00
03862             -60.00     3000.00
03863             160.00     3800.00
03864             320.00     3000.00
03865            -460.00     3200.00
03866               0.00     4200.00
03867             100.00     3600.00
03868            -480.00     3600.00
03869             260.00     4200.00
03870             140.00     4200.00
03871            -300.00     4400.00
03872              60.00     4200.00
03873               0.00     4400.00
03874               0.00     4600.00
03875            -160.00     4200.00
03876             -60.00     5000.00
03877              80.00     5000.00
03878            -180.00     4800.00
03879             -60.00     5200.00
03880             -60.00     5200.00
03881             -20.00     5600.00
03882               0.00     5200.00
03883             -80.00     5600.00
03884             -20.00     5800.00
03885            -140.00     5600.00
03886             -60.00     6000.00
03887               0.00     6000.00
03888            -100.00     6000.00
03889            -100.00     6200.00
03890             -80.00     6200.00
03891            -100.00     6400.00
03892            -100.00     6200.00
03893               0.00     6600.00
03894             -60.00     6600.00
03895            -140.00     6600.00
03896            -100.00     6800.00
03897             -80.00     6600.00
03898             -80.00     6800.00
03899             -80.00     7000.00
03900            -100.00     7000.00
03901            -140.00     7000.00
03902            -100.00     7000.00
03903             -60.00     7000.00
03904             -80.00     7400.00
03905            -100.00     7400.00
03906            -120.00     7200.00
03907            -120.00     7400.00
03908            -140.00     7400.00
03909            -100.00     7400.00
03910            -100.00     7400.00
03911            -120.00     7400.00
03912            -120.00     7400.00
03913            -100.00     7400.00
03914            -120.00     7600.00
03915            -160.00     7400.00
03916            -120.00     7600.00
03917            -100.00     7600.00
03918            -140.00     7600.00
03919            -140.00     7600.00
03920            -140.00     7800.00
03921            -160.00     7600.00
03922            -160.00     7800.00
03923            -100.00     7600.00
03924            -140.00     7600.00
03925            -160.00     7600.00
03926            -100.00     7600.00
03927            -140.00     7600.00
03928            -160.00     7600.00
03929            -140.00     7600.00
03930            -100.00     7400.00
03931            -100.00     7600.00
03932            -140.00     7600.00
03933            -140.00     7600.00
03934            -160.00     7400.00
03935            -140.00     7400.00
03936            -140.00     7400.00
03937            -140.00     7400.00
03938            -140.00     7200.00
03939            -100.00     7400.00
03940            -140.00     7200.00
03941            -160.00     7400.00
03942            -160.00     7400.00
03943            -160.00     7000.00
03944            -140.00     7000.00
03945            -100.00     7000.00
03946            -140.00     7000.00
03947            -140.00     6800.00
03948            -160.00     6800.00
03949            -140.00     6800.00
03950            -100.00     6800.00
03951            -140.00     6600.00
03952            -140.00     6600.00
03953            -100.00     6600.00
03954            -100.00     6400.00
03955            -100.00     6400.00
03956            -100.00     6200.00
03957            -140.00     6200.00
03958            -160.00     6000.00
03959            -140.00     6000.00
03960            -100.00     6000.00
03961            -100.00     5800.00
03962            -100.00     5800.00
03963            -120.00     5600.00
03964            -140.00     5600.00
03965            -140.00     5400.00
03966            -120.00     5400.00
03967            -100.00     5200.00
03968            -100.00     5200.00
03969             -80.00     5000.00
03970            -120.00     5000.00
03971            -100.00     4800.00
03972            -100.00     4600.00
03973            -100.00     4400.00
03974            -140.00     4400.00
03975            -100.00     4400.00
03976            -100.00     4200.00
03977             -80.00     4000.00
03978            -100.00     3800.00
03979            -140.00     3800.00
03980            -140.00     3800.00
03981            -120.00     3600.00
03982            -100.00     3400.00
03983             -60.00     3400.00
03984             -60.00     3200.00
03985             -80.00     3000.00
03986            -100.00     3000.00
03987            -100.00     2800.00
03988            -100.00     2600.00
03989             -80.00     2600.00
03990             -60.00     2400.00
03991             -60.00     2200.00
03992             -80.00     2000.00
03993            -100.00     1800.00
03994            -100.00     1800.00
03995             -80.00     1400.00
03996             -60.00     1400.00
03997             -40.00     1400.00
03998             -20.00     1200.00
03999             -60.00     1000.00
04000             -60.00      800.00
04001             -80.00      800.00
04002             -80.00      600.00
04003             -60.00      600.00
04004             -60.00      400.00
04005               0.00      400.00
04006               0.00      200.00
04007             -20.00        0.00
04008             -20.00     -200.00
04009               0.00     -200.00
04010             100.00     -400.00
04011              80.00     -400.00
04012              80.00     -600.00
04013              40.00     -800.00
04014              20.00    -1000.00
04015               0.00    -1000.00
04016              80.00    -1000.00
04017             460.00    -1200.00
04018             900.00    -1400.00
04019             540.00    -1800.00
04020            -460.00    -1800.00
04021           -1400.00    -2000.00
04022           -1340.00    -1800.00
04023             340.00    -2200.00
04024             660.00    -2600.00
04025            -140.00    -2200.00
04026             380.00    -2800.00
04027             420.00    -2800.00
04028             -80.00    -2600.00
04029             160.00    -3200.00
04030            -140.00    -3000.00
04031              20.00    -3000.00
04032             480.00    -3600.00
04033            -160.00    -3600.00
04034            -180.00    -3600.00
04035              80.00    -3400.00
04036             -60.00    -3800.00
04037             140.00    -4200.00
04038             160.00    -4000.00
04039             -80.00    -4200.00
04040             -20.00    -4600.00
04041             160.00    -4400.00
04042             160.00    -4600.00
04043             -80.00    -4800.00
04044              60.00    -5000.00
04045             200.00    -4800.00
04046               0.00    -5000.00
04047             -20.00    -5400.00
04048              40.00    -5200.00
04049             140.00    -5400.00
04050              80.00    -5800.00
04051              60.00    -5400.00
04052             120.00    -5600.00
04053              20.00    -6000.00
04054              80.00    -6000.00
04055             160.00    -6000.00
04056              20.00    -6000.00
04057               0.00    -6200.00
04058             100.00    -6200.00
04059             120.00    -6400.00
04060              60.00    -6600.00
04061             100.00    -6600.00
04062             160.00    -6600.00
04063              60.00    -6600.00
04064              60.00    -6800.00
04065             140.00    -6600.00
04066             100.00    -6800.00
04067              80.00    -7000.00
04068             100.00    -6800.00
04069             100.00    -7000.00
04070              60.00    -7000.00
04071             140.00    -7000.00
04072             160.00    -7000.00
04073             140.00    -7200.00
04074             100.00    -7200.00
04075             140.00    -7400.00
04076             100.00    -7200.00
04077              80.00    -7400.00
04078             140.00    -7200.00
04079             160.00    -7200.00
04080             140.00    -7400.00
04081             140.00    -7600.00
04082             140.00    -7600.00
04083             100.00    -7600.00
04084             100.00    -7600.00
04085             160.00    -7600.00
04086             140.00    -7600.00
04087             140.00    -7600.00
04088             140.00    -7600.00
04089             140.00    -7600.00
04090             100.00    -7600.00
04091             140.00    -7600.00
04092             180.00    -7800.00
04093             140.00    -7600.00
04094             140.00    -7600.00
04095             160.00    -7600.00
04096             140.00    -7400.00
04097             100.00    -7600.00
04098             160.00    -7600.00
04099             160.00    -7200.00
04100             140.00    -7600.00
04101             160.00    -7400.00
04102             140.00    -7400.00
04103             140.00    -7400.00
04104             140.00    -7200.00
04105             160.00    -7200.00
04106             140.00    -7200.00
04107             140.00    -7200.00
04108             140.00    -7200.00
04109             120.00    -7000.00
04110             120.00    -7200.00
04111             140.00    -7000.00
04112             140.00    -7000.00
04113             140.00    -7000.00
04114             140.00    -6800.00
04115             140.00    -6800.00
04116             140.00    -6800.00
04117             140.00    -6800.00
04118             140.00    -6600.00
04119             140.00    -6600.00
04120             140.00    -6600.00
04121             140.00    -6600.00
04122             120.00    -6200.00
04123             140.00    -6200.00
04124             100.00    -6200.00
04125             140.00    -6200.00
04126             140.00    -6000.00
04127             140.00    -5800.00
04128             100.00    -6000.00
04129             140.00    -5600.00
04130             100.00    -5600.00
04131             100.00    -5400.00
04132             140.00    -5400.00
04133             120.00    -5400.00
04134             120.00    -5200.00
04135             100.00    -5000.00
04136             140.00    -5000.00
04137             100.00    -5000.00
04138             120.00    -4600.00
04139             100.00    -4600.00
04140             100.00    -4400.00
04141             100.00    -4600.00
04142             100.00    -4400.00
04143             100.00    -4200.00
04144             100.00    -4200.00
04145             100.00    -4000.00
04146             140.00    -3800.00
04147             100.00    -3600.00
04148             100.00    -3400.00
04149              80.00    -3400.00
04150              80.00    -3400.00
04151             100.00    -3200.00
04152             100.00    -3000.00
04153              80.00    -2800.00
04154              80.00    -2800.00
04155              80.00    -2600.00
04156              80.00    -2600.00
04157              80.00    -2600.00
04158             100.00    -2200.00
04159              80.00    -2200.00
04160              80.00    -2000.00
04161              80.00    -1800.00
04162              60.00    -1800.00
04163              60.00    -1600.00
04164              80.00    -1400.00
04165              80.00    -1200.00
04166              80.00    -1000.00
04167              80.00    -1000.00
04168              40.00     -800.00
04169              40.00     -600.00
04170              40.00     -400.00
04171              60.00     -400.00
04172              20.00     -200.00
04173              60.00     -200.00
04174              60.00     -200.00
04175              20.00      200.00
04176              80.00      200.00
04177             100.00      400.00
04178             140.00      600.00
04179             140.00      600.00
04180             100.00     1000.00
04181              80.00      800.00
04182              60.00     1000.00
04183             100.00     1200.00
04184             640.00     1400.00
04185            1060.00     1400.00
04186             380.00     1800.00
04187           -1020.00     1800.00
04188           -2020.00     1600.00
04189            -660.00     2200.00
04190            1120.00     2400.00
04191             160.00     2200.00
04192            -100.00     2600.00
04193             740.00     2200.00
04194             -60.00     3000.00
04195            -340.00     3200.00
04196              20.00     2400.00
04197             -80.00     3400.00
04198             400.00     3400.00
04199             -80.00     3000.00
04200            -420.00     3800.00
04201             300.00     4000.00
04202            -260.00     3600.00
04203            -180.00     4000.00
04204             400.00     4000.00
04205            -180.00     4200.00
04206            -140.00     4400.00
04207              80.00     4000.00
04208             -20.00     5000.00
04209             -20.00     4600.00
04210            -160.00     4600.00
04211              80.00     5200.00
04212             -60.00     4600.00
04213            -180.00     5000.00
04214             -20.00     5200.00
04215             -80.00     5400.00
04216               0.00     5600.00
04217             -60.00     5200.00
04218             -60.00     5800.00
04219             -60.00     5800.00
04220            -160.00     5800.00
04221               0.00     6000.00
04222             -60.00     6000.00
04223            -100.00     6000.00
04224             -80.00     6200.00
04225            -100.00     6400.00
04226            -100.00     6400.00
04227             -60.00     6200.00
04228               0.00     6600.00
04229            -100.00     6600.00
04230            -140.00     6600.00
04231            -100.00     6800.00
04232             -80.00     6800.00
04233             -80.00     6800.00
04234             -80.00     7000.00
04235            -100.00     7000.00
04236            -160.00     7000.00
04237            -100.00     7000.00
04238             -80.00     7000.00
04239            -100.00     7200.00
04240            -100.00     7200.00
04241            -100.00     7400.00
04242            -100.00     7400.00
04243            -160.00     7400.00
04244            -100.00     7400.00
04245            -100.00     7400.00
04246            -100.00     7400.00
04247            -100.00     7600.00
04248            -100.00     7600.00
04249            -160.00     7600.00
04250            -160.00     7400.00
04251            -100.00     7600.00
04252            -100.00     7600.00
04253            -140.00     7600.00
04254            -140.00     7600.00
04255            -100.00     7600.00
04256            -160.00     7800.00
04257            -140.00     7600.00
04258            -100.00     7600.00
04259            -120.00     7600.00
04260            -120.00     7600.00
04261            -140.00     7600.00
04262            -140.00     7600.00
04263            -160.00     7400.00
04264            -140.00     7600.00
04265            -100.00     7600.00
04266            -100.00     7600.00
04267            -140.00     7600.00
04268            -140.00     7600.00
04269            -160.00     7600.00
04270            -160.00     7400.00
04271            -140.00     7400.00
04272            -100.00     7400.00
04273            -100.00     7400.00
04274            -140.00     7400.00
04275            -120.00     7400.00
04276            -160.00     7400.00
04277            -160.00     7200.00
04278            -100.00     7000.00
04279            -100.00     7000.00
04280            -100.00     7000.00
04281            -120.00     7000.00
04282            -140.00     6800.00
04283            -160.00     6600.00
04284            -140.00     6800.00
04285            -120.00     6600.00
04286            -140.00     6600.00
04287            -140.00     6600.00
04288            -140.00     6200.00
04289            -140.00     6400.00
04290            -140.00     6200.00
04291            -120.00     6200.00
04292            -100.00     6200.00
04293            -100.00     6000.00
04294            -120.00     6000.00
04295            -120.00     5800.00
04296            -160.00     5800.00
04297            -120.00     5800.00
04298            -100.00     5600.00
04299            -100.00     5600.00
04300            -100.00     5200.00
04301            -140.00     5200.00
04302            -100.00     5000.00
04303            -100.00     5000.00
04304            -120.00     5000.00
04305            -120.00     5000.00
04306            -120.00     4600.00
04307            -120.00     4600.00
04308            -100.00     4600.00
04309            -100.00     4400.00
04310            -100.00     4200.00
04311             -80.00     4200.00
04312             -80.00     4000.00
04313            -100.00     3800.00
04314            -100.00     3800.00
04315            -100.00     3600.00
04316            -100.00     3600.00
04317            -100.00     3400.00
04318            -100.00     3200.00
04319            -100.00     3000.00
04320            -100.00     3000.00
04321             -80.00     3000.00
04322            -100.00     2800.00
04323             -80.00     2800.00
04324            -100.00     2400.00
04325             -80.00     2200.00
04326             -80.00     2200.00
04327             -80.00     2000.00
04328             -80.00     1800.00
04329             -80.00     1800.00
04330             -60.00     1800.00
04331             -40.00     1400.00
04332             -60.00     1200.00
04333             -20.00     1200.00
04334             -60.00     1000.00
04335             -60.00      800.00
04336             -60.00      800.00
04337             -80.00      600.00
04338             -80.00      600.00
04339             -20.00      400.00
04340               0.00      200.00
04341               0.00      200.00
04342             -20.00     -200.00
04343             -20.00     -200.00
04344              60.00     -200.00
04345             100.00     -400.00
04346             100.00     -600.00
04347              60.00     -600.00
04348              20.00    -1000.00
04349               0.00     -800.00
04350              20.00    -1200.00
04351             180.00    -1200.00
04352             700.00    -1400.00
04353             860.00    -1800.00
04354             100.00    -1800.00
04355            -880.00    -2200.00
04356           -1620.00    -2000.00
04357            -640.00    -1800.00
04358             800.00    -2400.00
04359             180.00    -2200.00
04360             -20.00    -2400.00
04361             560.00    -3000.00
04362              80.00    -2600.00
04363              60.00    -2800.00
04364              80.00    -3400.00
04365            -220.00    -3000.00
04366             320.00    -3200.00
04367             220.00    -3800.00
04368            -320.00    -3600.00
04369             -20.00    -3600.00
04370               0.00    -3600.00
04371             -20.00    -4000.00
04372             220.00    -4200.00
04373              60.00    -4000.00
04374            -100.00    -4400.00
04375              60.00    -4600.00
04376             220.00    -4400.00
04377              20.00    -4600.00
04378             -60.00    -5000.00
04379             160.00    -5000.00
04380             140.00    -4800.00
04381             -20.00    -5200.00
04382               0.00    -5200.00
04383              80.00    -5200.00
04384             140.00    -5400.00
04385              80.00    -5600.00
04386             100.00    -5800.00
04387             100.00    -5800.00
04388              20.00    -5800.00
04389             140.00    -6000.00
04390             100.00    -6000.00
04391              20.00    -6200.00
04392              60.00    -6200.00
04393             140.00    -6200.00
04394             100.00    -6400.00
04395              80.00    -6600.00
04396             160.00    -6400.00
04397             140.00    -6600.00
04398              40.00    -6600.00
04399              80.00    -6800.00
04400             140.00    -6800.00
04401             100.00    -7000.00
04402             140.00    -6800.00
04403             100.00    -6800.00
04404              80.00    -7000.00
04405              80.00    -7000.00
04406             160.00    -7000.00
04407             160.00    -7000.00
04408             100.00    -7400.00
04409             100.00    -7200.00
04410             140.00    -7200.00
04411              80.00    -7400.00
04412             100.00    -7200.00
04413             160.00    -7400.00
04414             160.00    -7400.00
04415             140.00    -7200.00
04416             140.00    -7600.00
04417             120.00    -7600.00
04418              80.00    -7600.00
04419             140.00    -7600.00
04420             160.00    -7800.00
04421             120.00    -7600.00
04422             140.00    -7600.00
04423             140.00    -7600.00
04424             140.00    -7600.00
04425             100.00    -7600.00
04426             160.00    -7600.00
04427             160.00    -7600.00
04428             140.00    -7600.00
04429             140.00    -7800.00
04430             140.00    -7600.00
04431             100.00    -7600.00
04432             140.00    -7600.00
04433             160.00    -7600.00
04434             160.00    -7600.00
04435             140.00    -7600.00
04436             140.00    -7200.00
04437             140.00    -7200.00
04438             120.00    -7400.00
04439             140.00    -7200.00
04440             140.00    -7200.00
04441             140.00    -7000.00
04442             140.00    -7200.00
04443             120.00    -7200.00
04444             100.00    -7000.00
04445             100.00    -7000.00
04446             140.00    -7000.00
04447             160.00    -6800.00
04448             140.00    -7000.00
04449             140.00    -6800.00
04450             140.00    -6800.00
04451             140.00    -6800.00
04452             120.00    -6800.00
04453             160.00    -6600.00
04454             140.00    -6600.00
04455             140.00    -6600.00
04456             140.00    -6400.00
04457             120.00    -6200.00
04458             120.00    -6200.00
04459             140.00    -6200.00
04460             140.00    -6200.00
04461             140.00    -5800.00
04462             140.00    -5800.00
04463             120.00    -5800.00
04464             140.00    -5600.00
04465             100.00    -5400.00
04466             140.00    -5400.00
04467             140.00    -5400.00
04468             140.00    -5200.00
04469             100.00    -5200.00
04470             100.00    -5000.00
04471             120.00    -5000.00
04472             140.00    -4800.00
04473             120.00    -4600.00
04474             100.00    -4600.00
04475             100.00    -4400.00
04476             100.00    -4400.00
04477             100.00    -4200.00
04478             100.00    -4200.00
04479             100.00    -3800.00
04480             140.00    -3800.00
04481             100.00    -3800.00
04482              80.00    -3600.00
04483              80.00    -3400.00
04484              80.00    -3400.00
04485              80.00    -3200.00
04486             100.00    -3000.00
04487             100.00    -2800.00
04488             100.00    -2800.00
04489              80.00    -2800.00
04490              80.00    -2600.00
04491              60.00    -2400.00
04492              60.00    -2400.00
04493              80.00    -2200.00
04494              80.00    -2000.00
04495              80.00    -2000.00
04496              60.00    -1800.00
04497              60.00    -1600.00
04498              60.00    -1400.00
04499              60.00    -1400.00
04500              60.00    -1200.00
04501              60.00     -800.00
04502              60.00     -800.00
04503              60.00     -800.00
04504              20.00     -600.00
04505              60.00     -400.00
04506              40.00     -400.00
04507              40.00     -200.00
04508              60.00     -200.00
04509              60.00      200.00
04510              60.00      200.00
04511              80.00      400.00
04512             140.00      400.00
04513             140.00      600.00
04514             100.00      600.00
04515              80.00      800.00
04516              60.00     1000.00
04517              80.00     1200.00
04518             300.00     1400.00
04519             980.00     1600.00
04520             880.00     1800.00
04521            -200.00     1800.00
04522           -1620.00     1800.00
04523           -1760.00     2000.00
04524             380.00     2600.00
04525             960.00     2200.00
04526            -260.00     2200.00
04527             340.00     2400.00
04528             580.00     2600.00
04529            -400.00     3200.00
04530            -100.00     2800.00
04531             -20.00     2800.00
04532              80.00     3800.00
04533             380.00     3000.00
04534            -420.00     3200.00
04535             -80.00     4200.00
04536             200.00     3600.00
04537            -460.00     3600.00
04538             180.00     4200.00
04539             220.00     4200.00
04540            -300.00     4400.00
04541              20.00     4200.00
04542              20.00     4400.00
04543               0.00     5000.00
04544            -140.00     4400.00
04545             -80.00     5000.00
04546             120.00     5200.00
04547            -160.00     5000.00
04548            -100.00     5200.00
04549             -40.00     5200.00
04550             -60.00     5600.00
04551              20.00     5400.00
04552             -80.00     5600.00
04553             -20.00     6000.00
04554            -120.00     5600.00
04555            -100.00     6000.00
04556               0.00     6000.00
04557            -100.00     6200.00
04558            -100.00     6200.00
04559             -80.00     6200.00
04560             -80.00     6400.00
04561            -100.00     6200.00
04562             -20.00     6400.00
04563             -60.00     6600.00
04564            -160.00     6600.00
04565            -140.00     6600.00
04566            -100.00     6800.00
04567             -80.00     6800.00
04568            -100.00     6800.00
04569             -80.00     6800.00
04570            -140.00     7000.00
04571            -140.00     6800.00
04572             -80.00     7000.00
04573            -100.00     7200.00
04574            -100.00     7000.00
04575            -100.00     7200.00
04576            -140.00     7400.00
04577            -160.00     7400.00
04578            -160.00     7400.00
04579            -100.00     7400.00
04580            -100.00     7400.00
04581            -100.00     7400.00
04582            -100.00     7400.00
04583            -140.00     7600.00
04584            -160.00     7600.00
04585            -120.00     7600.00
04586            -100.00     7600.00
04587            -140.00     7600.00
04588            -160.00     7600.00
04589            -100.00     7600.00
04590            -100.00     7600.00
04591            -160.00     7800.00
04592            -140.00     7600.00
04593            -140.00     7600.00
04594            -140.00     7600.00
04595            -140.00     7600.00
04596            -100.00     7600.00
04597            -160.00     7800.00
04598            -160.00     7400.00
04599            -100.00     7600.00
04600            -100.00     7600.00
04601            -140.00     7600.00
04602            -160.00     7400.00
04603            -160.00     7600.00
04604            -140.00     7400.00
04605            -140.00     7400.00
04606            -120.00     7400.00
04607            -100.00     7200.00
04608            -140.00     7400.00
04609            -120.00     7400.00
04610            -140.00     7400.00
04611            -160.00     7200.00
04612            -160.00     7000.00
04613            -100.00     7200.00
04614             -80.00     7000.00
04615            -100.00     6800.00
04616            -160.00     6800.00
04617            -160.00     6800.00
04618            -160.00     6800.00
04619            -140.00     6800.00
04620            -100.00     6800.00
04621            -100.00     6600.00
04622            -100.00     6400.00
04623            -140.00     6400.00
04624            -140.00     6400.00
04625            -160.00     6200.00
04626            -160.00     6000.00
04627            -100.00     6000.00
04628            -120.00     6000.00
04629            -140.00     6000.00
04630            -160.00     5800.00
04631            -140.00     5600.00
04632            -140.00     5800.00
04633            -100.00     5600.00
04634            -100.00     5400.00
04635            -140.00     5200.00
04636            -120.00     5200.00
04637            -120.00     5000.00
04638            -100.00     5000.00
04639            -120.00     4600.00
04640            -100.00     4800.00
04641            -100.00     4600.00
04642            -100.00     4600.00
04643            -100.00     4600.00
04644            -140.00     4400.00
04645            -140.00     4200.00
04646            -100.00     3800.00
04647            -100.00     4000.00
04648            -100.00     3800.00
04649            -100.00     3600.00
04650            -100.00     3600.00
04651            -100.00     3400.00
04652            -100.00     3400.00
04653             -80.00     3200.00
04654             -80.00     3000.00
04655            -100.00     3000.00
04656            -100.00     3000.00
04657             -80.00     2600.00
04658             -80.00     2600.00
04659             -80.00     2200.00
04660             -60.00     2200.00
04661             -80.00     2000.00
04662             -80.00     2000.00
04663            -100.00     1800.00
04664             -80.00     1600.00
04665             -40.00     1600.00
04666             -40.00     1400.00
04667             -60.00     1200.00
04668             -60.00     1200.00
04669             -60.00     1000.00
04670             -80.00     1000.00
04671             -60.00      800.00
04672             -40.00      600.00
04673             -20.00      400.00
04674               0.00      400.00
04675             -20.00      200.00
04676             -20.00     -200.00
04677             -20.00     -200.00
04678              20.00     -200.00
04679             100.00     -400.00
04680             100.00     -600.00
04681              80.00     -600.00
04682              20.00     -600.00
04683               0.00    -1000.00
04684               0.00    -1000.00
04685              60.00    -1000.00
04686             380.00    -1200.00
04687             900.00    -1800.00
04688             620.00    -2000.00
04689            -340.00    -1800.00
04690           -1300.00    -2000.00
04691           -1460.00    -1800.00
04692             160.00    -2000.00
04693             740.00    -2600.00
04694            -120.00    -2200.00
04695             300.00    -2800.00
04696             460.00    -2800.00
04697            -100.00    -2400.00
04698             140.00    -3200.00
04699            -100.00    -3400.00
04700             -20.00    -3000.00
04701             480.00    -3400.00
04702            -100.00    -3600.00
04703            -240.00    -3600.00
04704              60.00    -3600.00
04705             -80.00    -3800.00
04706              80.00    -4200.00
04707             200.00    -4200.00
04708             -60.00    -4200.00
04709             -40.00    -4600.00
04710             140.00    -4600.00
04711             180.00    -4600.00
04712             -80.00    -5000.00
04713              20.00    -5000.00
04714             220.00    -4800.00
04715              60.00    -5000.00
04716             -20.00    -5400.00
04717              60.00    -5200.00
04718             140.00    -5200.00
04719              80.00    -5800.00
04720              60.00    -5600.00
04721             100.00    -5400.00
04722              40.00    -5800.00
04723              80.00    -6000.00
04724             160.00    -6000.00
04725              60.00    -6000.00
04726               0.00    -6200.00
04727             100.00    -6200.00
04728             140.00    -6200.00
04729              60.00    -6400.00
04730             100.00    -6600.00
04731             160.00    -6600.00
04732              80.00    -6600.00
04733              60.00    -6600.00
04734             140.00    -6600.00
04735             140.00    -6800.00
04736             100.00    -7000.00
04737             140.00    -7000.00
04738             100.00    -7000.00
04739              60.00    -7200.00
04740             100.00    -7000.00
04741             180.00    -7000.00
04742             140.00    -7000.00
04743             100.00    -7200.00
04744             140.00    -7400.00
04745             100.00    -7200.00
04746              80.00    -7200.00
04747             140.00    -7200.00
04748             160.00    -7400.00
04749             140.00    -7600.00
04750             140.00    -7400.00
04751             140.00    -7400.00
04752              80.00    -7400.00
04753             100.00    -7400.00
04754             160.00    -7600.00
04755             140.00    -7600.00
04756             100.00    -7600.00
04757             140.00    -7600.00
04758             140.00    -7600.00
04759              80.00    -7800.00
04760             140.00    -7400.00
04761             160.00    -7600.00
04762             160.00    -7800.00
04763             140.00    -7600.00
04764             140.00    -7600.00
04765             140.00    -7600.00
04766             100.00    -7600.00
04767             140.00    -7600.00
04768             160.00    -7200.00
04769             140.00    -7400.00
04770             140.00    -7400.00
04771             140.00    -7200.00
04772             140.00    -7400.00
04773             120.00    -7400.00
04774             160.00    -7200.00
04775             160.00    -7200.00
04776             140.00    -7200.00
04777             160.00    -7200.00
04778             140.00    -7200.00
04779             120.00    -7000.00
04780             140.00    -7000.00
04781             140.00    -7000.00
04782             160.00    -7000.00
04783             140.00    -6800.00
04784             140.00    -6800.00
04785             140.00    -6600.00
04786             120.00    -6600.00
04787             140.00    -6800.00
04788             160.00    -6600.00
04789             140.00    -6600.00
04790             100.00    -6600.00
04791             120.00    -6400.00
04792             100.00    -6200.00
04793             120.00    -6200.00
04794             160.00    -6200.00
04795             140.00    -6000.00
04796             140.00    -5800.00
04797             120.00    -5800.00
04798             100.00    -5800.00
04799             100.00    -5600.00
04800             120.00    -5400.00
04801             140.00    -5400.00
04802             140.00    -5200.00
04803             120.00    -5200.00
04804             120.00    -5000.00
04805             100.00    -5000.00
04806             140.00    -4800.00
04807             120.00    -4600.00
04808             140.00    -4600.00
04809             120.00    -4600.00
04810             100.00    -4400.00
04811             100.00    -4200.00
04812             100.00    -4200.00
04813             100.00    -4200.00
04814             140.00    -3800.00
04815             100.00    -3800.00
04816             100.00    -3800.00
04817              80.00    -3600.00
04818              80.00    -3400.00
04819              80.00    -3400.00
04820              80.00    -3200.00
04821             100.00    -3000.00
04822              80.00    -3000.00
04823              80.00    -2800.00
04824              80.00    -2600.00
04825              80.00    -2600.00
04826              60.00    -2400.00
04827              80.00    -2400.00
04828              80.00    -2000.00
04829              80.00    -2200.00
04830              60.00    -2000.00
04831              60.00    -1800.00
04832              60.00    -1800.00
04833              60.00    -1400.00
04834              60.00    -1400.00
04835              60.00    -1200.00
04836              60.00    -1000.00
04837              40.00     -800.00
04838              60.00     -600.00
04839              60.00     -600.00
04840              60.00     -400.00
04841              60.00     -400.00
04842              60.00     -200.00
04843              60.00      200.00
04844              20.00      200.00
04845              60.00      200.00
04846             100.00      400.00
04847             140.00      400.00
04848             140.00      600.00
04849             100.00      600.00
04850              80.00     1000.00
04851              60.00     1000.00
04852             100.00     1200.00
04853             600.00     1400.00
04854            1100.00     1600.00
04855             480.00     1800.00
04856            -820.00     1800.00
04857           -2020.00     1600.00
04858            -940.00     2000.00
04859            1060.00     2200.00
04860             320.00     2200.00
04861            -160.00     2600.00
04862             720.00     2400.00
04863             100.00     2800.00
04864            -400.00     3200.00
04865              20.00     2600.00
04866             -80.00     3400.00
04867             380.00     3600.00
04868              60.00     2800.00
04869            -460.00     3600.00
04870             260.00     4000.00
04871            -180.00     3400.00
04872            -300.00     3800.00
04873             420.00     3800.00
04874            -100.00     4200.00
04875            -180.00     4400.00
04876              80.00     4200.00
04877             -20.00     4800.00
04878               0.00     4600.00
04879            -160.00     4600.00
04880              60.00     5200.00
04881               0.00     4800.00
04882            -180.00     5000.00
04883             -20.00     5200.00
04884             -80.00     5400.00
04885               0.00     5600.00
04886             -20.00     5200.00
04887             -60.00     5800.00
04888             -40.00     5800.00
04889            -180.00     5800.00
04890             -20.00     6200.00
04891             -60.00     5800.00
04892            -100.00     6000.00
04893             -80.00     6000.00
04894            -100.00     6200.00
04895            -100.00     6200.00
04896             -80.00     6200.00
04897             -20.00     6600.00
04898            -100.00     6600.00
04899            -140.00     6600.00
04900            -140.00     6800.00
04901            -100.00     6800.00
04902             -80.00     6800.00
04903             -80.00     6800.00
04904            -100.00     7000.00
04905            -160.00     6800.00
04906            -100.00     7000.00
04907             -80.00     7000.00
04908            -100.00     7000.00
04909            -100.00     7000.00
04910            -100.00     7400.00
04911            -120.00     7400.00
04912            -160.00     7400.00
04913            -100.00     7400.00
04914             -80.00     7400.00
04915            -100.00     7600.00
04916            -100.00     7600.00
04917            -100.00     7600.00
04918            -160.00     7600.00
04919            -160.00     7400.00
04920            -100.00     7600.00
04921            -100.00     7600.00
04922            -160.00     7600.00
04923            -140.00     7600.00
04924            -100.00     7800.00
04925            -140.00     7600.00
04926            -140.00     7600.00
04927            -100.00     7800.00
04928            -140.00     7600.00
04929            -140.00     7600.00
04930            -100.00     7800.00
04931            -100.00     7800.00
04932            -160.00     7600.00
04933            -140.00     7600.00
04934            -100.00     7600.00
04935            -100.00     7600.00
04936            -140.00     7600.00
04937            -140.00     7600.00
04938            -140.00     7400.00
04939            -160.00     7600.00
04940            -140.00     7400.00
04941            -140.00     7400.00
04942            -140.00     7400.00
04943            -100.00     7400.00
04944            -140.00     7200.00
04945            -160.00     7400.00
04946            -160.00     7000.00
04947            -120.00     7200.00
04948            -100.00     7000.00
04949            -100.00     7000.00
04950            -140.00     7000.00
04951            -140.00     6800.00
04952            -140.00     6800.00
04953            -140.00     6800.00
04954            -120.00     6600.00
04955            -140.00     6600.00
04956            -140.00     6600.00
04957            -140.00     6600.00
04958            -160.00     6400.00
04959            -160.00     6200.00
04960            -160.00     6200.00
04961            -140.00     6200.00
04962            -100.00     6000.00
04963            -140.00     5800.00
04964            -140.00     5800.00
04965            -140.00     5800.00
04966            -140.00     5800.00
04967            -100.00     5600.00
04968            -100.00     5400.00
04969            -100.00     5200.00
04970            -140.00     5200.00
04971            -120.00     5200.00
04972            -100.00     5000.00
04973            -100.00     5200.00
04974            -100.00     4800.00
04975            -100.00     4600.00
04976            -100.00     4600.00
04977            -120.00     4600.00
04978            -100.00     4400.00
04979            -100.00     4200.00
04980            -100.00     4200.00
04981             -80.00     3800.00
04982            -100.00     3800.00
04983            -100.00     3800.00
04984            -100.00     3600.00
04985            -100.00     3600.00
04986            -100.00     3400.00
04987             -80.00     3200.00
04988            -100.00     3000.00
04989            -100.00     3000.00
04990             -80.00     3000.00
04991             -80.00     2800.00
04992             -80.00     2600.00
04993             -80.00     2200.00
04994             -80.00     2200.00
04995             -60.00     2200.00
04996             -80.00     2000.00
04997             -80.00     2000.00
04998             -80.00     1800.00
04999             -60.00     1800.00
05000             -40.00     1400.00
