Unit:(mV)
                     CH1         CH2
Frequency              ? 300.120 kHz
00001             -88.00      400.00
00002             -88.00      400.00
00003             -80.00      320.00
00004             -72.00      240.00
00005             -72.00      240.00
00006             -64.00      160.00
00007             -64.00      160.00
00008             -64.00      160.00
00009             -64.00       80.00
00010             -56.00       80.00
00011             -40.00        0.00
00012             -24.00      -80.00
00013               0.00      -80.00
00014               0.00     -160.00
00015               0.00     -160.00
00016               0.00     -160.00
00017               8.00     -160.00
00018             200.00     -320.00
00019             224.00     -400.00
00020            -232.00     -320.00
00021            -304.00     -320.00
00022              64.00     -480.00
00023             360.00     -480.00
00024            -112.00     -480.00
00025            -392.00     -480.00
00026             -40.00     -720.00
00027             328.00     -560.00
00028               8.00     -560.00
00029            -256.00     -800.00
00030              88.00     -800.00
00031             312.00     -720.00
00032               0.00     -720.00
00033            -168.00     -960.00
00034             104.00     -880.00
00035             184.00     -880.00
00036              -8.00     -960.00
00037               0.00    -1120.00
00038             152.00    -1040.00
00039              48.00     -960.00
00040              -8.00    -1200.00
00041             136.00    -1200.00
00042             144.00    -1120.00
00043              -8.00    -1200.00
00044              40.00    -1280.00
00045             184.00    -1280.00
00046              88.00    -1200.00
00047              -8.00    -1360.00
00048              88.00    -1440.00
00049             184.00    -1360.00
00050              88.00    -1440.00
00051              32.00    -1520.00
00052             120.00    -1520.00
00053             160.00    -1520.00
00054              96.00    -1600.00
00055              88.00    -1600.00
00056             152.00    -1600.00
00057             128.00    -1600.00
00058             120.00    -1680.00
00059             136.00    -1680.00
00060             152.00    -1680.00
00061             104.00    -1680.00
00062             112.00    -1760.00
00063             168.00    -1760.00
00064             168.00    -1840.00
00065             152.00    -1840.00
00066             160.00    -1840.00
00067             152.00    -1840.00
00068             128.00    -1840.00
00069             160.00    -1920.00
00070             200.00    -2000.00
00071             200.00    -1920.00
00072             184.00    -2000.00
00073             176.00    -2000.00
00074             168.00    -2000.00
00075             168.00    -2080.00
00076             192.00    -2000.00
00077             192.00    -2000.00
00078             200.00    -2000.00
00079             216.00    -2080.00
00080             216.00    -2080.00
00081             216.00    -2000.00
00082             216.00    -2080.00
00083             200.00    -2080.00
00084             200.00    -2080.00
00085             224.00    -2080.00
00086             240.00    -2080.00
00087             232.00    -2160.00
00088             248.00    -2160.00
00089             256.00    -2160.00
00090             248.00    -2160.00
00091             232.00    -2160.00
00092             248.00    -2080.00
00093             248.00    -2160.00
00094             240.00    -2160.00
00095             248.00    -2160.00
00096             264.00    -2080.00
00097             256.00    -2160.00
00098             256.00    -2080.00
00099             280.00    -2080.00
00100             272.00    -2080.00
00101             264.00    -2160.00
00102             288.00    -2080.00
00103             288.00    -2080.00
00104             280.00    -2080.00
00105             264.00    -2080.00
00106             280.00    -2080.00
00107             280.00    -2080.00
00108             288.00    -2080.00
00109             288.00    -2000.00
00110             296.00    -2000.00
00111             280.00    -2000.00
00112             280.00    -2000.00
00113             272.00    -2000.00
00114             280.00    -2000.00
00115             280.00    -1920.00
00116             288.00    -1920.00
00117             280.00    -1920.00
00118             280.00    -1840.00
00119             280.00    -1840.00
00120             280.00    -1840.00
00121             280.00    -1840.00
00122             264.00    -1840.00
00123             256.00    -1760.00
00124             256.00    -1760.00
00125             256.00    -1760.00
00126             256.00    -1680.00
00127             256.00    -1680.00
00128             248.00    -1680.00
00129             256.00    -1680.00
00130             248.00    -1680.00
00131             248.00    -1680.00
00132             240.00    -1520.00
00133             232.00    -1600.00
00134             224.00    -1520.00
00135             224.00    -1520.00
00136             216.00    -1440.00
00137             216.00    -1440.00
00138             224.00    -1440.00
00139             224.00    -1360.00
00140             216.00    -1360.00
00141             208.00    -1360.00
00142             192.00    -1200.00
00143             192.00    -1200.00
00144             184.00    -1200.00
00145             192.00    -1200.00
00146             192.00    -1120.00
00147             184.00    -1120.00
00148             168.00    -1120.00
00149             176.00    -1040.00
00150             168.00    -1040.00
00151             160.00    -1040.00
00152             160.00     -960.00
00153             152.00     -880.00
00154             152.00     -880.00
00155             136.00     -880.00
00156             136.00     -800.00
00157             136.00     -720.00
00158             136.00     -720.00
00159             128.00     -720.00
00160             120.00     -640.00
00161             120.00     -560.00
00162             104.00     -560.00
00163             112.00     -560.00
00164             120.00     -480.00
00165             104.00     -320.00
00166              96.00     -320.00
00167              88.00     -400.00
00168              88.00     -320.00
00169              88.00     -240.00
00170              88.00     -240.00
00171              72.00     -160.00
00172              64.00     -160.00
00173              64.00      -80.00
00174              64.00      -80.00
00175              64.00        0.00
00176              64.00        0.00
00177              64.00       80.00
00178              64.00       80.00
00179              64.00      160.00
00180              56.00      160.00
00181              56.00      240.00
00182              56.00      240.00
00183              56.00      240.00
00184             216.00      400.00
00185             264.00      400.00
00186            -184.00      400.00
00187            -256.00      400.00
00188              88.00      400.00
00189             312.00      640.00
00190            -232.00      560.00
00191            -440.00      480.00
00192              80.00      560.00
00193             352.00      800.00
00194            -184.00      720.00
00195            -320.00      560.00
00196             184.00      800.00
00197             264.00      960.00
00198            -248.00      800.00
00199            -256.00      720.00
00200             208.00     1040.00
00201              88.00     1120.00
00202            -296.00      960.00
00203            -120.00     1040.00
00204             192.00     1200.00
00205             -48.00     1200.00
00206            -248.00     1040.00
00207               8.00     1200.00
00208              72.00     1360.00
00209            -200.00     1200.00
00210            -168.00     1200.00
00211              64.00     1360.00
00212             -56.00     1520.00
00213            -224.00     1360.00
00214             -64.00     1360.00
00215              40.00     1520.00
00216            -128.00     1520.00
00217            -200.00     1440.00
00218             -64.00     1600.00
00219             -64.00     1680.00
00220            -160.00     1520.00
00221            -128.00     1600.00
00222             -72.00     1680.00
00223            -128.00     1680.00
00224            -192.00     1680.00
00225            -136.00     1760.00
00226             -88.00     1760.00
00227            -120.00     1760.00
00228            -160.00     1760.00
00229            -136.00     1840.00
00230            -152.00     1760.00
00231            -192.00     1840.00
00232            -168.00     1840.00
00233            -128.00     1920.00
00234            -152.00     1840.00
00235            -160.00     2000.00
00236            -152.00     2000.00
00237            -168.00     2000.00
00238            -200.00     2080.00
00239            -200.00     2000.00
00240            -192.00     2000.00
00241            -184.00     2080.00
00242            -200.00     2000.00
00243            -216.00     2080.00
00244            -192.00     2080.00
00245            -168.00     2160.00
00246            -192.00     2080.00
00247            -200.00     2080.00
00248            -200.00     2240.00
00249            -232.00     2160.00
00250            -240.00     2080.00
00251            -224.00     2240.00
00252            -240.00     2160.00
00253            -256.00     2160.00
00254            -232.00     2160.00
00255            -216.00     2240.00
00256            -232.00     2160.00
00257            -248.00     2240.00
00258            -240.00     2240.00
00259            -256.00     2160.00
00260            -264.00     2240.00
00261            -256.00     2240.00
00262            -248.00     2160.00
00263            -264.00     2240.00
00264            -280.00     2160.00
00265            -264.00     2240.00
00266            -280.00     2160.00
00267            -280.00     2160.00
00268            -264.00     2160.00
00269            -256.00     2240.00
00270            -288.00     2160.00
00271            -288.00     2160.00
00272            -288.00     2240.00
00273            -280.00     2160.00
00274            -280.00     2080.00
00275            -280.00     2160.00
00276            -288.00     2080.00
00277            -288.00     2080.00
00278            -288.00     2080.00
00279            -280.00     2080.00
00280            -280.00     2000.00
00281            -272.00     2000.00
00282            -280.00     2000.00
00283            -280.00     2000.00
00284            -288.00     2000.00
00285            -288.00     2000.00
00286            -280.00     1840.00
00287            -280.00     1840.00
00288            -272.00     1840.00
00289            -264.00     1840.00
00290            -272.00     1840.00
00291            -280.00     1840.00
00292            -264.00     1760.00
00293            -264.00     1760.00
00294            -256.00     1680.00
00295            -248.00     1680.00
00296            -248.00     1680.00
00297            -232.00     1680.00
00298            -248.00     1680.00
00299            -248.00     1600.00
00300            -232.00     1600.00
00301            -232.00     1520.00
00302            -232.00     1520.00
00303            -232.00     1520.00
00304            -232.00     1440.00
00305            -224.00     1440.00
00306            -224.00     1360.00
00307            -224.00     1440.00
00308            -216.00     1360.00
00309            -200.00     1360.00
00310            -200.00     1280.00
00311            -192.00     1200.00
00312            -192.00     1200.00
00313            -184.00     1200.00
00314            -168.00     1120.00
00315            -152.00     1120.00
00316            -152.00     1040.00
00317            -184.00     1040.00
00318            -200.00     1040.00
00319            -200.00      960.00
00320            -176.00      960.00
00321            -152.00      880.00
00322            -128.00      880.00
00323            -120.00      800.00
00324            -120.00      800.00
00325            -120.00      720.00
00326            -136.00      720.00
00327            -128.00      720.00
00328            -136.00      560.00
00329            -128.00      640.00
00330             -96.00      560.00
00331             -88.00      480.00
00332            -104.00      400.00
00333            -104.00      400.00
00334            -104.00      400.00
00335            -120.00      400.00
00336            -104.00      320.00
00337             -72.00      240.00
00338             -40.00      240.00
00339             -40.00      160.00
00340             -40.00      160.00
00341             -48.00       80.00
00342             -64.00       80.00
00343             -72.00       80.00
00344             -56.00        0.00
00345             -40.00      -80.00
00346             -16.00      -80.00
00347              24.00      -80.00
00348              48.00     -160.00
00349              24.00     -160.00
00350              -8.00     -240.00
00351              88.00     -240.00
00352             216.00     -400.00
00353            -168.00     -320.00
00354            -288.00     -240.00
00355              24.00     -480.00
00356             400.00     -480.00
00357              32.00     -480.00
00358            -424.00     -480.00
00359            -168.00     -720.00
00360             296.00     -640.00
00361              88.00     -560.00
00362            -256.00     -720.00
00363               0.00     -880.00
00364             320.00     -800.00
00365              88.00     -720.00
00366            -184.00     -960.00
00367              56.00     -880.00
00368             208.00     -880.00
00369              32.00     -960.00
00370             -24.00    -1040.00
00371             128.00    -1040.00
00372              56.00    -1040.00
00373             -40.00    -1200.00
00374              96.00    -1200.00
00375             168.00    -1120.00
00376              32.00    -1120.00
00377              40.00    -1280.00
00378             200.00    -1360.00
00379             136.00    -1200.00
00380             -16.00    -1360.00
00381              48.00    -1440.00
00382             152.00    -1360.00
00383              88.00    -1360.00
00384              24.00    -1520.00
00385             104.00    -1520.00
00386             168.00    -1440.00
00387             120.00    -1600.00
00388              96.00    -1680.00
00389             152.00    -1520.00
00390             152.00    -1680.00
00391              96.00    -1680.00
00392             104.00    -1680.00
00393             152.00    -1680.00
00394             128.00    -1760.00
00395             128.00    -1760.00
00396             160.00    -1760.00
00397             176.00    -1760.00
00398             136.00    -1840.00
00399             152.00    -1840.00
00400             168.00    -1920.00
00401             152.00    -1840.00
00402             152.00    -1920.00
00403             184.00    -1840.00
00404             200.00    -2000.00
00405             192.00    -2000.00
00406             176.00    -2000.00
00407             168.00    -2000.00
00408             168.00    -2000.00
00409             184.00    -2000.00
00410             200.00    -2000.00
00411             216.00    -2080.00
00412             216.00    -2080.00
00413             216.00    -2000.00
00414             208.00    -2080.00
00415             216.00    -2080.00
00416             208.00    -2000.00
00417             216.00    -2080.00
00418             232.00    -2160.00
00419             232.00    -2080.00
00420             224.00    -2160.00
00421             224.00    -2080.00
00422             232.00    -2160.00
00423             248.00    -2080.00
00424             232.00    -2160.00
00425             256.00    -2080.00
00426             264.00    -2080.00
00427             248.00    -2160.00
00428             256.00    -2160.00
00429             264.00    -2160.00
00430             256.00    -2160.00
00431             256.00    -2080.00
00432             264.00    -2160.00
00433             256.00    -2080.00
00434             256.00    -2080.00
00435             264.00    -2080.00
00436             280.00    -2080.00
00437             280.00    -2080.00
00438             280.00    -2080.00
00439             280.00    -2080.00
00440             288.00    -2080.00
00441             280.00    -2080.00
00442             280.00    -2080.00
00443             280.00    -2080.00
00444             272.00    -2000.00
00445             280.00    -2000.00
00446             280.00    -1920.00
00447             280.00    -2000.00
00448             288.00    -1920.00
00449             288.00    -1920.00
00450             288.00    -1920.00
00451             280.00    -1920.00
00452             272.00    -1840.00
00453             264.00    -1840.00
00454             264.00    -1840.00
00455             264.00    -1760.00
00456             280.00    -1760.00
00457             280.00    -1760.00
00458             272.00    -1760.00
00459             264.00    -1760.00
00460             256.00    -1760.00
00461             248.00    -1680.00
00462             248.00    -1680.00
00463             248.00    -1680.00
00464             248.00    -1680.00
00465             248.00    -1520.00
00466             232.00    -1520.00
00467             232.00    -1520.00
00468             232.00    -1520.00
00469             232.00    -1440.00
00470             232.00    -1440.00
00471             224.00    -1360.00
00472             216.00    -1360.00
00473             208.00    -1360.00
00474             200.00    -1280.00
00475             192.00    -1280.00
00476             192.00    -1200.00
00477             200.00    -1200.00
00478             192.00    -1120.00
00479             192.00    -1120.00
00480             184.00    -1120.00
00481             168.00    -1040.00
00482             176.00    -1040.00
00483             168.00    -1040.00
00484             168.00    -1040.00
00485             168.00     -880.00
00486             160.00     -880.00
00487             152.00     -880.00
00488             136.00     -800.00
00489             152.00     -800.00
00490             136.00     -720.00
00491             128.00     -720.00
00492             128.00     -720.00
00493             128.00     -640.00
00494             120.00     -560.00
00495             112.00     -560.00
00496             120.00     -560.00
00497             120.00     -480.00
00498             104.00     -480.00
00499              88.00     -320.00
00500              96.00     -320.00
00501              88.00     -320.00
00502              88.00     -240.00
00503              80.00     -240.00
00504              72.00     -160.00
00505              64.00     -160.00
00506              56.00      -80.00
00507              64.00      -80.00
00508              72.00        0.00
00509              64.00      -80.00
00510              64.00       80.00
00511              64.00       80.00
00512              64.00       80.00
00513              64.00      160.00
00514              56.00      240.00
00515              56.00      240.00
00516              56.00      240.00
00517             168.00      320.00
00518             296.00      400.00
00519             -96.00      400.00
00520            -280.00      400.00
00521               0.00      400.00
00522             344.00      560.00
00523            -128.00      560.00
00524            -456.00      400.00
00525             -56.00      560.00
00526             384.00      800.00
00527             -64.00      720.00
00528            -360.00      560.00
00529              72.00      800.00
00530             328.00      960.00
00531            -152.00      800.00
00532            -312.00      800.00
00533             128.00      880.00
00534             184.00     1120.00
00535            -240.00      880.00
00536            -192.00      960.00
00537             160.00     1200.00
00538              24.00     1200.00
00539            -248.00     1040.00
00540             -48.00     1200.00
00541             120.00     1360.00
00542            -136.00     1280.00
00543            -208.00     1200.00
00544              32.00     1360.00
00545               0.00     1440.00
00546            -216.00     1360.00
00547            -128.00     1360.00
00548              24.00     1520.00
00549            -104.00     1520.00
00550            -200.00     1440.00
00551             -72.00     1520.00
00552             -40.00     1680.00
00553            -160.00     1600.00
00554            -168.00     1520.00
00555             -72.00     1760.00
00556             -88.00     1680.00
00557            -160.00     1680.00
00558            -160.00     1680.00
00559            -104.00     1760.00
00560            -144.00     1760.00
00561            -184.00     1760.00
00562            -136.00     1840.00
00563             -96.00     1840.00
00564            -136.00     1840.00
00565            -168.00     1840.00
00566            -168.00     1920.00
00567            -200.00     1840.00
00568            -200.00     2000.00
00569            -136.00     2000.00
00570            -128.00     2000.00
00571            -200.00     2080.00
00572            -240.00     2000.00
00573            -192.00     2080.00
00574            -128.00     2080.00
00575            -136.00     2080.00
00576            -200.00     2080.00
00577            -232.00     2080.00
00578            -232.00     2080.00
00579            -248.00     2240.00
00580            -216.00     2080.00
00581            -160.00     2160.00
00582            -200.00     2160.00
00583            -232.00     2160.00
00584            -224.00     2240.00
00585            -216.00     2160.00
00586            -232.00     2240.00
00587            -232.00     2160.00
00588            -232.00     2160.00
00589            -264.00     2240.00
00590            -288.00     2160.00
00591            -248.00     2160.00
00592            -200.00     2240.00
00593            -216.00     2160.00
00594            -248.00     2160.00
00595            -288.00     2240.00
00596            -312.00     2240.00
00597            -288.00     2160.00
00598            -248.00     2240.00
00599            -232.00     2240.00
00600            -256.00     2160.00
00601            -256.00     2240.00
00602            -272.00     2240.00
00603            -312.00     2160.00
00604            -312.00     2160.00
00605            -288.00     2160.00
00606            -272.00     2160.00
00607            -264.00     2080.00
00608            -256.00     2160.00
00609            -272.00     2160.00
00610            -296.00     2080.00
00611            -304.00     2080.00
00612            -296.00     2080.00
00613            -288.00     2000.00
00614            -264.00     2080.00
00615            -248.00     2080.00
00616            -264.00     2000.00
00617            -296.00     2000.00
00618            -312.00     2000.00
00619            -296.00     1920.00
00620            -264.00     1840.00
00621            -248.00     1840.00
00622            -248.00     1840.00
00623            -288.00     1760.00
00624            -296.00     1760.00
00625            -280.00     1760.00
00626            -256.00     1760.00
00627            -248.00     1760.00
00628            -232.00     1760.00
00629            -232.00     1680.00
00630            -256.00     1680.00
00631            -264.00     1680.00
00632            -264.00     1680.00
00633            -256.00     1600.00
00634            -232.00     1520.00
00635            -216.00     1520.00
00636            -216.00     1520.00
00637            -224.00     1520.00
00638            -232.00     1440.00
00639            -232.00     1440.00
00640            -224.00     1440.00
00641            -200.00     1360.00
00642            -192.00     1280.00
00643            -192.00     1280.00
00644            -192.00     1360.00
00645            -192.00     1200.00
00646            -200.00     1200.00
00647            -192.00     1200.00
00648            -176.00     1120.00
00649            -160.00     1120.00
00650            -152.00     1040.00
00651            -168.00     1040.00
00652            -160.00      960.00
00653            -184.00      880.00
00654            -168.00      880.00
00655            -160.00      880.00
00656            -136.00      800.00
00657            -128.00      800.00
00658            -120.00      720.00
00659            -112.00      720.00
00660            -136.00      720.00
00661            -136.00      640.00
00662            -120.00      560.00
00663            -104.00      560.00
00664            -104.00      560.00
00665            -104.00      480.00
00666            -104.00      400.00
00667            -104.00      400.00
00668             -96.00      400.00
00669             -88.00      240.00
00670             -72.00      240.00
00671             -72.00      240.00
00672             -64.00      160.00
00673             -56.00      160.00
00674             -56.00      160.00
00675             -56.00       80.00
00676             -56.00       80.00
00677             -40.00       80.00
00678             -32.00       80.00
00679              -8.00        0.00
00680               0.00      -80.00
00681               0.00     -160.00
00682               0.00     -160.00
00683              -8.00     -240.00
00684              88.00     -240.00
00685             288.00     -400.00
00686             -56.00     -320.00
00687            -344.00     -240.00
00688            -128.00     -400.00
00689             320.00     -480.00
00690             136.00     -480.00
00691            -368.00     -480.00
00692            -232.00     -640.00
00693             256.00     -640.00
00694             200.00     -560.00
00695            -216.00     -720.00
00696            -104.00     -880.00
00697             288.00     -800.00
00698             152.00     -720.00
00699            -168.00     -880.00
00700             -32.00    -1040.00
00701             200.00     -880.00
00702              64.00     -880.00
00703             -40.00    -1040.00
00704              96.00    -1120.00
00705              96.00    -1040.00
00706             -24.00    -1120.00
00707              72.00    -1200.00
00708             192.00    -1200.00
00709              48.00    -1200.00
00710              -8.00    -1360.00
00711             128.00    -1360.00
00712             152.00    -1280.00
00713               8.00    -1280.00
00714              32.00    -1440.00
00715             176.00    -1440.00
00716             136.00    -1360.00
00717              32.00    -1520.00
00718              72.00    -1520.00
00719             160.00    -1440.00
00720             120.00    -1520.00
00721              80.00    -1680.00
00722             120.00    -1520.00
00723             152.00    -1600.00
00724             104.00    -1680.00
00725             120.00    -1680.00
00726             160.00    -1680.00
00727             152.00    -1760.00
00728             120.00    -1760.00
00729             152.00    -1760.00
00730             160.00    -1760.00
00731             136.00    -1920.00
00732             152.00    -1840.00
00733             176.00    -1840.00
00734             160.00    -1920.00
00735             152.00    -1920.00
00736             184.00    -1840.00
00737             192.00    -1920.00
00738             184.00    -2000.00
00739             168.00    -1920.00
00740             168.00    -2000.00
00741             184.00    -2000.00
00742             184.00    -2000.00
00743             192.00    -2000.00
00744             200.00    -2000.00
00745             216.00    -2080.00
00746             216.00    -2000.00
00747             208.00    -2080.00
00748             216.00    -2080.00
00749             216.00    -2080.00
00750             216.00    -2160.00
00751             232.00    -2080.00
00752             240.00    -2080.00
00753             224.00    -2080.00
00754             224.00    -2160.00
00755             256.00    -2160.00
00756             248.00    -2160.00
00757             224.00    -2160.00
00758             256.00    -2160.00
00759             256.00    -2080.00
00760             248.00    -2160.00
00761             232.00    -2160.00
00762             256.00    -2160.00
00763             256.00    -2160.00
00764             256.00    -2160.00
00765             272.00    -2080.00
00766             280.00    -2160.00
00767             264.00    -2080.00
00768             264.00    -2080.00
00769             280.00    -2080.00
00770             272.00    -2080.00
00771             264.00    -2080.00
00772             280.00    -2080.00
00773             288.00    -2080.00
00774             280.00    -2080.00
00775             288.00    -2000.00
00776             288.00    -2080.00
00777             280.00    -2080.00
00778             264.00    -2000.00
00779             264.00    -2000.00
00780             264.00    -2000.00
00781             264.00    -2000.00
00782             280.00    -1920.00
00783             288.00    -1920.00
00784             288.00    -1840.00
00785             288.00    -1840.00
00786             280.00    -1840.00
00787             280.00    -1840.00
00788             256.00    -1840.00
00789             256.00    -1760.00
00790             264.00    -1760.00
00791             280.00    -1760.00
00792             280.00    -1760.00
00793             264.00    -1680.00
00794             248.00    -1680.00
00795             248.00    -1680.00
00796             248.00    -1680.00
00797             248.00    -1680.00
00798             240.00    -1520.00
00799             224.00    -1520.00
00800             224.00    -1520.00
00801             224.00    -1520.00
00802             232.00    -1440.00
00803             232.00    -1440.00
00804             224.00    -1440.00
00805             224.00    -1360.00
00806             216.00    -1360.00
00807             216.00    -1360.00
00808             216.00    -1360.00
00809             200.00    -1200.00
00810             192.00    -1200.00
00811             192.00    -1200.00
00812             192.00    -1120.00
00813             184.00    -1120.00
00814             176.00    -1040.00
00815             184.00    -1040.00
00816             184.00    -1040.00
00817             160.00    -1040.00
00818             152.00     -880.00
00819             160.00     -880.00
00820             152.00     -880.00
00821             136.00     -880.00
00822             136.00     -800.00
00823             136.00     -800.00
00824             136.00     -720.00
00825             128.00     -720.00
00826             128.00     -640.00
00827             128.00     -640.00
00828             120.00     -560.00
00829              96.00     -480.00
00830             104.00     -480.00
00831             104.00     -480.00
00832              88.00     -480.00
00833              88.00     -320.00
00834              96.00     -320.00
00835              96.00     -320.00
00836              88.00     -240.00
00837              64.00     -240.00
00838              64.00     -240.00
00839              64.00      -80.00
00840              64.00      -80.00
00841              64.00      -80.00
00842              64.00        0.00
00843              56.00       80.00
00844              64.00       80.00
00845              64.00      160.00
00846              64.00      160.00
00847              64.00      240.00
00848              56.00      240.00
00849              40.00      240.00
00850             128.00      240.00
00851             312.00      400.00
00852               0.00      400.00
00853            -272.00      400.00
00854             -72.00      400.00
00855             336.00      560.00
00856               0.00      560.00
00857            -448.00      480.00
00858            -184.00      560.00
00859             352.00      720.00
00860              72.00      800.00
00861            -360.00      560.00
00862             -40.00      720.00
00863             360.00      880.00
00864             -40.00      880.00
00865            -352.00      720.00
00866              32.00      880.00
00867             240.00     1120.00
00868            -168.00      960.00
00869            -248.00      960.00
00870             104.00     1120.00
00871              88.00     1200.00
00872            -224.00     1120.00
00873            -104.00     1120.00
00874             128.00     1360.00
00875             -72.00     1360.00
00876            -232.00     1200.00
00877              -8.00     1200.00
00878              40.00     1440.00
00879            -192.00     1360.00
00880            -168.00     1360.00
00881              24.00     1520.00
00882             -64.00     1520.00
00883            -192.00     1440.00
00884            -104.00     1520.00
00885             -24.00     1680.00
00886            -136.00     1520.00
00887            -168.00     1520.00
00888             -96.00     1680.00
00889             -96.00     1760.00
00890            -168.00     1680.00
00891            -160.00     1760.00
00892             -96.00     1760.00
00893            -112.00     1760.00
00894            -168.00     1760.00
00895            -152.00     1840.00
00896            -120.00     1840.00
00897            -152.00     1840.00
00898            -168.00     1840.00
00899            -160.00     1920.00
00900            -160.00     1840.00
00901            -192.00     2000.00
00902            -168.00     2000.00
00903            -160.00     2000.00
00904            -176.00     2000.00
00905            -200.00     2000.00
00906            -184.00     2000.00
00907            -168.00     2080.00
00908            -192.00     2080.00
00909            -208.00     2080.00
00910            -200.00     2080.00
00911            -192.00     2080.00
00912            -200.00     2080.00
00913            -216.00     2080.00
00914            -200.00     2080.00
00915            -200.00     2080.00
00916            -224.00     2160.00
00917            -208.00     2160.00
00918            -224.00     2240.00
00919            -256.00     2240.00
00920            -232.00     2160.00
00921            -216.00     2240.00
00922            -232.00     2160.00
00923            -256.00     2240.00
00924            -248.00     2160.00
00925            -240.00     2240.00
00926            -256.00     2240.00
00927            -256.00     2240.00
00928            -256.00     2240.00
00929            -256.00     2160.00
00930            -272.00     2160.00
00931            -256.00     2240.00
00932            -264.00     2240.00
00933            -288.00     2160.00
00934            -288.00     2160.00
00935            -264.00     2240.00
00936            -272.00     2160.00
00937            -288.00     2160.00
00938            -272.00     2240.00
00939            -264.00     2160.00
00940            -280.00     2160.00
00941            -288.00     2240.00
00942            -296.00     2000.00
00943            -296.00     2080.00
00944            -272.00     2080.00
00945            -264.00     2080.00
00946            -288.00     2000.00
00947            -296.00     2000.00
00948            -280.00     2080.00
00949            -280.00     2000.00
00950            -288.00     2000.00
00951            -288.00     2000.00
00952            -272.00     1920.00
00953            -264.00     1840.00
00954            -264.00     1920.00
00955            -288.00     1840.00
00956            -296.00     1840.00
00957            -296.00     1760.00
00958            -256.00     1840.00
00959            -232.00     1760.00
00960            -240.00     1760.00
00961            -256.00     1680.00
00962            -280.00     1680.00
00963            -264.00     1680.00
00964            -256.00     1680.00
00965            -232.00     1680.00
00966            -232.00     1680.00
00967            -224.00     1520.00
00968            -232.00     1520.00
00969            -256.00     1520.00
00970            -240.00     1440.00
00971            -224.00     1440.00
00972            -216.00     1440.00
00973            -216.00     1360.00
00974            -200.00     1360.00
00975            -192.00     1360.00
00976            -192.00     1280.00
00977            -200.00     1280.00
00978            -216.00     1200.00
00979            -208.00     1200.00
00980            -200.00     1120.00
00981            -168.00     1200.00
00982            -152.00     1120.00
00983            -152.00     1040.00
00984            -168.00     1040.00
00985            -192.00      960.00
00986            -168.00      880.00
00987            -160.00      880.00
00988            -136.00      880.00
00989            -128.00      800.00
00990            -136.00      800.00
00991            -136.00      720.00
00992            -136.00      720.00
00993            -128.00      720.00
00994            -128.00      640.00
00995            -104.00      560.00
00996             -96.00      560.00
00997            -104.00      560.00
00998            -120.00      480.00
00999            -120.00      400.00
01000            -104.00      480.00
01001             -88.00      400.00
01002             -64.00      320.00
01003             -64.00      320.00
01004             -72.00      240.00
01005             -88.00      240.00
01006             -72.00      160.00
01007             -72.00       80.00
01008             -56.00       80.00
01009             -40.00       80.00
01010             -32.00       80.00
01011             -32.00        0.00
01012             -24.00      -80.00
01013             -16.00      -80.00
01014              -8.00     -160.00
01015               0.00     -160.00
01016               8.00     -160.00
01017              88.00     -240.00
01018             288.00     -320.00
01019              40.00     -400.00
01020            -336.00     -240.00
01021            -216.00     -400.00
01022             256.00     -480.00
01023             248.00     -480.00
01024            -312.00     -480.00
01025            -328.00     -560.00
01026             152.00     -720.00
01027             256.00     -560.00
01028            -152.00     -720.00
01029            -160.00     -800.00
01030             256.00     -800.00
01031             232.00     -720.00
01032            -128.00     -800.00
01033            -104.00    -1040.00
01034             168.00     -880.00
01035              96.00     -880.00
01036             -40.00    -1040.00
01037              72.00    -1120.00
01038             120.00    -1040.00
01039              -8.00    -1040.00
01040              40.00    -1200.00
01041             192.00    -1120.00
01042              72.00    -1120.00
01043             -32.00    -1280.00
01044             112.00    -1360.00
01045             192.00    -1200.00
01046              32.00    -1360.00
01047               0.00    -1440.00
01048             152.00    -1360.00
01049             160.00    -1360.00
01050              64.00    -1520.00
01051              72.00    -1520.00
01052             168.00    -1440.00
01053             136.00    -1520.00
01054              64.00    -1600.00
01055              96.00    -1600.00
01056             136.00    -1680.00
01057             120.00    -1680.00
01058             120.00    -1680.00
01059             160.00    -1680.00
01060             152.00    -1760.00
01061             112.00    -1760.00
01062             136.00    -1760.00
01063             160.00    -1760.00
01064             152.00    -1840.00
01065             152.00    -1840.00
01066             200.00    -1840.00
01067             192.00    -1840.00
01068             136.00    -1840.00
01069             136.00    -1920.00
01070             160.00    -2000.00
01071             168.00    -1920.00
01072             192.00    -2000.00
01073             192.00    -2000.00
01074             200.00    -2000.00
01075             192.00    -2000.00
01076             184.00    -2000.00
01077             184.00    -2080.00
01078             200.00    -2000.00
01079             216.00    -2080.00
01080             200.00    -2080.00
01081             216.00    -2080.00
01082             240.00    -2080.00
01083             224.00    -2080.00
01084             224.00    -2080.00
01085             224.00    -2160.00
01086             200.00    -2080.00
01087             200.00    -2080.00
01088             232.00    -2160.00
01089             248.00    -2080.00
01090             248.00    -2160.00
01091             256.00    -2160.00
01092             248.00    -2080.00
01093             224.00    -2080.00
01094             216.00    -2160.00
01095             256.00    -2080.00
01096             280.00    -2080.00
01097             264.00    -2160.00
01098             280.00    -2080.00
01099             264.00    -2080.00
01100             256.00    -2080.00
01101             256.00    -2160.00
01102             280.00    -2080.00
01103             280.00    -2080.00
01104             264.00    -2080.00
01105             288.00    -2080.00
01106             296.00    -2000.00
01107             280.00    -2080.00
01108             256.00    -2080.00
01109             272.00    -2080.00
01110             264.00    -2000.00
01111             256.00    -2000.00
01112             288.00    -2000.00
01113             312.00    -2000.00
01114             288.00    -1920.00
01115             296.00    -2000.00
01116             280.00    -1920.00
01117             264.00    -1920.00
01118             264.00    -1840.00
01119             280.00    -1840.00
01120             288.00    -1840.00
01121             280.00    -1840.00
01122             264.00    -1760.00
01123             256.00    -1760.00
01124             264.00    -1760.00
01125             272.00    -1760.00
01126             256.00    -1760.00
01127             248.00    -1760.00
01128             240.00    -1680.00
01129             248.00    -1520.00
01130             264.00    -1680.00
01131             264.00    -1680.00
01132             232.00    -1520.00
01133             224.00    -1520.00
01134             216.00    -1440.00
01135             232.00    -1440.00
01136             232.00    -1440.00
01137             216.00    -1440.00
01138             216.00    -1360.00
01139             216.00    -1360.00
01140             216.00    -1360.00
01141             224.00    -1280.00
01142             216.00    -1200.00
01143             192.00    -1200.00
01144             160.00    -1200.00
01145             176.00    -1120.00
01146             192.00    -1120.00
01147             192.00    -1040.00
01148             192.00    -1040.00
01149             184.00    -1040.00
01150             160.00     -960.00
01151             152.00    -1040.00
01152             152.00     -880.00
01153             160.00     -880.00
01154             152.00     -880.00
01155             136.00     -800.00
01156             136.00     -800.00
01157             128.00     -720.00
01158             120.00     -720.00
01159             128.00     -560.00
01160             120.00     -560.00
01161             112.00     -560.00
01162             120.00     -480.00
01163             128.00     -480.00
01164             120.00     -480.00
01165              88.00     -400.00
01166              64.00     -320.00
01167              64.00     -320.00
01168              72.00     -240.00
01169             104.00     -240.00
01170             120.00     -240.00
01171              96.00     -240.00
01172              64.00     -160.00
01173              32.00      -80.00
01174              32.00      -80.00
01175              56.00      -80.00
01176              64.00        0.00
01177              80.00       80.00
01178              72.00      160.00
01179              72.00      160.00
01180              64.00      160.00
01181              56.00      240.00
01182              56.00      240.00
01183              96.00      320.00
01184             288.00      400.00
01185             104.00      400.00
01186            -264.00      400.00
01187            -160.00      400.00
01188             256.00      560.00
01189             104.00      640.00
01190            -408.00      480.00
01191            -264.00      560.00
01192             328.00      720.00
01193             200.00      800.00
01194            -344.00      560.00
01195            -184.00      720.00
01196             312.00      880.00
01197              64.00      880.00
01198            -336.00      800.00
01199             -48.00      880.00
01200             280.00     1120.00
01201             -96.00      960.00
01202            -296.00      880.00
01203              32.00     1120.00
01204             152.00     1200.00
01205            -160.00     1120.00
01206            -160.00     1040.00
01207              96.00     1280.00
01208             -40.00     1360.00
01209            -248.00     1200.00
01210             -56.00     1200.00
01211              64.00     1440.00
01212            -152.00     1440.00
01213            -216.00     1360.00
01214               0.00     1520.00
01215             -32.00     1520.00
01216            -184.00     1440.00
01217            -128.00     1440.00
01218             -32.00     1680.00
01219            -120.00     1600.00
01220            -176.00     1520.00
01221            -104.00     1680.00
01222             -64.00     1760.00
01223            -152.00     1680.00
01224            -184.00     1680.00
01225            -120.00     1760.00
01226            -112.00     1760.00
01227            -160.00     1760.00
01228            -152.00     1840.00
01229            -104.00     1840.00
01230            -136.00     1760.00
01231            -168.00     1840.00
01232            -160.00     1920.00
01233            -168.00     1840.00
01234            -200.00     1920.00
01235            -184.00     2000.00
01236            -152.00     2000.00
01237            -160.00     2000.00
01238            -176.00     2000.00
01239            -184.00     2000.00
01240            -184.00     2080.00
01241            -192.00     2080.00
01242            -208.00     2080.00
01243            -200.00     2080.00
01244            -192.00     2080.00
01245            -192.00     2080.00
01246            -208.00     2080.00
01247            -208.00     2160.00
01248            -216.00     2160.00
01249            -224.00     2160.00
01250            -200.00     2160.00
01251            -200.00     2240.00
01252            -232.00     2160.00
01253            -256.00     2160.00
01254            -240.00     2240.00
01255            -256.00     2240.00
01256            -256.00     2240.00
01257            -224.00     2160.00
01258            -216.00     2240.00
01259            -248.00     2160.00
01260            -256.00     2160.00
01261            -256.00     2240.00
01262            -264.00     2160.00
01263            -280.00     2240.00
01264            -264.00     2160.00
01265            -264.00     2240.00
01266            -280.00     2160.00
01267            -272.00     2080.00
01268            -256.00     2240.00
01269            -272.00     2160.00
01270            -288.00     2240.00
01271            -280.00     2160.00
01272            -264.00     2080.00
01273            -280.00     2160.00
01274            -280.00     2080.00
01275            -280.00     2160.00
01276            -288.00     2080.00
01277            -296.00     2080.00
01278            -280.00     2080.00
01279            -288.00     2080.00
01280            -296.00     2000.00
01281            -288.00     2000.00
01282            -280.00     2000.00
01283            -280.00     1920.00
01284            -288.00     2000.00
01285            -264.00     2000.00
01286            -264.00     1920.00
01287            -280.00     1840.00
01288            -288.00     1840.00
01289            -288.00     1840.00
01290            -280.00     1840.00
01291            -256.00     1840.00
01292            -264.00     1760.00
01293            -280.00     1760.00
01294            -264.00     1680.00
01295            -248.00     1680.00
01296            -248.00     1680.00
01297            -256.00     1680.00
01298            -248.00     1680.00
01299            -232.00     1600.00
01300            -248.00     1520.00
01301            -232.00     1520.00
01302            -224.00     1520.00
01303            -216.00     1440.00
01304            -232.00     1440.00
01305            -232.00     1440.00
01306            -232.00     1440.00
01307            -232.00     1360.00
01308            -216.00     1360.00
01309            -184.00     1360.00
01310            -168.00     1200.00
01311            -184.00     1200.00
01312            -200.00     1200.00
01313            -200.00     1200.00
01314            -184.00     1120.00
01315            -152.00     1120.00
01316            -160.00     1040.00
01317            -168.00     1040.00
01318            -160.00     1040.00
01319            -168.00      960.00
01320            -168.00      880.00
01321            -160.00      880.00
01322            -152.00      880.00
01323            -144.00      800.00
01324            -128.00      720.00
01325            -104.00      720.00
01326            -104.00      720.00
01327            -128.00      640.00
01328            -128.00      560.00
01329            -112.00      560.00
01330            -104.00      480.00
01331            -104.00      480.00
01332            -104.00      480.00
01333             -96.00      400.00
01334             -88.00      400.00
01335             -88.00      400.00
01336             -72.00      240.00
01337             -72.00      240.00
01338             -88.00      240.00
01339             -64.00      160.00
01340             -64.00      160.00
01341             -40.00      160.00
01342             -40.00       80.00
01343             -40.00       80.00
01344             -40.00      -80.00
01345             -24.00      -80.00
01346             -16.00      -80.00
01347               0.00     -160.00
01348               0.00     -160.00
01349               0.00     -240.00
01350              32.00     -240.00
01351             248.00     -240.00
01352             128.00     -400.00
01353            -296.00     -320.00
01354            -264.00     -400.00
01355             160.00     -480.00
01356             320.00     -560.00
01357            -232.00     -560.00
01358            -376.00     -560.00
01359              56.00     -720.00
01360             296.00     -560.00
01361             -96.00     -640.00
01362            -216.00     -880.00
01363             192.00     -800.00
01364             312.00     -720.00
01365             -56.00     -800.00
01366            -160.00    -1040.00
01367              96.00     -880.00
01368              96.00     -880.00
01369             -40.00    -1040.00
01370              88.00    -1120.00
01371             192.00    -1040.00
01372              32.00    -1040.00
01373              -8.00    -1200.00
01374             120.00    -1200.00
01375              88.00    -1120.00
01376              -8.00    -1280.00
01377              96.00    -1360.00
01378             216.00    -1200.00
01379              72.00    -1280.00
01380             -24.00    -1440.00
01381             120.00    -1360.00
01382             168.00    -1360.00
01383              64.00    -1440.00
01384              64.00    -1600.00
01385             160.00    -1520.00
01386             168.00    -1440.00
01387              96.00    -1680.00
01388              88.00    -1680.00
01389             128.00    -1520.00
01390              96.00    -1680.00
01391             104.00    -1680.00
01392             184.00    -1680.00
01393             200.00    -1680.00
01394             136.00    -1760.00
01395             128.00    -1840.00
01396             136.00    -1760.00
01397             136.00    -1840.00
01398             144.00    -1840.00
01399             192.00    -1840.00
01400             192.00    -1840.00
01401             152.00    -1920.00
01402             160.00    -1920.00
01403             184.00    -2000.00
01404             168.00    -1920.00
01405             184.00    -2000.00
01406             192.00    -2000.00
01407             192.00    -2000.00
01408             200.00    -2000.00
01409             192.00    -2080.00
01410             176.00    -2080.00
01411             184.00    -2000.00
01412             200.00    -2080.00
01413             200.00    -2080.00
01414             216.00    -2160.00
01415             232.00    -2080.00
01416             224.00    -2080.00
01417             216.00    -2160.00
01418             224.00    -2160.00
01419             216.00    -2080.00
01420             216.00    -2080.00
01421             232.00    -2080.00
01422             248.00    -2080.00
01423             232.00    -2160.00
01424             248.00    -2160.00
01425             264.00    -2160.00
01426             248.00    -2160.00
01427             232.00    -2160.00
01428             240.00    -2160.00
01429             248.00    -2080.00
01430             256.00    -2080.00
01431             280.00    -2160.00
01432             288.00    -2160.00
01433             264.00    -2080.00
01434             256.00    -2080.00
01435             264.00    -2160.00
01436             280.00    -2080.00
01437             280.00    -2080.00
01438             296.00    -2080.00
01439             288.00    -2080.00
01440             280.00    -2000.00
01441             280.00    -2080.00
01442             264.00    -2000.00
01443             288.00    -2000.00
01444             288.00    -2000.00
01445             288.00    -2000.00
01446             288.00    -2000.00
01447             272.00    -2000.00
01448             264.00    -2000.00
01449             288.00    -1920.00
01450             288.00    -1920.00
01451             288.00    -1840.00
01452             288.00    -1840.00
01453             280.00    -1840.00
01454             264.00    -1840.00
01455             264.00    -1760.00
01456             256.00    -1760.00
01457             264.00    -1760.00
01458             264.00    -1760.00
01459             264.00    -1760.00
01460             256.00    -1680.00
01461             248.00    -1680.00
01462             248.00    -1680.00
01463             248.00    -1600.00
01464             248.00    -1520.00
01465             248.00    -1520.00
01466             224.00    -1520.00
01467             224.00    -1520.00
01468             224.00    -1440.00
01469             232.00    -1440.00
01470             224.00    -1440.00
01471             224.00    -1440.00
01472             216.00    -1360.00
01473             216.00    -1360.00
01474             216.00    -1280.00
01475             200.00    -1360.00
01476             192.00    -1200.00
01477             184.00    -1200.00
01478             184.00    -1120.00
01479             184.00    -1120.00
01480             192.00    -1040.00
01481             168.00    -1040.00
01482             168.00    -1040.00
01483             168.00    -1040.00
01484             160.00     -960.00
01485             160.00     -960.00
01486             152.00     -880.00
01487             136.00     -880.00
01488             128.00     -800.00
01489             144.00     -800.00
01490             136.00     -720.00
01491             144.00     -720.00
01492             128.00     -720.00
01493             112.00     -640.00
01494             104.00     -560.00
01495             104.00     -560.00
01496             120.00     -480.00
01497             104.00     -480.00
01498              96.00     -480.00
01499              72.00     -320.00
01500              88.00     -320.00
01501              88.00     -240.00
01502              88.00     -240.00
01503              80.00     -240.00
01504              72.00     -240.00
01505              64.00     -160.00
01506              64.00      -80.00
01507              64.00      -80.00
01508              64.00        0.00
01509              72.00        0.00
01510              64.00       80.00
01511              56.00       80.00
01512              56.00      160.00
01513              64.00      160.00
01514              72.00      160.00
01515              64.00      240.00
01516              72.00      240.00
01517             248.00      400.00
01518             192.00      400.00
01519            -216.00      400.00
01520            -200.00      400.00
01521             184.00      480.00
01522             224.00      720.00
01523            -320.00      480.00
01524            -360.00      480.00
01525             200.00      640.00
01526             280.00      800.00
01527            -264.00      720.00
01528            -248.00      640.00
01529             296.00      880.00
01530             192.00      880.00
01531            -328.00      800.00
01532            -200.00      800.00
01533             232.00     1120.00
01534              24.00     1040.00
01535            -264.00      880.00
01536               0.00     1040.00
01537             200.00     1200.00
01538            -152.00     1120.00
01539            -264.00     1040.00
01540              24.00     1200.00
01541              24.00     1360.00
01542            -192.00     1280.00
01543             -72.00     1200.00
01544              96.00     1440.00
01545            -112.00     1440.00
01546            -248.00     1360.00
01547             -48.00     1440.00
01548              -8.00     1520.00
01549            -168.00     1440.00
01550            -168.00     1440.00
01551             -40.00     1600.00
01552             -72.00     1600.00
01553            -152.00     1520.00
01554            -128.00     1680.00
01555             -96.00     1760.00
01556            -160.00     1680.00
01557            -176.00     1680.00
01558            -104.00     1760.00
01559             -80.00     1760.00
01560            -136.00     1760.00
01561            -168.00     1840.00
01562            -128.00     1840.00
01563            -136.00     1840.00
01564            -168.00     1840.00
01565            -160.00     1920.00
01566            -152.00     1840.00
01567            -168.00     1920.00
01568            -168.00     2000.00
01569            -152.00     2000.00
01570            -168.00     2000.00
01571            -192.00     2000.00
01572            -192.00     2000.00
01573            -184.00     2080.00
01574            -168.00     2160.00
01575            -192.00     2080.00
01576            -216.00     2080.00
01577            -192.00     2160.00
01578            -192.00     2160.00
01579            -208.00     2080.00
01580            -216.00     2160.00
01581            -200.00     2160.00
01582            -208.00     2080.00
01583            -200.00     2080.00
01584            -200.00     2240.00
01585            -232.00     2160.00
01586            -264.00     2160.00
01587            -232.00     2240.00
01588            -224.00     2240.00
01589            -232.00     2160.00
01590            -232.00     2240.00
01591            -232.00     2240.00
01592            -264.00     2240.00
01593            -280.00     2160.00
01594            -256.00     2240.00
01595            -248.00     2240.00
01596            -248.00     2160.00
01597            -232.00     2160.00
01598            -256.00     2240.00
01599            -280.00     2160.00
01600            -296.00     2080.00
01601            -280.00     2240.00
01602            -264.00     2160.00
01603            -264.00     2160.00
01604            -256.00     2160.00
01605            -264.00     2240.00
01606            -296.00     2080.00
01607            -312.00     2080.00
01608            -296.00     2080.00
01609            -280.00     2080.00
01610            -280.00     2080.00
01611            -264.00     2000.00
01612            -280.00     2080.00
01613            -296.00     2000.00
01614            -296.00     2000.00
01615            -288.00     2000.00
01616            -272.00     2000.00
01617            -264.00     1920.00
01618            -280.00     2000.00
01619            -280.00     1920.00
01620            -288.00     1840.00
01621            -288.00     1840.00
01622            -280.00     1840.00
01623            -264.00     1840.00
01624            -248.00     1760.00
01625            -256.00     1840.00
01626            -264.00     1680.00
01627            -272.00     1760.00
01628            -264.00     1760.00
01629            -256.00     1680.00
01630            -248.00     1680.00
01631            -248.00     1600.00
01632            -248.00     1600.00
01633            -248.00     1520.00
01634            -232.00     1600.00
01635            -232.00     1520.00
01636            -232.00     1520.00
01637            -216.00     1520.00
01638            -208.00     1440.00
01639            -216.00     1360.00
01640            -216.00     1440.00
01641            -208.00     1360.00
01642            -200.00     1360.00
01643            -200.00     1280.00
01644            -192.00     1280.00
01645            -200.00     1200.00
01646            -192.00     1200.00
01647            -168.00     1200.00
01648            -152.00     1040.00
01649            -144.00     1120.00
01650            -160.00     1040.00
01651            -168.00     1040.00
01652            -168.00      960.00
01653            -168.00      960.00
01654            -160.00      880.00
01655            -160.00      800.00
01656            -160.00      800.00
01657            -128.00      800.00
01658            -104.00      720.00
01659            -104.00      720.00
01660            -104.00      720.00
01661            -120.00      560.00
01662            -128.00      560.00
01663            -120.00      480.00
01664            -120.00      560.00
01665            -112.00      400.00
01666            -104.00      480.00
01667             -88.00      400.00
01668             -72.00      400.00
01669             -64.00      320.00
01670             -64.00      320.00
01671             -72.00      240.00
01672             -88.00      160.00
01673             -88.00      240.00
01674             -64.00       80.00
01675             -56.00       80.00
01676             -40.00        0.00
01677             -32.00        0.00
01678             -16.00      -80.00
01679              -8.00      -80.00
01680             -16.00      -80.00
01681             -16.00     -160.00
01682              -8.00     -160.00
01683               8.00     -240.00
01684             192.00     -240.00
01685             216.00     -400.00
01686            -232.00     -320.00
01687            -304.00     -320.00
01688              72.00     -480.00
01689             376.00     -480.00
01690            -120.00     -560.00
01691            -408.00     -480.00
01692             -56.00     -720.00
01693             320.00     -560.00
01694               0.00     -560.00
01695            -256.00     -800.00
01696              72.00     -800.00
01697             296.00     -720.00
01698               8.00     -720.00
01699            -160.00    -1040.00
01700             104.00     -960.00
01701             168.00     -800.00
01702              -8.00     -960.00
01703               0.00    -1120.00
01704             152.00    -1040.00
01705              40.00    -1040.00
01706              -8.00    -1200.00
01707             136.00    -1200.00
01708             152.00    -1120.00
01709              -8.00    -1120.00
01710              40.00    -1200.00
01711             192.00    -1200.00
01712             104.00    -1280.00
01713              -8.00    -1360.00
01714              96.00    -1440.00
01715             184.00    -1360.00
01716              88.00    -1360.00
01717              40.00    -1520.00
01718             128.00    -1440.00
01719             168.00    -1440.00
01720              96.00    -1520.00
01721              88.00    -1680.00
01722             136.00    -1520.00
01723             128.00    -1680.00
01724              96.00    -1760.00
01725             136.00    -1680.00
01726             160.00    -1680.00
01727             128.00    -1760.00
01728             128.00    -1840.00
01729             168.00    -1760.00
01730             160.00    -1760.00
01731             136.00    -1840.00
01732             168.00    -1840.00
01733             184.00    -1920.00
01734             144.00    -1920.00
01735             152.00    -1920.00
01736             176.00    -1840.00
01737             184.00    -1920.00
01738             184.00    -2000.00
01739             184.00    -2000.00
01740             192.00    -2000.00
01741             192.00    -2000.00
01742             192.00    -2000.00
01743             192.00    -2000.00
01744             200.00    -2000.00
01745             200.00    -2080.00
01746             200.00    -2080.00
01747             216.00    -2080.00
01748             216.00    -2000.00
01749             216.00    -2080.00
01750             216.00    -2160.00
01751             216.00    -2080.00
01752             224.00    -2080.00
01753             216.00    -2160.00
01754             232.00    -2160.00
01755             248.00    -2160.00
01756             232.00    -2160.00
01757             232.00    -2160.00
01758             256.00    -2160.00
01759             256.00    -2080.00
01760             248.00    -2160.00
01761             248.00    -2160.00
01762             256.00    -2080.00
01763             256.00    -2080.00
01764             264.00    -2160.00
01765             280.00    -2080.00
01766             264.00    -2080.00
01767             256.00    -2160.00
01768             264.00    -2080.00
01769             280.00    -2080.00
01770             280.00    -2080.00
01771             288.00    -2000.00
01772             280.00    -2080.00
01773             280.00    -2000.00
01774             280.00    -2000.00
01775             280.00    -2000.00
01776             272.00    -2000.00
01777             280.00    -2000.00
01778             288.00    -2000.00
01779             288.00    -2000.00
01780             280.00    -2000.00
01781             288.00    -2000.00
01782             288.00    -1920.00
01783             280.00    -1920.00
01784             280.00    -1840.00
01785             288.00    -1840.00
01786             280.00    -1840.00
01787             280.00    -1840.00
01788             264.00    -1760.00
01789             256.00    -1760.00
01790             264.00    -1760.00
01791             256.00    -1760.00
01792             264.00    -1680.00
01793             264.00    -1680.00
01794             256.00    -1680.00
01795             256.00    -1680.00
01796             240.00    -1680.00
01797             240.00    -1520.00
01798             248.00    -1520.00
01799             232.00    -1520.00
01800             224.00    -1520.00
01801             232.00    -1440.00
01802             232.00    -1440.00
01803             216.00    -1440.00
01804             216.00    -1360.00
01805             216.00    -1360.00
01806             200.00    -1360.00
01807             208.00    -1280.00
01808             200.00    -1280.00
01809             192.00    -1200.00
01810             192.00    -1200.00
01811             200.00    -1200.00
01812             192.00    -1120.00
01813             168.00    -1120.00
01814             160.00    -1040.00
01815             160.00    -1040.00
01816             160.00    -1040.00
01817             152.00     -960.00
01818             152.00     -880.00
01819             152.00     -880.00
01820             136.00     -880.00
01821             136.00     -880.00
01822             144.00     -800.00
01823             152.00     -720.00
01824             136.00     -720.00
01825             128.00     -640.00
01826             112.00     -560.00
01827             104.00     -480.00
01828             104.00     -560.00
01829             104.00     -480.00
01830             120.00     -480.00
01831             112.00     -480.00
01832              96.00     -320.00
01833              88.00     -320.00
01834              88.00     -320.00
01835              88.00     -240.00
01836              72.00     -240.00
01837              72.00     -160.00
01838              72.00     -160.00
01839              72.00     -160.00
01840              56.00      -80.00
01841              64.00        0.00
01842              64.00      -80.00
01843              64.00      -80.00
01844              80.00       80.00
01845              80.00      160.00
01846              72.00      160.00
01847              56.00      240.00
01848              40.00      240.00
01849              56.00      240.00
01850             216.00      400.00
01851             264.00      400.00
01852            -168.00      400.00
01853            -248.00      400.00
01854             104.00      400.00
01855             312.00      720.00
01856            -256.00      560.00
01857            -424.00      480.00
01858              88.00      560.00
01859             344.00      800.00
01860            -176.00      720.00
01861            -320.00      560.00
01862             184.00      800.00
01863             264.00      880.00
01864            -248.00      800.00
01865            -248.00      800.00
01866             216.00     1040.00
01867             104.00     1040.00
01868            -288.00      880.00
01869            -128.00     1040.00
01870             184.00     1200.00
01871             -64.00     1200.00
01872            -248.00     1040.00
01873               8.00     1200.00
01874              88.00     1360.00
01875            -200.00     1280.00
01876            -168.00     1200.00
01877              56.00     1360.00
01878             -56.00     1440.00
01879            -232.00     1360.00
01880             -88.00     1360.00
01881              16.00     1520.00
01882            -136.00     1440.00
01883            -192.00     1440.00
01884             -40.00     1520.00
01885             -56.00     1680.00
01886            -168.00     1520.00
01887            -136.00     1600.00
01888             -72.00     1680.00
01889            -128.00     1680.00
01890            -176.00     1680.00
01891            -136.00     1760.00
01892            -104.00     1840.00
01893            -152.00     1760.00
01894            -168.00     1840.00
01895            -128.00     1840.00
01896            -128.00     1840.00
01897            -168.00     1840.00
01898            -160.00     1920.00
01899            -136.00     1840.00
01900            -184.00     2000.00
01901            -184.00     2000.00
01902            -160.00     2000.00
01903            -152.00     2000.00
01904            -184.00     2000.00
01905            -192.00     2080.00
01906            -176.00     2000.00
01907            -168.00     2080.00
01908            -192.00     2080.00
01909            -200.00     2000.00
01910            -200.00     2080.00
01911            -184.00     2240.00
01912            -216.00     2080.00
01913            -216.00     2080.00
01914            -208.00     2160.00
01915            -216.00     2240.00
01916            -224.00     2160.00
01917            -200.00     2240.00
01918            -216.00     2240.00
01919            -240.00     2160.00
01920            -224.00     2160.00
01921            -216.00     2240.00
01922            -256.00     2160.00
01923            -248.00     2160.00
01924            -224.00     2240.00
01925            -232.00     2160.00
01926            -256.00     2240.00
01927            -248.00     2240.00
01928            -256.00     2160.00
01929            -264.00     2240.00
01930            -264.00     2240.00
01931            -256.00     2160.00
01932            -264.00     2160.00
01933            -288.00     2160.00
01934            -264.00     2240.00
01935            -264.00     2160.00
01936            -280.00     2160.00
01937            -288.00     2240.00
01938            -264.00     2160.00
01939            -280.00     2240.00
01940            -288.00     2080.00
01941            -288.00     2080.00
01942            -288.00     2080.00
01943            -288.00     2080.00
01944            -280.00     2080.00
01945            -280.00     2000.00
01946            -296.00     2080.00
01947            -288.00     2000.00
01948            -280.00     2000.00
01949            -288.00     2000.00
01950            -288.00     1920.00
01951            -280.00     1920.00
01952            -280.00     1920.00
01953            -288.00     1920.00
01954            -264.00     1840.00
01955            -280.00     1840.00
01956            -272.00     1840.00
01957            -264.00     1840.00
01958            -256.00     1840.00
01959            -264.00     1760.00
01960            -264.00     1760.00
01961            -256.00     1680.00
01962            -256.00     1680.00
01963            -248.00     1680.00
01964            -248.00     1680.00
01965            -256.00     1680.00
01966            -256.00     1520.00
01967            -232.00     1520.00
01968            -216.00     1520.00
01969            -216.00     1520.00
01970            -216.00     1440.00
01971            -232.00     1440.00
01972            -232.00     1440.00
01973            -224.00     1440.00
01974            -200.00     1360.00
01975            -192.00     1360.00
01976            -192.00     1280.00
01977            -184.00     1280.00
01978            -192.00     1200.00
01979            -200.00     1200.00
01980            -192.00     1120.00
01981            -184.00     1120.00
01982            -168.00     1120.00
01983            -168.00     1040.00
01984            -160.00     1040.00
01985            -136.00      960.00
01986            -152.00      880.00
01987            -168.00      880.00
01988            -160.00      800.00
01989            -152.00      800.00
01990            -136.00      720.00
01991            -120.00      720.00
01992            -104.00      720.00
01993            -120.00      640.00
01994            -120.00      640.00
01995            -104.00      560.00
01996            -104.00      560.00
01997            -128.00      560.00
01998            -120.00      480.00
01999            -104.00      480.00
02000             -96.00      400.00
02001             -88.00      400.00
02002             -88.00      400.00
02003             -80.00      240.00
02004             -88.00      240.00
02005             -88.00      240.00
02006             -72.00      160.00
02007             -56.00      160.00
02008             -40.00       80.00
02009             -40.00        0.00
02010             -56.00        0.00
02011             -40.00      -80.00
02012             -32.00      -80.00
02013              -8.00      -80.00
02014               8.00     -160.00
02015               8.00     -240.00
02016               0.00     -240.00
02017             136.00     -240.00
02018             248.00     -400.00
02019            -168.00     -320.00
02020            -336.00     -320.00
02021             -32.00     -480.00
02022             368.00     -480.00
02023               8.00     -480.00
02024            -392.00     -480.00
02025            -160.00     -720.00
02026             296.00     -640.00
02027              88.00     -640.00
02028            -256.00     -800.00
02029               0.00     -800.00
02030             328.00     -720.00
02031              88.00     -720.00
02032            -184.00     -960.00
02033              56.00     -960.00
02034             192.00     -880.00
02035              32.00     -880.00
02036             -24.00    -1120.00
02037             128.00    -1040.00
02038              64.00     -960.00
02039              -8.00    -1120.00
02040             128.00    -1200.00
02041             184.00    -1120.00
02042               8.00    -1200.00
02043               0.00    -1280.00
02044             168.00    -1280.00
02045             152.00    -1200.00
02046              24.00    -1360.00
02047              64.00    -1520.00
02048             160.00    -1360.00
02049              88.00    -1360.00
02050              16.00    -1520.00
02051             104.00    -1600.00
02052             192.00    -1440.00
02053             128.00    -1600.00
02054              88.00    -1680.00
02055             136.00    -1600.00
02056             152.00    -1680.00
02057             120.00    -1680.00
02058             128.00    -1680.00
02059             168.00    -1680.00
02060             136.00    -1760.00
02061             128.00    -1760.00
02062             152.00    -1760.00
02063             152.00    -1760.00
02064             128.00    -1840.00
02065             152.00    -1840.00
02066             184.00    -1840.00
02067             160.00    -1840.00
02068             152.00    -1920.00
02069             176.00    -1920.00
02070             184.00    -2000.00
02071             160.00    -2000.00
02072             184.00    -1920.00
02073             192.00    -2000.00
02074             192.00    -2000.00
02075             192.00    -2000.00
02076             184.00    -2080.00
02077             184.00    -2000.00
02078             192.00    -2000.00
02079             200.00    -2000.00
02080             216.00    -2080.00
02081             224.00    -2000.00
02082             224.00    -2080.00
02083             224.00    -2080.00
02084             232.00    -2080.00
02085             224.00    -2160.00
02086             216.00    -2160.00
02087             224.00    -2160.00
02088             248.00    -2160.00
02089             232.00    -2080.00
02090             224.00    -2160.00
02091             248.00    -2160.00
02092             248.00    -2080.00
02093             248.00    -2080.00
02094             256.00    -2080.00
02095             272.00    -2080.00
02096             264.00    -2080.00
02097             256.00    -2160.00
02098             264.00    -2080.00
02099             280.00    -2080.00
02100             264.00    -2160.00
02101             280.00    -2080.00
02102             288.00    -2080.00
02103             280.00    -2080.00
02104             264.00    -2080.00
02105             288.00    -2080.00
02106             288.00    -2080.00
02107             280.00    -2080.00
02108             288.00    -2000.00
02109             296.00    -2000.00
02110             288.00    -2000.00
02111             296.00    -2000.00
02112             288.00    -2000.00
02113             280.00    -2000.00
02114             256.00    -1920.00
02115             272.00    -1920.00
02116             280.00    -1920.00
02117             288.00    -1920.00
02118             280.00    -1840.00
02119             280.00    -1840.00
02120             280.00    -1840.00
02121             264.00    -1840.00
02122             280.00    -1760.00
02123             280.00    -1760.00
02124             264.00    -1760.00
02125             248.00    -1760.00
02126             232.00    -1680.00
02127             256.00    -1680.00
02128             256.00    -1680.00
02129             256.00    -1600.00
02130             256.00    -1600.00
02131             248.00    -1520.00
02132             248.00    -1520.00
02133             224.00    -1520.00
02134             232.00    -1440.00
02135             216.00    -1440.00
02136             200.00    -1440.00
02137             200.00    -1440.00
02138             216.00    -1360.00
02139             224.00    -1360.00
02140             224.00    -1360.00
02141             216.00    -1280.00
02142             192.00    -1280.00
02143             176.00    -1200.00
02144             160.00    -1200.00
02145             176.00    -1120.00
02146             192.00    -1120.00
02147             192.00    -1120.00
02148             168.00    -1040.00
02149             160.00    -1040.00
02150             168.00     -960.00
02151             160.00     -880.00
02152             152.00     -880.00
02153             152.00     -880.00
02154             136.00     -800.00
02155             128.00     -800.00
02156             152.00     -800.00
02157             152.00     -720.00
02158             120.00     -720.00
02159             120.00     -640.00
02160             120.00     -560.00
02161             120.00     -480.00
02162             120.00     -560.00
02163             120.00     -480.00
02164              88.00     -320.00
02165              64.00     -400.00
02166              88.00     -400.00
02167             104.00     -320.00
02168             104.00     -240.00
02169              88.00     -240.00
02170              48.00     -160.00
02171              24.00     -160.00
02172              56.00      -80.00
02173             104.00      -80.00
02174             128.00      -80.00
02175              96.00        0.00
02176              64.00       80.00
02177              40.00       80.00
02178              32.00      160.00
02179              48.00      160.00
02180              48.00      160.00
02181              48.00      240.00
02182              64.00      240.00
02183             184.00      400.00
02184             312.00      400.00
02185             -96.00      400.00
02186            -264.00      480.00
02187               8.00      400.00
02188             344.00      560.00
02189            -128.00      560.00
02190            -456.00      480.00
02191             -56.00      560.00
02192             360.00      800.00
02193             -72.00      720.00
02194            -360.00      560.00
02195              88.00      720.00
02196             352.00      880.00
02197            -136.00      800.00
02198            -304.00      720.00
02199             128.00      960.00
02200             160.00     1120.00
02201            -264.00      880.00
02202            -200.00      960.00
02203             160.00     1200.00
02204              24.00     1200.00
02205            -256.00     1040.00
02206             -48.00     1120.00
02207             120.00     1360.00
02208            -144.00     1280.00
02209            -192.00     1200.00
02210              40.00     1280.00
02211               0.00     1440.00
02212            -232.00     1360.00
02213            -144.00     1360.00
02214               8.00     1520.00
02215            -104.00     1520.00
02216            -192.00     1440.00
02217             -64.00     1520.00
02218             -32.00     1680.00
02219            -160.00     1520.00
02220            -168.00     1520.00
02221             -88.00     1760.00
02222            -104.00     1680.00
02223            -160.00     1600.00
02224            -136.00     1760.00
02225             -96.00     1760.00
02226            -128.00     1760.00
02227            -168.00     1760.00
02228            -152.00     1840.00
02229            -128.00     1840.00
02230            -168.00     1840.00
02231            -160.00     1840.00
02232            -136.00     1920.00
02233            -160.00     1840.00
02234            -184.00     2000.00
02235            -160.00     2000.00
02236            -152.00     2000.00
02237            -184.00     2000.00
02238            -192.00     1920.00
02239            -184.00     2000.00
02240            -184.00     2080.00
02241            -192.00     2080.00
02242            -200.00     2080.00
02243            -192.00     2080.00
02244            -184.00     2080.00
02245            -200.00     2080.00
02246            -216.00     2080.00
02247            -200.00     2160.00
02248            -216.00     2240.00
02249            -224.00     2080.00
02250            -200.00     2080.00
02251            -216.00     2160.00
02252            -256.00     2160.00
02253            -240.00     2160.00
02254            -216.00     2240.00
02255            -232.00     2240.00
02256            -248.00     2160.00
02257            -232.00     2240.00
02258            -248.00     2160.00
02259            -264.00     2240.00
02260            -256.00     2160.00
02261            -256.00     2240.00
02262            -264.00     2160.00
02263            -264.00     2240.00
02264            -256.00     2160.00
02265            -280.00     2160.00
02266            -280.00     2080.00
02267            -264.00     2240.00
02268            -264.00     2160.00
02269            -280.00     2240.00
02270            -296.00     2160.00
02271            -288.00     2160.00
02272            -288.00     2080.00
02273            -288.00     2160.00
02274            -288.00     2080.00
02275            -280.00     2080.00
02276            -288.00     2160.00
02277            -280.00     2080.00
02278            -280.00     2080.00
02279            -288.00     2000.00
02280            -296.00     2000.00
02281            -288.00     2000.00
02282            -280.00     2000.00
02283            -288.00     1920.00
02284            -288.00     2000.00
02285            -280.00     1840.00
02286            -280.00     1840.00
02287            -264.00     1920.00
02288            -264.00     1840.00
02289            -264.00     1840.00
02290            -256.00     1840.00
02291            -264.00     1760.00
02292            -264.00     1760.00
02293            -272.00     1760.00
02294            -264.00     1760.00
02295            -256.00     1680.00
02296            -248.00     1680.00
02297            -232.00     1680.00
02298            -248.00     1600.00
02299            -248.00     1600.00
02300            -232.00     1520.00
02301            -232.00     1520.00
02302            -224.00     1520.00
02303            -224.00     1440.00
02304            -216.00     1520.00
02305            -224.00     1440.00
02306            -216.00     1360.00
02307            -200.00     1360.00
02308            -200.00     1360.00
02309            -200.00     1360.00
02310            -192.00     1200.00
02311            -192.00     1200.00
02312            -192.00     1200.00
02313            -192.00     1200.00
02314            -168.00     1120.00
02315            -168.00     1040.00
02316            -168.00     1040.00
02317            -160.00     1040.00
02318            -160.00      960.00
02319            -160.00      960.00
02320            -160.00      880.00
02321            -144.00      880.00
02322            -144.00      800.00
02323            -128.00      720.00
02324            -128.00      720.00
02325            -120.00      720.00
02326            -128.00      640.00
02327            -128.00      720.00
02328            -120.00      560.00
02329            -104.00      560.00
02330            -120.00      480.00
02331            -104.00      480.00
02332             -96.00      480.00
02333             -88.00      400.00
02334             -88.00      400.00
02335             -88.00      320.00
02336             -88.00      240.00
02337             -80.00      240.00
02338             -72.00      160.00
02339             -72.00      160.00
02340             -64.00      160.00
02341             -56.00       80.00
02342             -48.00       80.00
02343             -40.00        0.00
02344             -32.00        0.00
02345             -24.00      -80.00
02346              -8.00      -80.00
02347              -8.00     -160.00
02348              -8.00     -160.00
02349               0.00     -240.00
02350              96.00     -240.00
02351             288.00     -320.00
02352             -64.00     -400.00
02353            -344.00     -240.00
02354            -128.00     -480.00
02355             320.00     -480.00
02356             128.00     -480.00
02357            -376.00     -480.00
02358            -256.00     -640.00
02359             256.00     -720.00
02360             192.00     -560.00
02361            -224.00     -720.00
02362             -96.00     -800.00
02363             288.00     -720.00
02364             160.00     -720.00
02365            -160.00     -880.00
02366             -16.00    -1040.00
02367             192.00     -880.00
02368              56.00     -880.00
02369             -40.00    -1040.00
02370             104.00    -1040.00
02371             104.00     -960.00
02372             -24.00    -1040.00
02373              72.00    -1200.00
02374             184.00    -1120.00
02375              40.00    -1120.00
02376              -8.00    -1280.00
02377             152.00    -1280.00
02378             160.00    -1200.00
02379              24.00    -1360.00
02380              32.00    -1440.00
02381             168.00    -1360.00
02382             136.00    -1360.00
02383              32.00    -1520.00
02384              88.00    -1520.00
02385             168.00    -1440.00
02386             128.00    -1520.00
02387              88.00    -1680.00
02388             120.00    -1600.00
02389             152.00    -1600.00
02390             112.00    -1680.00
02391             120.00    -1680.00
02392             160.00    -1680.00
02393             136.00    -1760.00
02394             120.00    -1840.00
02395             144.00    -1760.00
02396             160.00    -1760.00
02397             128.00    -1840.00
02398             152.00    -1840.00
02399             176.00    -1840.00
02400             160.00    -1920.00
02401             152.00    -1920.00
02402             168.00    -1920.00
02403             184.00    -1920.00
02404             176.00    -2000.00
02405             176.00    -2000.00
02406             184.00    -2000.00
02407             184.00    -2000.00
02408             192.00    -2000.00
02409             192.00    -2000.00
02410             200.00    -2080.00
02411             208.00    -2000.00
02412             200.00    -2080.00
02413             200.00    -2080.00
02414             208.00    -2080.00
02415             216.00    -2080.00
02416             216.00    -2080.00
02417             224.00    -2080.00
02418             232.00    -2080.00
02419             216.00    -2080.00
02420             224.00    -2160.00
02421             240.00    -2160.00
02422             232.00    -2160.00
02423             224.00    -2160.00
02424             248.00    -2160.00
02425             256.00    -2160.00
02426             256.00    -2160.00
02427             256.00    -2160.00
02428             256.00    -2160.00
02429             256.00    -2080.00
02430             256.00    -2080.00
02431             272.00    -2080.00
02432             280.00    -2080.00
02433             256.00    -2080.00
02434             264.00    -2080.00
02435             280.00    -2080.00
02436             280.00    -2080.00
02437             272.00    -2160.00
02438             280.00    -2080.00
02439             288.00    -2000.00
02440             280.00    -2080.00
02441             280.00    -2080.00
02442             280.00    -2000.00
02443             280.00    -2000.00
02444             280.00    -2000.00
02445             296.00    -2000.00
02446             304.00    -1920.00
02447             280.00    -2000.00
02448             264.00    -2000.00
02449             264.00    -1920.00
02450             280.00    -1920.00
02451             280.00    -1840.00
02452             288.00    -1840.00
02453             312.00    -1760.00
02454             288.00    -1840.00
02455             264.00    -1840.00
02456             232.00    -1760.00
02457             232.00    -1760.00
02458             256.00    -1680.00
02459             280.00    -1680.00
02460             264.00    -1680.00
02461             216.00    -1680.00
02462             208.00    -1680.00
02463             272.00    -1600.00
02464             312.00    -1520.00
02465             280.00    -1520.00
02466             216.00    -1520.00
02467             184.00    -1520.00
02468             184.00    -1440.00
02469             200.00    -1440.00
02470             232.00    -1360.00
02471             256.00    -1360.00
02472             232.00    -1360.00
02473             200.00    -1360.00
02474             192.00    -1280.00
02475             200.00    -1200.00
02476             200.00    -1200.00
02477             192.00    -1200.00
02478             184.00    -1120.00
02479             160.00    -1120.00
02480             144.00    -1040.00
02481             168.00    -1040.00
02482             200.00    -1040.00
02483             184.00    -1040.00
02484             152.00     -960.00
02485             120.00     -880.00
02486             120.00     -880.00
02487             136.00     -800.00
02488             160.00     -800.00
02489             168.00     -720.00
02490             160.00     -720.00
02491             128.00     -720.00
02492             104.00     -640.00
02493              96.00     -560.00
02494              88.00     -560.00
02495             104.00     -480.00
02496             120.00     -480.00
02497             120.00     -480.00
02498             120.00     -400.00
02499              96.00     -320.00
02500              72.00     -320.00
02501              72.00     -240.00
02502              64.00     -240.00
02503              88.00     -160.00
02504              96.00     -160.00
02505              88.00     -160.00
02506              64.00     -160.00
02507              48.00        0.00
02508              40.00        0.00
02509              56.00       80.00
02510              80.00       80.00
02511              88.00       80.00
02512              72.00      160.00
02513              32.00      160.00
02514              32.00      240.00
02515              48.00      240.00
02516             144.00      320.00
02517             336.00      400.00
02518              32.00      400.00
02519            -272.00      400.00
02520             -96.00      400.00
02521             312.00      560.00
02522             -24.00      560.00
02523            -456.00      480.00
02524            -168.00      560.00
02525             376.00      720.00
02526              64.00      800.00
02527            -384.00      560.00
02528             -48.00      720.00
02529             344.00      880.00
02530             -56.00      880.00
02531            -344.00      720.00
02532              56.00      960.00
02533             248.00     1120.00
02534            -184.00      880.00
02535            -264.00      880.00
02536              96.00     1120.00
02537              72.00     1200.00
02538            -232.00     1040.00
02539            -104.00     1120.00
02540             120.00     1360.00
02541             -80.00     1360.00
02542            -248.00     1200.00
02543             -16.00     1280.00
02544              32.00     1440.00
02545            -192.00     1360.00
02546            -160.00     1360.00
02547              24.00     1440.00
02548             -64.00     1520.00
02549            -200.00     1440.00
02550            -104.00     1520.00
02551             -32.00     1680.00
02552            -128.00     1600.00
02553            -160.00     1520.00
02554             -88.00     1680.00
02555             -88.00     1680.00
02556            -168.00     1680.00
02557            -168.00     1760.00
02558            -104.00     1760.00
02559            -128.00     1760.00
02560            -176.00     1680.00
02561            -144.00     1840.00
02562            -104.00     1840.00
02563            -144.00     1840.00
02564            -160.00     1920.00
02565            -136.00     1840.00
02566            -168.00     1920.00
02567            -192.00     1920.00
02568            -168.00     2000.00
02569            -152.00     2000.00
02570            -168.00     2000.00
02571            -192.00     2080.00
02572            -184.00     2000.00
02573            -192.00     2000.00
02574            -192.00     2160.00
02575            -200.00     2000.00
02576            -192.00     2080.00
02577            -184.00     2240.00
02578            -200.00     2080.00
02579            -224.00     2080.00
02580            -216.00     2160.00
02581            -216.00     2160.00
02582            -216.00     2160.00
02583            -200.00     2160.00
02584            -208.00     2160.00
02585            -232.00     2240.00
02586            -240.00     2160.00
02587            -224.00     2160.00
02588            -248.00     2240.00
02589            -256.00     2160.00
02590            -240.00     2160.00
02591            -248.00     2240.00
02592            -256.00     2240.00
02593            -256.00     2160.00
02594            -256.00     2160.00
02595            -264.00     2240.00
02596            -264.00     2240.00
02597            -256.00     2160.00
02598            -264.00     2240.00
02599            -280.00     2240.00
02600            -280.00     2160.00
02601            -264.00     2240.00
02602            -288.00     2160.00
02603            -296.00     2160.00
02604            -280.00     2160.00
02605            -264.00     2160.00
02606            -288.00     2080.00
02607            -288.00     2080.00
02608            -288.00     2080.00
02609            -288.00     2080.00
02610            -296.00     2000.00
02611            -280.00     2080.00
02612            -288.00     2000.00
02613            -296.00     2080.00
02614            -288.00     2000.00
02615            -280.00     2000.00
02616            -280.00     2000.00
02617            -264.00     2000.00
02618            -264.00     2000.00
02619            -272.00     1920.00
02620            -272.00     1840.00
02621            -280.00     1840.00
02622            -288.00     1840.00
02623            -264.00     1840.00
02624            -264.00     1760.00
02625            -256.00     1840.00
02626            -256.00     1760.00
02627            -256.00     1760.00
02628            -248.00     1680.00
02629            -248.00     1680.00
02630            -248.00     1680.00
02631            -232.00     1600.00
02632            -232.00     1600.00
02633            -232.00     1520.00
02634            -224.00     1520.00
02635            -224.00     1520.00
02636            -232.00     1440.00
02637            -224.00     1440.00
02638            -224.00     1440.00
02639            -208.00     1360.00
02640            -216.00     1360.00
02641            -200.00     1360.00
02642            -200.00     1360.00
02643            -192.00     1360.00
02644            -192.00     1280.00
02645            -192.00     1200.00
02646            -192.00     1200.00
02647            -184.00     1120.00
02648            -160.00     1120.00
02649            -168.00     1120.00
02650            -168.00     1040.00
02651            -160.00      960.00
02652            -160.00      880.00
02653            -160.00      880.00
02654            -160.00      880.00
02655            -152.00      800.00
02656            -136.00      800.00
02657            -136.00      720.00
02658            -128.00      720.00
02659            -128.00      720.00
02660            -128.00      720.00
02661            -128.00      640.00
02662            -104.00      560.00
02663            -104.00      480.00
02664            -104.00      480.00
02665            -104.00      400.00
02666             -88.00      400.00
02667             -96.00      400.00
02668             -88.00      320.00
02669             -96.00      240.00
02670             -88.00      240.00
02671             -88.00      240.00
02672             -64.00      160.00
02673             -56.00      160.00
02674             -64.00       80.00
02675             -40.00       80.00
02676             -40.00      -80.00
02677             -32.00        0.00
02678             -24.00      -80.00
02679             -24.00      -80.00
02680             -24.00     -160.00
02681              -8.00     -160.00
02682              -8.00     -240.00
02683              64.00     -240.00
02684             288.00     -320.00
02685              56.00     -400.00
02686            -320.00     -320.00
02687            -192.00     -400.00
02688             256.00     -480.00
02689             232.00     -560.00
02690            -320.00     -480.00
02691            -320.00     -560.00
02692             160.00     -720.00
02693             256.00     -560.00
02694            -160.00     -720.00
02695            -168.00     -800.00
02696             248.00     -800.00
02697             232.00     -720.00
02698            -112.00     -880.00
02699             -72.00    -1040.00
02700             200.00     -880.00
02701              96.00     -880.00
02702             -56.00    -1040.00
02703              64.00    -1120.00
02704             120.00    -1040.00
02705               0.00    -1040.00
02706              48.00    -1200.00
02707             184.00    -1120.00
02708              88.00    -1200.00
02709              -8.00    -1280.00
02710             112.00    -1360.00
02711             184.00    -1200.00
02712              24.00    -1280.00
02713              -8.00    -1440.00
02714             144.00    -1360.00
02715             160.00    -1360.00
02716              40.00    -1440.00
02717              72.00    -1600.00
02718             168.00    -1440.00
02719             144.00    -1440.00
02720              88.00    -1680.00
02721             104.00    -1600.00
02722             144.00    -1600.00
02723             120.00    -1680.00
02724              96.00    -1760.00
02725             152.00    -1680.00
02726             152.00    -1760.00
02727             112.00    -1760.00
02728             128.00    -1760.00
02729             168.00    -1760.00
02730             136.00    -1840.00
02731             152.00    -1840.00
02732             184.00    -1840.00
02733             168.00    -1920.00
02734             136.00    -1920.00
02735             160.00    -2000.00
02736             184.00    -1920.00
02737             176.00    -2000.00
02738             184.00    -1920.00
02739             184.00    -2000.00
02740             192.00    -2000.00
02741             192.00    -2000.00
02742             192.00    -2000.00
02743             192.00    -2080.00
02744             208.00    -2080.00
02745             200.00    -2080.00
02746             192.00    -2080.00
02747             200.00    -2080.00
02748             224.00    -2080.00
02749             224.00    -2080.00
02750             232.00    -2160.00
02751             232.00    -2080.00
02752             216.00    -2160.00
02753             216.00    -2160.00
02754             232.00    -2080.00
02755             248.00    -2160.00
02756             240.00    -2160.00
02757             248.00    -2080.00
02758             256.00    -2080.00
02759             256.00    -2160.00
02760             256.00    -2160.00
02761             256.00    -2080.00
02762             264.00    -2080.00
02763             256.00    -2080.00
02764             280.00    -2080.00
02765             272.00    -2160.00
02766             264.00    -2080.00
02767             264.00    -2080.00
02768             288.00    -2080.00
02769             280.00    -2080.00
02770             280.00    -2080.00
02771             280.00    -2080.00
02772             288.00    -2080.00
02773             288.00    -2080.00
02774             280.00    -2000.00
02775             288.00    -2000.00
02776             288.00    -2000.00
02777             288.00    -2000.00
02778             288.00    -2000.00
02779             288.00    -2000.00
02780             280.00    -1920.00
02781             264.00    -2000.00
02782             280.00    -1920.00
02783             280.00    -1920.00
02784             272.00    -1840.00
02785             280.00    -1840.00
02786             272.00    -1840.00
02787             280.00    -1840.00
02788             272.00    -1840.00
02789             264.00    -1760.00
02790             264.00    -1840.00
02791             256.00    -1760.00
02792             256.00    -1760.00
02793             248.00    -1680.00
02794             248.00    -1680.00
02795             248.00    -1680.00
02796             248.00    -1680.00
02797             248.00    -1520.00
02798             232.00    -1520.00
02799             232.00    -1520.00
02800             224.00    -1520.00
02801             232.00    -1440.00
02802             224.00    -1440.00
02803             216.00    -1440.00
02804             200.00    -1360.00
02805             200.00    -1360.00
02806             216.00    -1360.00
02807             216.00    -1280.00
02808             208.00    -1200.00
02809             200.00    -1200.00
02810             192.00    -1200.00
02811             192.00    -1120.00
02812             168.00    -1120.00
02813             152.00    -1120.00
02814             168.00    -1040.00
02815             184.00    -1040.00
02816             168.00    -1040.00
02817             152.00    -1040.00
02818             160.00     -880.00
02819             160.00     -880.00
02820             136.00     -880.00
02821             128.00     -800.00
02822             152.00     -800.00
02823             152.00     -720.00
02824             128.00     -720.00
02825             120.00     -640.00
02826             104.00     -640.00
02827              88.00     -560.00
02828             104.00     -560.00
02829             128.00     -480.00
02830             136.00     -400.00
02831             128.00     -400.00
02832              72.00     -320.00
02833              64.00     -320.00
02834              64.00     -320.00
02835              88.00     -240.00
02836              88.00     -240.00
02837              88.00     -160.00
02838              72.00     -240.00
02839              56.00      -80.00
02840              56.00      -80.00
02841              64.00      -80.00
02842              72.00       80.00
02843              72.00       80.00
02844              64.00       80.00
02845              64.00      160.00
02846              64.00      240.00
02847              64.00      240.00
02848              56.00      240.00
02849              88.00      240.00
02850             288.00      400.00
02851             104.00      400.00
02852            -256.00      400.00
02853            -136.00      400.00
02854             272.00      560.00
02855              96.00      640.00
02856            -440.00      560.00
02857            -304.00      480.00
02858             312.00      720.00
02859             200.00      800.00
02860            -320.00      560.00
02861            -152.00      720.00
02862             320.00      880.00
02863              40.00      880.00
02864            -360.00      720.00
02865             -64.00      880.00
02866             280.00     1120.00
02867             -88.00     1040.00
02868            -288.00      880.00
02869              32.00     1120.00
02870             128.00     1200.00
02871            -200.00     1120.00
02872            -160.00     1120.00
02873             120.00     1280.00
02874             -16.00     1360.00
02875            -248.00     1200.00
02876             -72.00     1280.00
02877              40.00     1440.00
02878            -168.00     1360.00
02879            -200.00     1360.00
02880               0.00     1440.00
02881             -32.00     1520.00
02882            -192.00     1440.00
02883            -128.00     1520.00
02884             -24.00     1680.00
02885            -104.00     1680.00
02886            -168.00     1600.00
02887             -96.00     1680.00
02888             -72.00     1680.00
02889            -152.00     1680.00
02890            -168.00     1680.00
02891            -104.00     1840.00
02892            -112.00     1840.00
02893            -168.00     1760.00
02894            -160.00     1760.00
02895            -104.00     1840.00
02896            -136.00     1840.00
02897            -168.00     1920.00
02898            -152.00     1840.00
02899            -152.00     1920.00
02900            -192.00     2000.00
02901            -168.00     2000.00
02902            -152.00     2000.00
02903            -168.00     2080.00
02904            -192.00     2000.00
02905            -184.00     2000.00
02906            -192.00     2080.00
02907            -192.00     2080.00
02908            -200.00     2080.00
02909            -184.00     2080.00
02910            -160.00     2080.00
02911            -184.00     2080.00
02912            -224.00     2080.00
02913            -232.00     2080.00
02914            -232.00     2240.00
02915            -224.00     2080.00
02916            -200.00     2240.00
02917            -192.00     2160.00
02918            -240.00     2080.00
02919            -256.00     2160.00
02920            -240.00     2240.00
02921            -248.00     2240.00
02922            -256.00     2160.00
02923            -232.00     2240.00
02924            -224.00     2240.00
02925            -256.00     2240.00
02926            -256.00     2080.00
02927            -256.00     2240.00
02928            -264.00     2160.00
02929            -264.00     2240.00
02930            -256.00     2240.00
02931            -248.00     2160.00
02932            -280.00     2160.00
02933            -280.00     2080.00
02934            -280.00     2240.00
02935            -280.00     2240.00
02936            -296.00     2160.00
02937            -288.00     2240.00
02938            -280.00     2160.00
02939            -280.00     2160.00
02940            -280.00     2080.00
02941            -288.00     2080.00
02942            -288.00     2080.00
02943            -280.00     2080.00
02944            -264.00     2080.00
02945            -280.00     2000.00
02946            -288.00     2000.00
02947            -280.00     2080.00
02948            -280.00     2000.00
02949            -280.00     2000.00
02950            -280.00     2000.00
02951            -280.00     1920.00
02952            -288.00     1840.00
02953            -280.00     1840.00
02954            -280.00     1840.00
02955            -264.00     1920.00
02956            -264.00     1760.00
02957            -264.00     1760.00
02958            -256.00     1760.00
02959            -256.00     1760.00
02960            -264.00     1680.00
02961            -256.00     1680.00
02962            -256.00     1680.00
02963            -240.00     1680.00
02964            -232.00     1600.00
02965            -224.00     1600.00
02966            -224.00     1520.00
02967            -232.00     1520.00
02968            -256.00     1520.00
02969            -248.00     1520.00
02970            -224.00     1520.00
02971            -216.00     1440.00
02972            -200.00     1440.00
02973            -200.00     1360.00
02974            -208.00     1360.00
02975            -208.00     1360.00
02976            -200.00     1280.00
02977            -192.00     1200.00
02978            -192.00     1200.00
02979            -192.00     1200.00
02980            -168.00     1120.00
02981            -168.00     1120.00
02982            -168.00     1040.00
02983            -168.00     1040.00
02984            -168.00     1040.00
02985            -168.00      880.00
02986            -168.00      880.00
02987            -184.00      880.00
02988            -152.00      880.00
02989            -128.00      800.00
02990            -104.00      800.00
02991            -120.00      720.00
02992            -128.00      720.00
02993            -152.00      720.00
02994            -136.00      560.00
02995            -104.00      560.00
02996            -104.00      560.00
02997            -112.00      480.00
02998            -120.00      480.00
02999             -96.00      400.00
03000             -72.00      400.00
03001             -80.00      320.00
03002             -88.00      320.00
03003             -72.00      240.00
03004             -96.00      240.00
03005            -104.00      160.00
03006             -72.00      160.00
03007             -40.00      160.00
03008             -40.00       80.00
03009             -32.00       80.00
03010             -32.00      -80.00
03011             -32.00      -80.00
03012             -32.00      -80.00
03013              -8.00      -80.00
03014               0.00     -160.00
03015              -8.00     -160.00
03016              24.00     -160.00
03017             256.00     -240.00
03018             160.00     -400.00
03019            -288.00     -240.00
03020            -264.00     -320.00
03021             152.00     -560.00
03022             296.00     -480.00
03023            -224.00     -560.00
03024            -360.00     -560.00
03025              72.00     -720.00
03026             312.00     -640.00
03027             -88.00     -640.00
03028            -232.00     -880.00
03029             184.00     -800.00
03030             296.00     -720.00
03031             -72.00     -800.00
03032            -152.00    -1040.00
03033             152.00     -880.00
03034             136.00     -880.00
03035             -32.00    -1040.00
03036              24.00    -1120.00
03037             136.00    -1040.00
03038               8.00    -1040.00
03039              16.00    -1200.00
03040             192.00    -1200.00
03041             136.00    -1120.00
03042             -24.00    -1200.00
03043              64.00    -1360.00
03044             168.00    -1200.00
03045              56.00    -1200.00
03046               0.00    -1440.00
03047             136.00    -1360.00
03048             184.00    -1360.00
03049              56.00    -1440.00
03050              32.00    -1520.00
03051             136.00    -1440.00
03052             144.00    -1440.00
03053              88.00    -1600.00
03054             104.00    -1680.00
03055             152.00    -1600.00
03056             120.00    -1680.00
03057              96.00    -1680.00
03058             136.00    -1680.00
03059             160.00    -1760.00
03060             120.00    -1760.00
03061             128.00    -1760.00
03062             160.00    -1760.00
03063             152.00    -1840.00
03064             152.00    -1920.00
03065             168.00    -1840.00
03066             152.00    -1840.00
03067             128.00    -1920.00
03068             152.00    -1840.00
03069             184.00    -1920.00
03070             192.00    -2000.00
03071             168.00    -2000.00
03072             176.00    -2000.00
03073             192.00    -2000.00
03074             216.00    -2000.00
03075             216.00    -2000.00
03076             192.00    -2000.00
03077             192.00    -2080.00
03078             192.00    -2000.00
03079             184.00    -2080.00
03080             200.00    -2080.00
03081             216.00    -2080.00
03082             216.00    -2080.00
03083             224.00    -2080.00
03084             256.00    -2080.00
03085             248.00    -2160.00
03086             224.00    -2160.00
03087             216.00    -2080.00
03088             216.00    -2080.00
03089             216.00    -2080.00
03090             248.00    -2160.00
03091             280.00    -2080.00
03092             288.00    -2160.00
03093             264.00    -2160.00
03094             248.00    -2160.00
03095             232.00    -2080.00
03096             224.00    -2080.00
03097             248.00    -2080.00
03098             280.00    -2080.00
03099             296.00    -2080.00
03100             288.00    -2160.00
03101             280.00    -2080.00
03102             264.00    -2080.00
03103             256.00    -2000.00
03104             280.00    -2080.00
03105             296.00    -2080.00
03106             288.00    -2080.00
03107             264.00    -2080.00
03108             264.00    -2080.00
03109             280.00    -2000.00
03110             288.00    -2000.00
03111             296.00    -2000.00
03112             296.00    -2000.00
03113             288.00    -1920.00
03114             280.00    -2000.00
03115             280.00    -1840.00
03116             272.00    -1920.00
03117             280.00    -1840.00
03118             280.00    -1840.00
03119             264.00    -1840.00
03120             264.00    -1840.00
03121             264.00    -1760.00
03122             256.00    -1760.00
03123             264.00    -1760.00
03124             264.00    -1760.00
03125             264.00    -1680.00
03126             248.00    -1760.00
03127             256.00    -1680.00
03128             248.00    -1680.00
03129             232.00    -1680.00
03130             232.00    -1520.00
03131             248.00    -1600.00
03132             232.00    -1520.00
03133             232.00    -1520.00
03134             248.00    -1440.00
03135             224.00    -1440.00
03136             216.00    -1440.00
03137             208.00    -1360.00
03138             216.00    -1360.00
03139             216.00    -1360.00
03140             208.00    -1280.00
03141             200.00    -1280.00
03142             192.00    -1200.00
03143             192.00    -1200.00
03144             192.00    -1120.00
03145             192.00    -1120.00
03146             168.00    -1120.00
03147             168.00    -1040.00
03148             160.00    -1040.00
03149             160.00    -1040.00
03150             160.00     -960.00
03151             168.00     -880.00
03152             160.00     -880.00
03153             152.00     -880.00
03154             144.00     -800.00
03155             136.00     -800.00
03156             128.00     -720.00
03157             120.00     -720.00
03158             120.00     -720.00
03159             120.00     -640.00
03160             104.00     -560.00
03161             104.00     -560.00
03162             120.00     -480.00
03163             120.00     -480.00
03164             104.00     -400.00
03165              96.00     -320.00
03166              88.00     -320.00
03167              88.00     -320.00
03168              88.00     -240.00
03169              88.00     -240.00
03170              72.00     -160.00
03171              72.00     -160.00
03172              72.00     -160.00
03173              56.00      -80.00
03174              56.00      -80.00
03175              56.00        0.00
03176              56.00       80.00
03177              64.00       80.00
03178              72.00      160.00
03179              64.00      160.00
03180              56.00      240.00
03181              56.00      240.00
03182              72.00      240.00
03183             256.00      400.00
03184             200.00      400.00
03185            -224.00      400.00
03186            -216.00      400.00
03187             184.00      480.00
03188             216.00      640.00
03189            -352.00      480.00
03190            -392.00      480.00
03191             200.00      720.00
03192             296.00      800.00
03193            -256.00      640.00
03194            -248.00      560.00
03195             264.00      880.00
03196             152.00      880.00
03197            -320.00      800.00
03198            -144.00      800.00
03199             256.00     1120.00
03200               0.00     1040.00
03201            -296.00      880.00
03202             -32.00     1040.00
03203             168.00     1200.00
03204            -136.00     1120.00
03205            -216.00     1040.00
03206              64.00     1200.00
03207              24.00     1360.00
03208            -232.00     1280.00
03209            -104.00     1200.00
03210              88.00     1360.00
03211            -104.00     1440.00
03212            -232.00     1360.00
03213             -40.00     1440.00
03214              -8.00     1600.00
03215            -168.00     1440.00
03216            -128.00     1440.00
03217               0.00     1600.00
03218             -72.00     1680.00
03219            -192.00     1520.00
03220            -152.00     1680.00
03221             -72.00     1760.00
03222            -128.00     1680.00
03223            -160.00     1680.00
03224            -120.00     1760.00
03225             -96.00     1760.00
03226            -160.00     1760.00
03227            -176.00     1760.00
03228            -128.00     1840.00
03229            -136.00     1840.00
03230            -168.00     1840.00
03231            -152.00     2000.00
03232            -136.00     1840.00
03233            -176.00     1920.00
03234            -184.00     2000.00
03235            -160.00     2000.00
03236            -160.00     2000.00
03237            -168.00     2000.00
03238            -184.00     2000.00
03239            -192.00     2000.00
03240            -168.00     2080.00
03241            -200.00     2000.00
03242            -224.00     2000.00
03243            -208.00     2080.00
03244            -200.00     2240.00
03245            -208.00     2080.00
03246            -200.00     2160.00
03247            -200.00     2240.00
03248            -224.00     2080.00
03249            -216.00     2240.00
03250            -200.00     2160.00
03251            -224.00     2240.00
03252            -256.00     2160.00
03253            -256.00     2240.00
03254            -272.00     2240.00
03255            -256.00     2160.00
03256            -216.00     2240.00
03257            -192.00     2160.00
03258            -224.00     2240.00
03259            -264.00     2160.00
03260            -296.00     2240.00
03261            -296.00     2240.00
03262            -280.00     2240.00
03263            -240.00     2160.00
03264            -224.00     2160.00
03265            -264.00     2080.00
03266            -296.00     2160.00
03267            -280.00     2160.00
03268            -288.00     2240.00
03269            -288.00     2160.00
03270            -272.00     2160.00
03271            -256.00     2160.00
03272            -264.00     2160.00
03273            -288.00     2080.00
03274            -296.00     2080.00
03275            -296.00     2160.00
03276            -296.00     2080.00
03277            -272.00     2080.00
03278            -256.00     2080.00
03279            -256.00     2000.00
03280            -264.00     2000.00
03281            -288.00     2000.00
03282            -296.00     2000.00
03283            -296.00     2000.00
03284            -280.00     2000.00
03285            -256.00     1920.00
03286            -264.00     1840.00
03287            -272.00     1840.00
03288            -280.00     1840.00
03289            -280.00     1840.00
03290            -264.00     1760.00
03291            -264.00     1760.00
03292            -256.00     1760.00
03293            -256.00     1680.00
03294            -256.00     1680.00
03295            -248.00     1680.00
03296            -248.00     1680.00
03297            -264.00     1600.00
03298            -256.00     1680.00
03299            -248.00     1520.00
03300            -224.00     1520.00
03301            -216.00     1520.00
03302            -216.00     1520.00
03303            -224.00     1440.00
03304            -216.00     1440.00
03305            -224.00     1440.00
03306            -216.00     1360.00
03307            -216.00     1360.00
03308            -208.00     1360.00
03309            -200.00     1280.00
03310            -184.00     1280.00
03311            -176.00     1200.00
03312            -192.00     1200.00
03313            -184.00     1120.00
03314            -176.00     1120.00
03315            -168.00     1120.00
03316            -168.00     1040.00
03317            -168.00     1040.00
03318            -152.00      960.00
03319            -160.00      960.00
03320            -168.00      880.00
03321            -160.00      880.00
03322            -136.00      800.00
03323            -128.00      800.00
03324            -112.00      720.00
03325            -104.00      720.00
03326            -120.00      720.00
03327            -128.00      560.00
03328            -120.00      560.00
03329            -120.00      480.00
03330            -104.00      560.00
03331             -96.00      480.00
03332             -96.00      400.00
03333             -96.00      400.00
03334             -88.00      400.00
03335             -88.00      320.00
03336             -72.00      320.00
03337             -64.00      240.00
03338             -64.00      240.00
03339             -56.00       80.00
03340             -64.00      160.00
03341             -64.00      160.00
03342             -56.00       80.00
03343             -40.00      -80.00
03344             -24.00        0.00
03345              -8.00      -80.00
03346               0.00     -160.00
03347               0.00     -160.00
03348              -8.00     -160.00
03349               8.00     -160.00
03350             192.00     -240.00
03351             216.00     -400.00
03352            -232.00     -320.00
03353            -312.00     -320.00
03354              64.00     -480.00
03355             360.00     -480.00
03356            -104.00     -560.00
03357            -392.00     -560.00
03358             -40.00     -720.00
03359             328.00     -560.00
03360               8.00     -640.00
03361            -256.00     -800.00
03362              72.00     -800.00
03363             312.00     -720.00
03364               0.00     -720.00
03365            -160.00     -960.00
03366             104.00     -880.00
03367             168.00     -880.00
03368              -8.00     -960.00
03369              -8.00    -1120.00
03370             136.00    -1040.00
03371              48.00    -1040.00
03372              -8.00    -1200.00
03373             128.00    -1200.00
03374             152.00    -1120.00
03375              -8.00    -1200.00
03376              40.00    -1280.00
03377             192.00    -1280.00
03378              96.00    -1200.00
03379              -8.00    -1360.00
03380              88.00    -1440.00
03381             184.00    -1360.00
03382              88.00    -1360.00
03383              32.00    -1520.00
03384             120.00    -1440.00
03385             160.00    -1440.00
03386              88.00    -1600.00
03387              88.00    -1680.00
03388             136.00    -1600.00
03389             128.00    -1600.00
03390              96.00    -1760.00
03391             128.00    -1760.00
03392             160.00    -1680.00
03393             128.00    -1760.00
03394             128.00    -1760.00
03395             160.00    -1760.00
03396             144.00    -1760.00
03397             128.00    -1840.00
03398             168.00    -1840.00
03399             192.00    -1840.00
03400             160.00    -1920.00
03401             152.00    -1840.00
03402             160.00    -1920.00
03403             168.00    -2000.00
03404             184.00    -2000.00
03405             192.00    -2000.00
03406             168.00    -2000.00
03407             168.00    -2000.00
03408             208.00    -2000.00
03409             216.00    -2000.00
03410             192.00    -2000.00
03411             192.00    -2000.00
03412             216.00    -2080.00
03413             216.00    -2080.00
03414             232.00    -2080.00
03415             232.00    -2080.00
03416             200.00    -2160.00
03417             192.00    -2080.00
03418             192.00    -2080.00
03419             232.00    -2160.00
03420             272.00    -2160.00
03421             280.00    -2160.00
03422             256.00    -2160.00
03423             224.00    -2160.00
03424             224.00    -2160.00
03425             224.00    -2080.00
03426             248.00    -2080.00
03427             264.00    -2160.00
03428             280.00    -2160.00
03429             256.00    -2160.00
03430             256.00    -2080.00
03431             288.00    -2080.00
03432             288.00    -2080.00
03433             264.00    -2080.00
03434             256.00    -2160.00
03435             264.00    -2080.00
03436             272.00    -2080.00
03437             280.00    -2080.00
03438             296.00    -2080.00
03439             296.00    -2000.00
03440             264.00    -2000.00
03441             264.00    -2080.00
03442             288.00    -2080.00
03443             288.00    -2000.00
03444             280.00    -2000.00
03445             288.00    -2000.00
03446             280.00    -2000.00
03447             264.00    -2000.00
03448             280.00    -1920.00
03449             288.00    -1920.00
03450             296.00    -1920.00
03451             288.00    -1840.00
03452             264.00    -1920.00
03453             256.00    -1840.00
03454             248.00    -1840.00
03455             248.00    -1760.00
03456             280.00    -1760.00
03457             296.00    -1760.00
03458             288.00    -1760.00
03459             264.00    -1760.00
03460             224.00    -1760.00
03461             216.00    -1680.00
03462             216.00    -1680.00
03463             248.00    -1520.00
03464             264.00    -1600.00
03465             256.00    -1520.00
03466             248.00    -1520.00
03467             248.00    -1440.00
03468             216.00    -1440.00
03469             200.00    -1440.00
03470             192.00    -1360.00
03471             200.00    -1360.00
03472             224.00    -1360.00
03473             232.00    -1280.00
03474             224.00    -1280.00
03475             200.00    -1200.00
03476             184.00    -1200.00
03477             168.00    -1120.00
03478             184.00    -1120.00
03479             184.00    -1120.00
03480             192.00    -1120.00
03481             184.00    -1040.00
03482             160.00    -1040.00
03483             152.00     -960.00
03484             152.00     -880.00
03485             152.00     -880.00
03486             152.00     -880.00
03487             152.00     -880.00
03488             152.00     -800.00
03489             136.00     -720.00
03490             128.00     -720.00
03491             120.00     -720.00
03492             120.00     -640.00
03493             120.00     -560.00
03494             128.00     -560.00
03495             128.00     -480.00
03496             128.00     -400.00
03497             104.00     -480.00
03498              72.00     -320.00
03499              64.00     -400.00
03500              72.00     -320.00
03501              88.00     -240.00
03502              96.00     -240.00
03503              96.00     -240.00
03504              72.00     -160.00
03505              56.00     -160.00
03506              40.00      -80.00
03507              40.00      -80.00
03508              56.00        0.00
03509              64.00        0.00
03510              88.00       80.00
03511              72.00       80.00
03512              56.00      160.00
03513              40.00      160.00
03514              40.00      240.00
03515              56.00      240.00
03516             224.00      400.00
03517             280.00      400.00
03518            -152.00      400.00
03519            -256.00      400.00
03520              80.00      400.00
03521             280.00      640.00
03522            -256.00      480.00
03523            -432.00      480.00
03524              96.00      560.00
03525             376.00      800.00
03526            -168.00      720.00
03527            -344.00      560.00
03528             160.00      880.00
03529             256.00      880.00
03530            -248.00      800.00
03531            -232.00      720.00
03532             224.00     1040.00
03533             104.00     1120.00
03534            -280.00      880.00
03535            -128.00     1040.00
03536             168.00     1200.00
03537             -64.00     1200.00
03538            -248.00     1040.00
03539              24.00     1200.00
03540              88.00     1360.00
03541            -184.00     1200.00
03542            -168.00     1280.00
03543              56.00     1360.00
03544             -40.00     1440.00
03545            -232.00     1360.00
03546             -72.00     1440.00
03547              24.00     1520.00
03548            -152.00     1440.00
03549            -200.00     1520.00
03550             -40.00     1520.00
03551             -40.00     1680.00
03552            -160.00     1520.00
03553            -144.00     1600.00
03554             -88.00     1680.00
03555            -128.00     1760.00
03556            -168.00     1680.00
03557            -112.00     1760.00
03558             -72.00     1840.00
03559            -152.00     1760.00
03560            -192.00     1840.00
03561            -152.00     1840.00
03562            -128.00     1840.00
03563            -152.00     1840.00
03564            -144.00     1840.00
03565            -136.00     1920.00
03566            -176.00     1920.00
03567            -192.00     2000.00
03568            -160.00     2000.00
03569            -160.00     2000.00
03570            -192.00     2000.00
03571            -200.00     2000.00
03572            -192.00     2000.00
03573            -184.00     2080.00
03574            -192.00     2080.00
03575            -216.00     2080.00
03576            -200.00     2080.00
03577            -192.00     2160.00
03578            -200.00     2080.00
03579            -216.00     2080.00
03580            -200.00     2160.00
03581            -232.00     2240.00
03582            -248.00     2160.00
03583            -216.00     2240.00
03584            -216.00     2240.00
03585            -224.00     2240.00
03586            -216.00     2160.00
03587            -224.00     2240.00
03588            -256.00     2240.00
03589            -256.00     2160.00
03590            -232.00     2240.00
03591            -256.00     2160.00
03592            -280.00     2240.00
03593            -264.00     2240.00
03594            -256.00     2240.00
03595            -256.00     2240.00
03596            -240.00     2160.00
03597            -232.00     2240.00
03598            -280.00     2160.00
03599            -296.00     2160.00
03600            -280.00     2160.00
03601            -272.00     2240.00
03602            -288.00     2160.00
03603            -280.00     2160.00
03604            -256.00     2160.00
03605            -264.00     2080.00
03606            -288.00     2080.00
03607            -296.00     2160.00
03608            -288.00     2160.00
03609            -288.00     2080.00
03610            -280.00     2080.00
03611            -280.00     2080.00
03612            -296.00     2080.00
03613            -296.00     2000.00
03614            -280.00     2000.00
03615            -280.00     1920.00
03616            -280.00     2000.00
03617            -280.00     2000.00
03618            -280.00     1840.00
03619            -280.00     1840.00
03620            -264.00     1920.00
03621            -264.00     1840.00
03622            -280.00     1840.00
03623            -256.00     1840.00
03624            -264.00     1840.00
03625            -256.00     1760.00
03626            -256.00     1840.00
03627            -264.00     1760.00
03628            -264.00     1680.00
03629            -248.00     1680.00
03630            -248.00     1680.00
03631            -248.00     1680.00
03632            -248.00     1600.00
03633            -232.00     1520.00
03634            -232.00     1520.00
03635            -232.00     1440.00
03636            -232.00     1440.00
03637            -224.00     1360.00
03638            -216.00     1440.00
03639            -224.00     1360.00
03640            -208.00     1360.00
03641            -200.00     1360.00
03642            -216.00     1280.00
03643            -200.00     1200.00
03644            -192.00     1200.00
03645            -192.00     1200.00
03646            -192.00     1120.00
03647            -168.00     1120.00
03648            -168.00     1120.00
03649            -168.00     1040.00
03650            -168.00     1040.00
03651            -160.00     1040.00
03652            -152.00      960.00
03653            -160.00      880.00
03654            -152.00      880.00
03655            -144.00      880.00
03656            -136.00      800.00
03657            -136.00      720.00
03658            -128.00      720.00
03659            -120.00      720.00
03660            -128.00      560.00
03661            -120.00      640.00
03662            -104.00      560.00
03663            -120.00      480.00
03664            -104.00      480.00
03665             -96.00      480.00
03666             -80.00      400.00
03667             -88.00      400.00
03668             -80.00      400.00
03669             -96.00      240.00
03670             -88.00      240.00
03671             -72.00      240.00
03672             -64.00      160.00
03673             -40.00      160.00
03674             -64.00       80.00
03675             -48.00       80.00
03676             -32.00       80.00
03677              -8.00        0.00
03678               0.00      -80.00
03679               0.00     -160.00
03680               0.00      -80.00
03681              -8.00     -240.00
03682              -8.00     -160.00
03683             128.00     -240.00
03684             256.00     -400.00
03685            -152.00     -320.00
03686            -328.00     -240.00
03687             -40.00     -480.00
03688             376.00     -480.00
03689              32.00     -480.00
03690            -408.00     -480.00
03691            -160.00     -720.00
03692             296.00     -640.00
03693              96.00     -560.00
03694            -256.00     -720.00
03695              -8.00     -800.00
03696             320.00     -720.00
03697              96.00     -720.00
03698            -168.00     -960.00
03699              40.00     -960.00
03700             192.00     -880.00
03701               8.00     -960.00
03702             -40.00    -1040.00
03703             120.00    -1040.00
03704              64.00    -1040.00
03705             -24.00    -1200.00
03706             104.00    -1200.00
03707             176.00    -1120.00
03708              24.00    -1200.00
03709               8.00    -1360.00
03710             160.00    -1280.00
03711             128.00    -1200.00
03712              -8.00    -1360.00
03713              64.00    -1440.00
03714             168.00    -1360.00
03715             104.00    -1360.00
03716              32.00    -1520.00
03717             104.00    -1520.00
03718             168.00    -1440.00
03719             104.00    -1520.00
03720              88.00    -1680.00
03721             136.00    -1600.00
03722             152.00    -1680.00
03723             104.00    -1680.00
03724             128.00    -1680.00
03725             168.00    -1760.00
03726             128.00    -1760.00
03727             120.00    -1760.00
03728             152.00    -1760.00
03729             160.00    -1760.00
03730             128.00    -1840.00
03731             152.00    -1840.00
03732             184.00    -1840.00
03733             152.00    -1920.00
03734             152.00    -1920.00
03735             184.00    -1920.00
03736             184.00    -1920.00
03737             168.00    -1920.00
03738             184.00    -2000.00
03739             184.00    -2000.00
03740             184.00    -2000.00
03741             192.00    -2000.00
03742             192.00    -2000.00
03743             200.00    -2000.00
03744             216.00    -2080.00
03745             216.00    -2080.00
03746             216.00    -2080.00
03747             216.00    -2080.00
03748             216.00    -2080.00
03749             216.00    -2080.00
03750             224.00    -2160.00
03751             224.00    -2080.00
03752             216.00    -2080.00
03753             232.00    -2080.00
03754             248.00    -2080.00
03755             248.00    -2080.00
03756             224.00    -2160.00
03757             248.00    -2080.00
03758             256.00    -2080.00
03759             248.00    -2080.00
03760             248.00    -2160.00
03761             256.00    -2080.00
03762             256.00    -2160.00
03763             256.00    -2080.00
03764             264.00    -2080.00
03765             280.00    -2080.00
03766             264.00    -2080.00
03767             264.00    -2080.00
03768             280.00    -2080.00
03769             280.00    -2080.00
03770             264.00    -2080.00
03771             288.00    -2080.00
03772             288.00    -2000.00
03773             272.00    -2080.00
03774             280.00    -2000.00
03775             288.00    -2000.00
03776             280.00    -2000.00
03777             280.00    -2000.00
03778             288.00    -2000.00
03779             288.00    -2000.00
03780             288.00    -2000.00
03781             280.00    -2000.00
03782             280.00    -1920.00
03783             280.00    -1920.00
03784             264.00    -1840.00
03785             264.00    -1840.00
03786             280.00    -1840.00
03787             264.00    -1760.00
03788             264.00    -1760.00
03789             272.00    -1760.00
03790             264.00    -1760.00
03791             264.00    -1760.00
03792             256.00    -1680.00
03793             256.00    -1680.00
03794             256.00    -1680.00
03795             248.00    -1680.00
03796             256.00    -1520.00
03797             248.00    -1520.00
03798             240.00    -1520.00
03799             232.00    -1520.00
03800             232.00    -1440.00
03801             224.00    -1440.00
03802             224.00    -1360.00
03803             224.00    -1440.00
03804             216.00    -1360.00
03805             216.00    -1360.00
03806             216.00    -1360.00
03807             200.00    -1280.00
03808             200.00    -1200.00
03809             192.00    -1200.00
03810             192.00    -1200.00
03811             184.00    -1120.00
03812             184.00    -1120.00
03813             168.00    -1120.00
03814             184.00    -1040.00
03815             184.00    -1040.00
03816             160.00     -960.00
03817             152.00     -960.00
03818             160.00     -880.00
03819             152.00     -800.00
03820             152.00     -880.00
03821             136.00     -800.00
03822             136.00     -800.00
03823             128.00     -720.00
03824             128.00     -720.00
03825             128.00     -720.00
03826             120.00     -560.00
03827              96.00     -560.00
03828             104.00     -480.00
03829             120.00     -480.00
03830             120.00     -400.00
03831              96.00     -320.00
03832              88.00     -400.00
03833              88.00     -240.00
03834              88.00     -320.00
03835              72.00     -240.00
03836              64.00     -240.00
03837              64.00     -160.00
03838              72.00      -80.00
03839              72.00      -80.00
03840              88.00      -80.00
03841              56.00        0.00
03842              40.00       80.00
03843              40.00       80.00
03844              88.00       80.00
03845              96.00      160.00
03846              64.00      160.00
03847              32.00      240.00
03848              32.00      240.00
03849             152.00      320.00
03850             296.00      400.00
03851             -64.00      400.00
03852            -256.00      400.00
03853               0.00      400.00
03854             320.00      560.00
03855            -128.00      560.00
03856            -448.00      480.00
03857             -56.00      560.00
03858             384.00      720.00
03859             -56.00      800.00
03860            -368.00      560.00
03861              56.00      720.00
03862             328.00      960.00
03863            -168.00      800.00
03864            -320.00      800.00
03865             128.00      960.00
03866             192.00     1120.00
03867            -232.00      880.00
03868            -200.00     1040.00
03869             152.00     1200.00
03870               8.00     1200.00
03871            -248.00     1120.00
03872             -40.00     1200.00
03873             120.00     1360.00
03874            -136.00     1280.00
03875            -224.00     1200.00
03876              16.00     1360.00
03877             -24.00     1440.00
03878            -224.00     1360.00
03879            -120.00     1440.00
03880              40.00     1520.00
03881             -96.00     1520.00
03882            -184.00     1440.00
03883             -72.00     1520.00
03884             -40.00     1680.00
03885            -152.00     1520.00
03886            -152.00     1600.00
03887             -72.00     1680.00
03888            -104.00     1760.00
03889            -192.00     1680.00
03890            -168.00     1760.00
03891             -96.00     1840.00
03892            -120.00     1760.00
03893            -160.00     1840.00
03894            -136.00     1840.00
03895            -136.00     1840.00
03896            -184.00     1840.00
03897            -168.00     2000.00
03898            -128.00     1920.00
03899            -144.00     1920.00
03900            -168.00     1920.00
03901            -168.00     2000.00
03902            -168.00     2000.00
03903            -200.00     2000.00
03904            -216.00     2080.00
03905            -200.00     2000.00
03906            -176.00     2080.00
03907            -168.00     2080.00
03908            -192.00     2080.00
03909            -184.00     2080.00
03910            -184.00     2080.00
03911            -224.00     2080.00
03912            -232.00     2080.00
03913            -216.00     2080.00
03914            -224.00     2240.00
03915            -224.00     2160.00
03916            -216.00     2240.00
03917            -224.00     2160.00
03918            -248.00     2240.00
03919            -224.00     2240.00
03920            -216.00     2160.00
03921            -248.00     2240.00
03922            -256.00     2160.00
03923            -240.00     2160.00
03924            -232.00     2240.00
03925            -256.00     2160.00
03926            -248.00     2240.00
03927            -256.00     2160.00
03928            -288.00     2240.00
03929            -264.00     2240.00
03930            -248.00     2160.00
03931            -256.00     2240.00
03932            -280.00     2160.00
03933            -280.00     2240.00
03934            -280.00     2160.00
03935            -296.00     2240.00
03936            -296.00     2160.00
03937            -264.00     2160.00
03938            -256.00     2080.00
03939            -280.00     2080.00
03940            -288.00     2080.00
03941            -296.00     2080.00
03942            -296.00     2080.00
03943            -288.00     2080.00
03944            -280.00     2080.00
03945            -280.00     2080.00
03946            -288.00     2000.00
03947            -288.00     2000.00
03948            -272.00     2000.00
03949            -280.00     1920.00
03950            -288.00     2000.00
03951            -264.00     1840.00
03952            -280.00     1920.00
03953            -280.00     1920.00
03954            -280.00     1840.00
03955            -272.00     1840.00
03956            -272.00     1840.00
03957            -280.00     1840.00
03958            -264.00     1840.00
03959            -256.00     1760.00
03960            -256.00     1680.00
03961            -256.00     1680.00
03962            -248.00     1680.00
03963            -248.00     1680.00
03964            -256.00     1600.00
03965            -256.00     1600.00
03966            -232.00     1520.00
03967            -224.00     1520.00
03968            -224.00     1440.00
03969            -232.00     1520.00
03970            -232.00     1440.00
03971            -232.00     1440.00
03972            -216.00     1440.00
03973            -200.00     1360.00
03974            -200.00     1360.00
03975            -192.00     1280.00
03976            -192.00     1280.00
03977            -192.00     1200.00
03978            -200.00     1200.00
03979            -192.00     1120.00
03980            -176.00     1200.00
03981            -168.00     1120.00
03982            -168.00     1120.00
03983            -160.00     1040.00
03984            -168.00      960.00
03985            -160.00      880.00
03986            -160.00      880.00
03987            -152.00      880.00
03988            -136.00      880.00
03989            -136.00      800.00
03990            -136.00      800.00
03991            -120.00      720.00
03992            -104.00      720.00
03993            -128.00      640.00
03994            -120.00      560.00
03995            -104.00      640.00
03996            -120.00      480.00
03997            -128.00      480.00
03998            -104.00      400.00
03999             -72.00      400.00
04000             -88.00      400.00
04001             -88.00      320.00
04002             -72.00      320.00
04003             -72.00      240.00
04004             -80.00      240.00
04005             -64.00      160.00
04006             -56.00      160.00
04007             -64.00       80.00
04008             -48.00       80.00
04009             -32.00       80.00
04010             -24.00      -80.00
04011             -24.00      -80.00
04012             -32.00      -80.00
04013             -32.00     -160.00
04014              -8.00     -240.00
04015              40.00     -240.00
04016             128.00     -240.00
04017             312.00     -320.00
04018             -64.00     -400.00
04019            -368.00     -240.00
04020            -160.00     -480.00
04021             320.00     -480.00
04022             152.00     -480.00
04023            -376.00     -480.00
04024            -240.00     -560.00
04025             248.00     -720.00
04026             192.00     -560.00
04027            -232.00     -720.00
04028            -120.00     -800.00
04029             288.00     -800.00
04030             184.00     -720.00
04031            -152.00     -880.00
04032             -24.00    -1040.00
04033             184.00     -880.00
04034              32.00     -880.00
04035             -64.00    -1040.00
04036              96.00    -1120.00
04037             104.00    -1040.00
04038               8.00    -1120.00
04039              88.00    -1200.00
04040             184.00    -1120.00
04041              40.00    -1120.00
04042             -24.00    -1360.00
04043             128.00    -1280.00
04044             152.00    -1200.00
04045               8.00    -1360.00
04046              24.00    -1440.00
04047             168.00    -1360.00
04048             128.00    -1360.00
04049              40.00    -1440.00
04050              96.00    -1520.00
04051             192.00    -1520.00
04052             128.00    -1520.00
04053              64.00    -1680.00
04054              96.00    -1680.00
04055             128.00    -1600.00
04056             104.00    -1680.00
04057             128.00    -1760.00
04058             176.00    -1680.00
04059             160.00    -1760.00
04060             128.00    -1760.00
04061             152.00    -1840.00
04062             168.00    -1760.00
04063             128.00    -1840.00
04064             128.00    -1840.00
04065             160.00    -1840.00
04066             160.00    -1840.00
04067             152.00    -1920.00
04068             192.00    -1920.00
04069             200.00    -1920.00
04070             176.00    -2000.00
04071             168.00    -1920.00
04072             176.00    -2000.00
04073             184.00    -2000.00
04074             192.00    -2000.00
04075             184.00    -2000.00
04076             184.00    -2000.00
04077             208.00    -2000.00
04078             216.00    -2080.00
04079             224.00    -2080.00
04080             224.00    -2080.00
04081             216.00    -2080.00
04082             200.00    -2080.00
04083             200.00    -2080.00
04084             224.00    -2080.00
04085             224.00    -2080.00
04086             240.00    -2160.00
04087             248.00    -2080.00
04088             232.00    -2160.00
04089             224.00    -2160.00
04090             248.00    -2160.00
04091             248.00    -2080.00
04092             248.00    -2160.00
04093             232.00    -2160.00
04094             256.00    -2160.00
04095             248.00    -2080.00
04096             256.00    -2160.00
04097             280.00    -2160.00
04098             280.00    -2080.00
04099             264.00    -2080.00
04100             256.00    -2160.00
04101             280.00    -2080.00
04102             280.00    -2080.00
04103             256.00    -2080.00
04104             264.00    -2080.00
04105             264.00    -2000.00
04106             264.00    -2000.00
04107             280.00    -2080.00
04108             296.00    -2000.00
04109             288.00    -2000.00
04110             288.00    -2000.00
04111             280.00    -2000.00
04112             280.00    -2000.00
04113             280.00    -2000.00
04114             280.00    -1920.00
04115             288.00    -1840.00
04116             280.00    -1920.00
04117             272.00    -1840.00
04118             280.00    -1840.00
04119             280.00    -1840.00
04120             264.00    -1840.00
04121             264.00    -1840.00
04122             264.00    -1760.00
04123             256.00    -1760.00
04124             256.00    -1760.00
04125             248.00    -1760.00
04126             248.00    -1680.00
04127             256.00    -1680.00
04128             248.00    -1680.00
04129             256.00    -1600.00
04130             264.00    -1600.00
04131             248.00    -1520.00
04132             232.00    -1520.00
04133             224.00    -1520.00
04134             224.00    -1440.00
04135             224.00    -1360.00
04136             224.00    -1440.00
04137             224.00    -1360.00
04138             216.00    -1360.00
04139             200.00    -1360.00
04140             192.00    -1280.00
04141             192.00    -1200.00
04142             192.00    -1200.00
04143             200.00    -1200.00
04144             192.00    -1120.00
04145             192.00    -1120.00
04146             184.00    -1120.00
04147             176.00    -1120.00
04148             168.00    -1040.00
04149             168.00     -960.00
04150             160.00     -960.00
04151             160.00     -880.00
04152             152.00     -880.00
04153             136.00     -880.00
04154             128.00     -800.00
04155             128.00     -800.00
04156             128.00     -720.00
04157             128.00     -720.00
04158             136.00     -720.00
04159             128.00     -640.00
04160             120.00     -560.00
04161             104.00     -560.00
04162             104.00     -480.00
04163              96.00     -480.00
04164              88.00     -320.00
04165              88.00     -320.00
04166              88.00     -320.00
04167              88.00     -320.00
04168              80.00     -240.00
04169              72.00     -240.00
04170              64.00     -160.00
04171              56.00     -160.00
04172              64.00     -160.00
04173              64.00      -80.00
04174              64.00        0.00
04175              64.00       80.00
04176              64.00       80.00
04177              64.00       80.00
04178              64.00      160.00
04179              64.00      240.00
04180              56.00      240.00
04181              56.00      240.00
04182             120.00      320.00
04183             312.00      400.00
04184              24.00      400.00
04185            -280.00      400.00
04186             -96.00      400.00
04187             320.00      560.00
04188               0.00      560.00
04189            -448.00      480.00
04190            -184.00      480.00
04191             360.00      720.00
04192              72.00      800.00
04193            -360.00      640.00
04194             -56.00      720.00
04195             360.00      960.00
04196             -40.00      880.00
04197            -352.00      720.00
04198              24.00      880.00
04199             232.00     1040.00
04200            -168.00      960.00
04201            -256.00      960.00
04202             120.00     1120.00
04203              88.00     1200.00
04204            -232.00     1120.00
04205            -120.00     1200.00
04206             104.00     1360.00
04207             -80.00     1360.00
04208            -232.00     1200.00
04209              -8.00     1280.00
04210              56.00     1440.00
04211            -184.00     1440.00
04212            -168.00     1360.00
04213              24.00     1440.00
04214             -64.00     1520.00
04215            -200.00     1440.00
04216            -104.00     1440.00
04217             -32.00     1680.00
04218            -136.00     1600.00
04219            -184.00     1520.00
04220             -96.00     1680.00
04221             -88.00     1760.00
04222            -160.00     1680.00
04223            -160.00     1680.00
04224             -88.00     1760.00
04225            -112.00     1760.00
04226            -168.00     1760.00
04227            -160.00     1840.00
04228            -128.00     1840.00
04229            -160.00     1840.00
04230            -168.00     1840.00
04231            -152.00     1920.00
04232            -168.00     1840.00
04233            -184.00     2000.00
04234            -168.00     2000.00
04235            -160.00     2000.00
04236            -184.00     2080.00
04237            -192.00     2000.00
04238            -184.00     2000.00
04239            -184.00     2080.00
04240            -192.00     2080.00
04241            -200.00     2000.00
04242            -200.00     2080.00
04243            -184.00     2080.00
04244            -200.00     2080.00
04245            -216.00     2160.00
04246            -200.00     2160.00
04247            -216.00     2240.00
04248            -224.00     2080.00
04249            -216.00     2160.00
04250            -224.00     2160.00
04251            -248.00     2160.00
04252            -232.00     2160.00
04253            -224.00     2240.00
04254            -232.00     2240.00
04255            -248.00     2160.00
04256            -232.00     2160.00
04257            -232.00     2240.00
04258            -256.00     2240.00
04259            -256.00     2160.00
04260            -248.00     2160.00
04261            -264.00     2160.00
04262            -272.00     2160.00
04263            -256.00     2160.00
04264            -264.00     2240.00
04265            -280.00     2160.00
04266            -280.00     2160.00
04267            -264.00     2240.00
04268            -280.00     2240.00
04269            -288.00     2080.00
04270            -272.00     2080.00
04271            -280.00     2240.00
04272            -288.00     2080.00
04273            -288.00     2080.00
04274            -280.00     2080.00
04275            -280.00     2080.00
04276            -280.00     2080.00
04277            -264.00     2080.00
04278            -288.00     2000.00
04279            -288.00     2000.00
04280            -288.00     2000.00
04281            -288.00     2080.00
04282            -280.00     2000.00
04283            -280.00     1920.00
04284            -280.00     1920.00
04285            -280.00     1840.00
04286            -280.00     1840.00
04287            -280.00     1920.00
04288            -264.00     1840.00
04289            -280.00     1840.00
04290            -264.00     1840.00
04291            -264.00     1760.00
04292            -264.00     1760.00
04293            -264.00     1760.00
04294            -264.00     1760.00
04295            -256.00     1680.00
04296            -248.00     1680.00
04297            -248.00     1600.00
04298            -248.00     1600.00
04299            -232.00     1520.00
04300            -232.00     1520.00
04301            -232.00     1520.00
04302            -232.00     1520.00
04303            -224.00     1520.00
04304            -216.00     1440.00
04305            -216.00     1360.00
04306            -216.00     1360.00
04307            -208.00     1360.00
04308            -208.00     1360.00
04309            -192.00     1280.00
04310            -192.00     1280.00
04311            -192.00     1200.00
04312            -184.00     1120.00
04313            -176.00     1120.00
04314            -160.00     1120.00
04315            -168.00     1040.00
04316            -168.00     1040.00
04317            -168.00     1040.00
04318            -160.00      960.00
04319            -160.00      880.00
04320            -152.00      880.00
04321            -136.00      800.00
04322            -136.00      800.00
04323            -128.00      720.00
04324            -120.00      720.00
04325            -120.00      720.00
04326            -128.00      560.00
04327            -120.00      640.00
04328            -104.00      560.00
04329            -104.00      480.00
04330            -104.00      560.00
04331            -104.00      480.00
04332             -96.00      400.00
04333             -88.00      400.00
04334             -88.00      320.00
04335             -72.00      240.00
04336             -72.00      240.00
04337             -72.00      240.00
04338             -72.00      160.00
04339             -64.00      160.00
04340             -56.00       80.00
04341             -56.00       80.00
04342             -40.00        0.00
04343             -32.00        0.00
04344             -24.00      -80.00
04345             -16.00      -80.00
04346              -8.00     -160.00
04347              -8.00     -240.00
04348              -8.00     -160.00
04349              56.00     -240.00
04350             272.00     -320.00
04351              56.00     -400.00
04352            -328.00     -240.00
04353            -216.00     -400.00
04354             240.00     -480.00
04355             256.00     -480.00
04356            -296.00     -480.00
04357            -328.00     -640.00
04358             152.00     -720.00
04359             264.00     -560.00
04360            -160.00     -720.00
04361            -184.00     -800.00
04362             232.00     -800.00
04363             232.00     -720.00
04364            -120.00     -880.00
04365             -96.00    -1040.00
04366             184.00     -880.00
04367             104.00     -880.00
04368             -40.00    -1040.00
04369              64.00    -1120.00
04370             128.00    -1040.00
04371               0.00    -1040.00
04372              40.00    -1200.00
04373             176.00    -1200.00
04374              88.00    -1120.00
04375             -24.00    -1200.00
04376             120.00    -1280.00
04377             200.00    -1200.00
04378              32.00    -1280.00
04379               0.00    -1440.00
04380             128.00    -1440.00
04381             152.00    -1360.00
04382              48.00    -1440.00
04383              64.00    -1600.00
04384             192.00    -1520.00
04385             168.00    -1520.00
04386              88.00    -1680.00
04387              88.00    -1680.00
04388             128.00    -1520.00
04389             104.00    -1680.00
04390             128.00    -1760.00
04391             184.00    -1680.00
04392             128.00    -1680.00
04393              72.00    -1760.00
04394             136.00    -1760.00
04395             224.00    -1840.00
04396             192.00    -1840.00
04397             152.00    -1840.00
04398             152.00    -1840.00
04399             120.00    -1840.00
04400             104.00    -1840.00
04401             168.00    -1920.00
04402             224.00    -2000.00
04403             200.00    -2000.00
04404             168.00    -1920.00
04405             168.00    -2000.00
04406             192.00    -2000.00
04407             200.00    -2000.00
04408             200.00    -2000.00
04409             184.00    -2080.00
04410             184.00    -2000.00
04411             184.00    -2080.00
04412             208.00    -2000.00
04413             248.00    -2080.00
04414             248.00    -2080.00
04415             216.00    -2080.00
04416             192.00    -2160.00
04417             200.00    -2160.00
04418             216.00    -2080.00
04419             232.00    -2080.00
04420             264.00    -2160.00
04421             264.00    -2080.00
04422             248.00    -2080.00
04423             224.00    -2160.00
04424             232.00    -2160.00
04425             224.00    -2080.00
04426             224.00    -2080.00
04427             256.00    -2160.00
04428             280.00    -2160.00
04429             280.00    -2160.00
04430             280.00    -2160.00
04431             264.00    -2080.00
04432             248.00    -2080.00
04433             248.00    -2080.00
04434             280.00    -2080.00
04435             296.00    -2080.00
04436             288.00    -2080.00
04437             280.00    -2000.00
04438             256.00    -2080.00
04439             256.00    -2000.00
04440             264.00    -2080.00
04441             296.00    -2080.00
04442             312.00    -2000.00
04443             296.00    -2000.00
04444             264.00    -2000.00
04445             256.00    -2000.00
04446             264.00    -1920.00
04447             288.00    -2000.00
04448             296.00    -2000.00
04449             312.00    -1920.00
04450             280.00    -1840.00
04451             264.00    -1920.00
04452             256.00    -1840.00
04453             256.00    -1840.00
04454             264.00    -1760.00
04455             280.00    -1760.00
04456             280.00    -1760.00
04457             264.00    -1760.00
04458             256.00    -1760.00
04459             248.00    -1680.00
04460             248.00    -1680.00
04461             248.00    -1680.00
04462             256.00    -1680.00
04463             256.00    -1520.00
04464             248.00    -1600.00
04465             224.00    -1520.00
04466             224.00    -1520.00
04467             224.00    -1440.00
04468             216.00    -1440.00
04469             224.00    -1440.00
04470             232.00    -1360.00
04471             232.00    -1360.00
04472             216.00    -1360.00
04473             200.00    -1280.00
04474             192.00    -1280.00
04475             168.00    -1200.00
04476             192.00    -1200.00
04477             192.00    -1200.00
04478             192.00    -1120.00
04479             184.00    -1120.00
04480             160.00    -1040.00
04481             160.00    -1040.00
04482             160.00    -1040.00
04483             160.00     -960.00
04484             160.00     -960.00
04485             160.00     -880.00
04486             152.00     -880.00
04487             128.00     -800.00
04488             128.00     -800.00
04489             128.00     -720.00
04490             128.00     -720.00
04491             120.00     -720.00
04492             128.00     -640.00
04493             128.00     -640.00
04494             104.00     -480.00
04495             104.00     -560.00
04496              96.00     -480.00
04497              88.00     -480.00
04498              88.00     -320.00
04499              88.00     -320.00
04500              96.00     -320.00
04501              96.00     -240.00
04502              88.00     -240.00
04503              72.00     -160.00
04504              56.00     -160.00
04505              64.00     -160.00
04506              64.00      -80.00
04507              64.00      -80.00
04508              64.00       80.00
04509              64.00       80.00
04510              64.00       80.00
04511              56.00       80.00
04512              56.00      160.00
04513              56.00      240.00
04514              56.00      240.00
04515              96.00      240.00
04516             296.00      400.00
04517             120.00      400.00
04518            -264.00      400.00
04519            -168.00      400.00
04520             272.00      480.00
04521             144.00      640.00
04522            -392.00      480.00
04523            -296.00      480.00
04524             288.00      720.00
04525             200.00      800.00
04526            -344.00      560.00
04527            -168.00      640.00
04528             344.00      880.00
04529              88.00      880.00
04530            -344.00      720.00
04531             -72.00      880.00
04532             264.00     1120.00
04533             -80.00      960.00
04534            -296.00      880.00
04535              40.00     1120.00
04536             152.00     1200.00
04537            -184.00     1120.00
04538            -184.00     1120.00
04539              88.00     1360.00
04540             -32.00     1360.00
04541            -256.00     1200.00
04542             -64.00     1360.00
04543              80.00     1360.00
04544            -136.00     1440.00
04545            -200.00     1360.00
04546               0.00     1520.00
04547             -40.00     1520.00
04548            -200.00     1440.00
04549            -136.00     1520.00
04550             -32.00     1680.00
04551            -104.00     1680.00
04552            -168.00     1520.00
04553            -104.00     1680.00
04554             -72.00     1680.00
04555            -152.00     1680.00
04556            -168.00     1680.00
04557            -104.00     1760.00
04558            -104.00     1760.00
04559            -176.00     1760.00
04560            -184.00     1840.00
04561            -136.00     1840.00
04562            -152.00     1840.00
04563            -168.00     1840.00
04564            -136.00     1920.00
04565            -136.00     1840.00
04566            -184.00     2000.00
04567            -168.00     1920.00
04568            -168.00     2000.00
04569            -192.00     2000.00
04570            -200.00     2000.00
04571            -192.00     2000.00
04572            -184.00     2000.00
04573            -168.00     2080.00
04574            -192.00     2080.00
04575            -192.00     2080.00
04576            -192.00     2080.00
04577            -192.00     2160.00
04578            -216.00     2080.00
04579            -200.00     2240.00
04580            -216.00     2160.00
04581            -232.00     2080.00
04582            -216.00     2160.00
04583            -216.00     2160.00
04584            -232.00     2240.00
04585            -248.00     2160.00
04586            -224.00     2240.00
04587            -224.00     2240.00
04588            -248.00     2160.00
04589            -240.00     2240.00
04590            -232.00     2240.00
04591            -256.00     2240.00
04592            -264.00     2160.00
04593            -256.00     2240.00
04594            -264.00     2240.00
04595            -272.00     2160.00
04596            -256.00     2240.00
04597            -256.00     2160.00
04598            -264.00     2240.00
04599            -264.00     2080.00
04600            -256.00     2160.00
04601            -264.00     2240.00
04602            -288.00     2080.00
04603            -288.00     2160.00
04604            -288.00     2160.00
04605            -288.00     2080.00
04606            -296.00     2080.00
04607            -296.00     2080.00
04608            -296.00     2080.00
04609            -288.00     2080.00
04610            -280.00     2080.00
04611            -280.00     2000.00
04612            -288.00     2000.00
04613            -288.00     2000.00
04614            -288.00     2000.00
04615            -296.00     2000.00
04616            -296.00     2000.00
04617            -288.00     2000.00
04618            -288.00     1840.00
04619            -280.00     1840.00
04620            -280.00     1840.00
04621            -272.00     1840.00
04622            -280.00     1760.00
04623            -264.00     1760.00
04624            -264.00     1760.00
04625            -264.00     1680.00
04626            -256.00     1760.00
04627            -256.00     1680.00
04628            -256.00     1680.00
04629            -248.00     1600.00
04630            -256.00     1680.00
04631            -256.00     1600.00
04632            -240.00     1600.00
04633            -232.00     1520.00
04634            -224.00     1520.00
04635            -232.00     1440.00
04636            -224.00     1520.00
04637            -224.00     1440.00
04638            -216.00     1360.00
04639            -208.00     1360.00
04640            -216.00     1360.00
04641            -216.00     1360.00
04642            -200.00     1360.00
04643            -192.00     1280.00
04644            -184.00     1200.00
04645            -184.00     1200.00
04646            -168.00     1120.00
04647            -160.00     1120.00
04648            -160.00     1040.00
04649            -184.00     1040.00
04650            -184.00     1040.00
04651            -184.00      960.00
04652            -168.00      880.00
04653            -152.00      880.00
04654            -136.00      800.00
04655            -128.00      800.00
04656            -128.00      720.00
04657            -128.00      720.00
04658            -120.00      720.00
04659            -128.00      640.00
04660            -128.00      560.00
04661            -112.00      560.00
04662            -104.00      560.00
04663            -104.00      400.00
04664             -96.00      480.00
04665             -88.00      480.00
04666             -88.00      400.00
04667             -72.00      320.00
04668             -72.00      320.00
04669             -72.00      240.00
04670             -72.00      240.00
04671             -88.00      240.00
04672             -88.00      160.00
04673             -64.00       80.00
04674             -56.00       80.00
04675             -40.00       80.00
04676             -32.00      -80.00
04677             -16.00      -80.00
04678              -8.00      -80.00
04679              -8.00     -160.00
04680               0.00     -160.00
04681              -8.00     -240.00
04682              24.00     -240.00
04683             232.00     -320.00
04684             152.00     -400.00
04685            -288.00     -320.00
04686            -280.00     -400.00
04687             152.00     -480.00
04688             328.00     -480.00
04689            -216.00     -560.00
04690            -376.00     -560.00
04691              56.00     -720.00
04692             320.00     -560.00
04693             -80.00     -640.00
04694            -248.00     -800.00
04695             152.00     -800.00
04696             280.00     -720.00
04697             -64.00     -800.00
04698            -136.00    -1040.00
04699             152.00     -880.00
04700             136.00     -880.00
04701             -40.00     -960.00
04702              32.00    -1120.00
04703             144.00    -1040.00
04704              24.00    -1040.00
04705               0.00    -1200.00
04706             160.00    -1200.00
04707             120.00    -1120.00
04708             -24.00    -1200.00
04709              72.00    -1360.00
04710             200.00    -1200.00
04711              72.00    -1200.00
04712               0.00    -1440.00
04713             128.00    -1360.00
04714             176.00    -1360.00
04715              64.00    -1440.00
04716              32.00    -1520.00
04717             136.00    -1440.00
04718             160.00    -1440.00
04719              88.00    -1600.00
04720              96.00    -1680.00
04721             152.00    -1520.00
04722             128.00    -1680.00
04723             104.00    -1760.00
04724             136.00    -1680.00
04725             152.00    -1680.00
04726             120.00    -1760.00
04727             128.00    -1760.00
04728             168.00    -1760.00
04729             152.00    -1840.00
04730             136.00    -1840.00
04731             168.00    -1840.00
04732             184.00    -1840.00
04733             152.00    -1840.00
04734             168.00    -1840.00
04735             192.00    -1920.00
04736             184.00    -1920.00
04737             176.00    -2000.00
04738             184.00    -2000.00
04739             184.00    -2000.00
04740             168.00    -2000.00
04741             184.00    -2000.00
04742             200.00    -2000.00
04743             216.00    -2000.00
04744             216.00    -2000.00
04745             200.00    -2080.00
04746             200.00    -2080.00
04747             216.00    -2000.00
04748             200.00    -2160.00
04749             200.00    -2080.00
04750             232.00    -2080.00
04751             248.00    -2160.00
04752             232.00    -2160.00
04753             232.00    -2160.00
04754             232.00    -2080.00
04755             216.00    -2160.00
04756             224.00    -2160.00
04757             272.00    -2160.00
04758             280.00    -2160.00
04759             256.00    -2160.00
04760             248.00    -2080.00
04761             224.00    -2160.00
04762             248.00    -2080.00
04763             256.00    -2160.00
04764             296.00    -2160.00
04765             288.00    -2160.00
04766             272.00    -2080.00
04767             264.00    -2080.00
04768             264.00    -2080.00
04769             264.00    -2080.00
04770             280.00    -2080.00
04771             288.00    -2080.00
04772             280.00    -2080.00
04773             296.00    -2080.00
04774             288.00    -2000.00
04775             288.00    -2080.00
04776             280.00    -2000.00
04777             256.00    -2000.00
04778             248.00    -2000.00
04779             248.00    -2000.00
04780             288.00    -1920.00
04781             320.00    -1920.00
04782             328.00    -1840.00
04783             304.00    -1920.00
04784             280.00    -1840.00
04785             256.00    -1840.00
04786             232.00    -1840.00
04787             248.00    -1840.00
04788             256.00    -1840.00
04789             280.00    -1760.00
04790             280.00    -1760.00
04791             280.00    -1680.00
04792             280.00    -1760.00
04793             256.00    -1680.00
04794             248.00    -1680.00
04795             240.00    -1680.00
04796             232.00    -1680.00
04797             224.00    -1520.00
04798             216.00    -1520.00
04799             232.00    -1520.00
04800             248.00    -1520.00
04801             248.00    -1440.00
04802             224.00    -1440.00
04803             224.00    -1360.00
04804             208.00    -1360.00
04805             192.00    -1360.00
04806             192.00    -1280.00
04807             192.00    -1280.00
04808             200.00    -1200.00
04809             192.00    -1200.00
04810             184.00    -1200.00
04811             176.00    -1120.00
04812             168.00    -1120.00
04813             176.00    -1120.00
04814             192.00    -1040.00
04815             184.00    -1040.00
04816             168.00     -960.00
04817             144.00     -880.00
04818             128.00     -880.00
04819             128.00     -880.00
04820             128.00     -800.00
04821             136.00     -800.00
04822             128.00     -720.00
04823             128.00     -720.00
04824             128.00     -560.00
04825             128.00     -640.00
04826             120.00     -560.00
04827             120.00     -480.00
04828             120.00     -480.00
04829              96.00     -480.00
04830              88.00     -480.00
04831              88.00     -320.00
04832              96.00     -320.00
04833              88.00     -320.00
04834              80.00     -240.00
04835              72.00     -240.00
04836              64.00     -240.00
04837              64.00      -80.00
04838              72.00      -80.00
04839              88.00      -80.00
04840              72.00        0.00
04841              56.00       80.00
04842              56.00       80.00
04843              64.00       80.00
04844              64.00      160.00
04845              64.00      160.00
04846              72.00      160.00
04847              72.00      240.00
04848              88.00      320.00
04849             248.00      400.00
04850             192.00      400.00
04851            -240.00      400.00
04852            -232.00      400.00
04853             184.00      480.00
04854             264.00      640.00
04855            -320.00      560.00
04856            -392.00      480.00
04857             184.00      640.00
04858             312.00      800.00
04859            -240.00      560.00
04860            -256.00      560.00
04861             280.00      880.00
04862             192.00      880.00
04863            -296.00      800.00
04864            -184.00      880.00
04865             256.00     1040.00
04866              24.00     1040.00
04867            -296.00      880.00
04868             -64.00     1040.00
04869             160.00     1200.00
04870            -128.00     1120.00
04871            -224.00     1040.00
04872              56.00     1200.00
04873              40.00     1360.00
04874            -224.00     1280.00
04875            -120.00     1200.00
04876              72.00     1360.00
04877             -88.00     1440.00
04878            -232.00     1360.00
04879             -48.00     1440.00
04880               8.00     1520.00
04881            -152.00     1440.00
04882            -168.00     1440.00
04883             -40.00     1680.00
04884             -88.00     1680.00
04885            -192.00     1520.00
04886            -152.00     1680.00
04887             -72.00     1760.00
04888            -104.00     1680.00
04889            -160.00     1680.00
04890            -112.00     1760.00
04891             -96.00     1760.00
04892            -168.00     1760.00
04893            -192.00     1840.00
04894            -128.00     1840.00
04895            -136.00     1840.00
04896            -176.00     1920.00
04897            -152.00     1840.00
04898            -120.00     1920.00
04899            -152.00     1920.00
04900            -168.00     2000.00
04901            -184.00     2000.00
04902            -216.00     2000.00
04903            -224.00     2000.00
04904            -184.00     2000.00
04905            -136.00     2000.00
04906            -136.00     2080.00
04907            -184.00     2000.00
04908            -216.00     2080.00
04909            -224.00     2160.00
04910            -216.00     2160.00
04911            -200.00     2160.00
04912            -200.00     2080.00
04913            -200.00     2160.00
04914            -216.00     2240.00
04915            -200.00     2160.00
04916            -224.00     2240.00
04917            -248.00     2160.00
04918            -256.00     2160.00
04919            -224.00     2240.00
04920            -224.00     2160.00
04921            -232.00     2240.00
04922            -232.00     2160.00
04923            -232.00     2240.00
04924            -256.00     2240.00
04925            -280.00     2160.00
04926            -264.00     2240.00
04927            -256.00     2240.00
04928            -256.00     2160.00
04929            -256.00     2240.00
04930            -248.00     2160.00
04931            -272.00     2240.00
04932            -296.00     2160.00
04933            -288.00     2240.00
04934            -280.00     2160.00
04935            -280.00     2080.00
04936            -280.00     2160.00
04937            -272.00     2080.00
04938            -280.00     2160.00
04939            -296.00     2080.00
04940            -296.00     2240.00
04941            -288.00     2080.00
04942            -280.00     2080.00
04943            -264.00     2000.00
04944            -264.00     2080.00
04945            -280.00     2080.00
04946            -288.00     2000.00
04947            -288.00     2000.00
04948            -296.00     2000.00
04949            -296.00     1920.00
04950            -288.00     1920.00
04951            -280.00     1840.00
04952            -264.00     1840.00
04953            -280.00     1840.00
04954            -280.00     1840.00
04955            -288.00     1840.00
04956            -280.00     1760.00
04957            -264.00     1760.00
04958            -264.00     1840.00
04959            -264.00     1760.00
04960            -256.00     1680.00
04961            -240.00     1680.00
04962            -232.00     1760.00
04963            -248.00     1680.00
04964            -256.00     1600.00
04965            -248.00     1600.00
04966            -240.00     1600.00
04967            -224.00     1520.00
04968            -216.00     1520.00
04969            -216.00     1440.00
04970            -216.00     1440.00
04971            -216.00     1360.00
04972            -224.00     1440.00
04973            -224.00     1360.00
04974            -200.00     1280.00
04975            -200.00     1280.00
04976            -192.00     1280.00
04977            -200.00     1200.00
04978            -192.00     1200.00
04979            -184.00     1200.00
04980            -160.00     1120.00
04981            -144.00     1120.00
04982            -160.00     1040.00
04983            -184.00      960.00
04984            -168.00      880.00
04985            -168.00      960.00
04986            -160.00      880.00
04987            -136.00      800.00
04988            -128.00      800.00
04989            -136.00      800.00
04990            -128.00      720.00
04991            -112.00      720.00
04992            -104.00      640.00
04993            -120.00      640.00
04994            -120.00      560.00
04995            -128.00      560.00
04996            -144.00      480.00
04997            -120.00      480.00
04998             -72.00      400.00
04999             -56.00      400.00
05000             -72.00      400.00
