Unit:(mV)
                     CH1         CH2
Frequency              ? 298.899 kHz
00001               0.00    -1000.00
00002             100.00    -1200.00
00003             500.00    -1200.00
00004             940.00    -1800.00
00005             520.00    -2000.00
00006            -480.00    -2000.00
00007           -1400.00    -2000.00
00008           -1280.00    -1800.00
00009             440.00    -2200.00
00010             700.00    -2600.00
00011            -140.00    -2200.00
00012             400.00    -3000.00
00013             400.00    -2600.00
00014             -20.00    -2400.00
00015             200.00    -3400.00
00016            -100.00    -3200.00
00017             140.00    -3000.00
00018             500.00    -3600.00
00019            -160.00    -3400.00
00020            -100.00    -3800.00
00021             160.00    -3600.00
00022             -40.00    -3800.00
00023             220.00    -4200.00
00024             260.00    -4200.00
00025               0.00    -4400.00
00026              80.00    -4600.00
00027             260.00    -4400.00
00028             240.00    -4600.00
00029               0.00    -4800.00
00030             180.00    -5000.00
00031             300.00    -4800.00
00032             140.00    -5200.00
00033             120.00    -5600.00
00034             180.00    -5200.00
00035             260.00    -5400.00
00036             220.00    -5800.00
00037             220.00    -5400.00
00038             260.00    -5800.00
00039             180.00    -5800.00
00040             240.00    -6000.00
00041             320.00    -6000.00
00042             220.00    -6000.00
00043             200.00    -6200.00
00044             300.00    -6200.00
00045             320.00    -6400.00
00046             300.00    -6400.00
00047             320.00    -6600.00
00048             380.00    -6600.00
00049             300.00    -6600.00
00050             320.00    -6800.00
00051             400.00    -6800.00
00052             380.00    -6800.00
00053             400.00    -7000.00
00054             420.00    -7000.00
00055             400.00    -7000.00
00056             380.00    -7000.00
00057             480.00    -7000.00
00058             540.00    -7200.00
00059             480.00    -7200.00
00060             480.00    -7400.00
00061             540.00    -7200.00
00062             520.00    -7200.00
00063             500.00    -7600.00
00064             600.00    -7400.00
00065             620.00    -7400.00
00066             620.00    -7400.00
00067             640.00    -7600.00
00068             660.00    -7600.00
00069             640.00    -7600.00
00070             700.00    -7600.00
00071             780.00    -7800.00
00072             780.00    -7200.00
00073             780.00    -7600.00
00074             820.00    -7600.00
00075             860.00    -7600.00
00076             860.00    -7600.00
00077             940.00    -7600.00
00078             980.00    -7600.00
00079            1020.00    -7600.00
00080            1020.00    -7800.00
00081            1060.00    -7600.00
00082            1100.00    -7600.00
00083            1120.00    -7600.00
00084            1180.00    -7400.00
00085            1220.00    -7600.00
00086            1220.00    -7600.00
00087            1240.00    -7600.00
00088            1260.00    -7400.00
00089            1260.00    -7200.00
00090            1260.00    -7400.00
00091            1280.00    -7200.00
00092            1300.00    -7200.00
00093            1280.00    -7200.00
00094            1260.00    -7200.00
00095            1260.00    -7200.00
00096            1220.00    -7200.00
00097            1220.00    -7000.00
00098            1220.00    -7000.00
00099            1200.00    -7000.00
00100            1160.00    -7000.00
00101            1120.00    -6800.00
00102            1100.00    -6800.00
00103            1040.00    -6600.00
00104            1040.00    -6800.00
00105            1020.00    -6600.00
00106             960.00    -6600.00
00107             920.00    -6600.00
00108             900.00    -6200.00
00109             880.00    -6200.00
00110             860.00    -6200.00
00111             820.00    -6200.00
00112             800.00    -6000.00
00113             740.00    -6000.00
00114             720.00    -5800.00
00115             660.00    -5800.00
00116             660.00    -5600.00
00117             620.00    -5400.00
00118             620.00    -5400.00
00119             580.00    -5400.00
00120             540.00    -5200.00
00121             520.00    -5000.00
00122             480.00    -5000.00
00123             480.00    -5000.00
00124             460.00    -4800.00
00125             460.00    -4600.00
00126             420.00    -4600.00
00127             400.00    -4400.00
00128             380.00    -4400.00
00129             340.00    -4200.00
00130             340.00    -4200.00
00131             340.00    -3800.00
00132             320.00    -3800.00
00133             320.00    -3600.00
00134             260.00    -3600.00
00135             260.00    -3400.00
00136             240.00    -3400.00
00137             240.00    -3200.00
00138             240.00    -3000.00
00139             240.00    -2800.00
00140             220.00    -2800.00
00141             180.00    -2600.00
00142             180.00    -2600.00
00143             180.00    -2200.00
00144             160.00    -2200.00
00145             200.00    -2200.00
00146             160.00    -2000.00
00147             160.00    -1800.00
00148             140.00    -1800.00
00149             140.00    -1400.00
00150             140.00    -1400.00
00151             140.00    -1200.00
00152             120.00    -1000.00
00153             100.00     -800.00
00154              80.00     -800.00
00155              80.00     -600.00
00156              60.00     -400.00
00157              80.00     -400.00
00158              80.00     -200.00
00159              80.00     -200.00
00160              60.00        0.00
00161              40.00      200.00
00162              80.00      200.00
00163             140.00      400.00
00164             160.00      400.00
00165             140.00      600.00
00166             100.00      800.00
00167              60.00     1000.00
00168              60.00     1000.00
00169             140.00     1200.00
00170             700.00     1400.00
00171            1060.00     1600.00
00172             320.00     1800.00
00173           -1100.00     1600.00
00174           -2080.00     1600.00
00175            -620.00     2200.00
00176            1180.00     2400.00
00177              80.00     2200.00
00178            -140.00     2600.00
00179             720.00     2200.00
00180            -100.00     3000.00
00181            -380.00     3200.00
00182               0.00     2600.00
00183            -100.00     3400.00
00184             380.00     3400.00
00185            -160.00     3000.00
00186            -480.00     4000.00
00187             260.00     3800.00
00188            -380.00     3600.00
00189            -260.00     4000.00
00190             340.00     3800.00
00191            -300.00     4200.00
00192            -220.00     4400.00
00193               0.00     4200.00
00194            -100.00     5000.00
00195            -140.00     4600.00
00196            -260.00     4600.00
00197             -20.00     5200.00
00198            -160.00     5000.00
00199            -260.00     5200.00
00200            -140.00     5400.00
00201            -220.00     5600.00
00202            -100.00     5600.00
00203            -180.00     5400.00
00204            -180.00     5800.00
00205            -220.00     5800.00
00206            -320.00     5800.00
00207            -160.00     6000.00
00208            -240.00     5800.00
00209            -300.00     6200.00
00210            -260.00     6200.00
00211            -260.00     6200.00
00212            -300.00     6200.00
00213            -280.00     6200.00
00214            -240.00     6600.00
00215            -340.00     6600.00
00216            -400.00     6600.00
00217            -340.00     6600.00
00218            -320.00     6800.00
00219            -380.00     6800.00
00220            -340.00     7000.00
00221            -400.00     7000.00
00222            -460.00     7000.00
00223            -420.00     7000.00
00224            -420.00     7200.00
00225            -460.00     7200.00
00226            -480.00     7400.00
00227            -480.00     7400.00
00228            -500.00     7400.00
00229            -560.00     7400.00
00230            -560.00     7400.00
00231            -560.00     7400.00
00232            -580.00     7400.00
00233            -580.00     7400.00
00234            -600.00     7600.00
00235            -700.00     7400.00
00236            -720.00     7600.00
00237            -700.00     7600.00
00238            -700.00     7600.00
00239            -780.00     7600.00
00240            -780.00     7600.00
00241            -800.00     7800.00
00242            -880.00     7600.00
00243            -880.00     7600.00
00244            -880.00     7600.00
00245            -960.00     7600.00
00246            -980.00     7800.00
00247           -1000.00     7600.00
00248           -1040.00     7600.00
00249           -1120.00     7400.00
00250           -1140.00     7600.00
00251           -1140.00     7600.00
00252           -1180.00     7600.00
00253           -1200.00     7600.00
00254           -1200.00     7400.00
00255           -1220.00     7400.00
00256           -1260.00     7400.00
00257           -1280.00     7400.00
00258           -1280.00     7400.00
00259           -1280.00     7400.00
00260           -1260.00     7400.00
00261           -1260.00     7200.00
00262           -1240.00     7200.00
00263           -1220.00     7200.00
00264           -1220.00     7000.00
00265           -1200.00     7000.00
00266           -1180.00     7000.00
00267           -1140.00     6800.00
00268           -1140.00     6800.00
00269           -1120.00     6800.00
00270           -1040.00     6800.00
00271           -1020.00     6800.00
00272           -1000.00     6600.00
00273            -980.00     6600.00
00274            -960.00     6600.00
00275            -940.00     6600.00
00276            -880.00     6200.00
00277            -820.00     6200.00
00278            -800.00     6000.00
00279            -780.00     6000.00
00280            -780.00     6000.00
00281            -740.00     6000.00
00282            -740.00     5800.00
00283            -660.00     5800.00
00284            -620.00     5800.00
00285            -580.00     5400.00
00286            -600.00     5400.00
00287            -560.00     5400.00
00288            -540.00     5200.00
00289            -500.00     5000.00
00290            -480.00     4800.00
00291            -460.00     5000.00
00292            -420.00     4600.00
00293            -420.00     4600.00
00294            -400.00     4400.00
00295            -400.00     4600.00
00296            -400.00     4200.00
00297            -340.00     4000.00
00298            -320.00     4200.00
00299            -320.00     3800.00
00300            -320.00     3800.00
00301            -320.00     3600.00
00302            -300.00     3400.00
00303            -260.00     3400.00
00304            -240.00     3400.00
00305            -240.00     3000.00
00306            -240.00     3000.00
00307            -240.00     2800.00
00308            -220.00     2600.00
00309            -180.00     2600.00
00310            -220.00     2400.00
00311            -180.00     2200.00
00312            -160.00     2000.00
00313            -160.00     2000.00
00314            -180.00     1800.00
00315            -160.00     1800.00
00316            -140.00     1800.00
00317            -120.00     1400.00
00318            -100.00     1400.00
00319            -100.00     1000.00
00320            -100.00     1000.00
00321            -100.00     1000.00
00322            -140.00      600.00
00323             -80.00      600.00
00324            -100.00      400.00
00325             -80.00      400.00
00326             -60.00      200.00
00327             -60.00      200.00
00328             -60.00        0.00
00329             -20.00     -200.00
00330              60.00     -400.00
00331             100.00     -400.00
00332              60.00     -600.00
00333              20.00     -600.00
00334              20.00    -1000.00
00335               0.00     -800.00
00336              40.00    -1200.00
00337             220.00    -1200.00
00338             740.00    -1400.00
00339             880.00    -1800.00
00340             100.00    -2000.00
00341            -900.00    -1800.00
00342           -1600.00    -2000.00
00343            -580.00    -1800.00
00344             860.00    -2400.00
00345             180.00    -2200.00
00346              20.00    -2400.00
00347             580.00    -3000.00
00348             100.00    -2600.00
00349              80.00    -2800.00
00350             140.00    -3400.00
00351            -160.00    -3000.00
00352             420.00    -3000.00
00353             300.00    -3600.00
00354            -260.00    -3600.00
00355             100.00    -3800.00
00356              20.00    -3600.00
00357               0.00    -4000.00
00358             260.00    -4200.00
00359              60.00    -3800.00
00360             -80.00    -4600.00
00361             180.00    -4400.00
00362             380.00    -4400.00
00363             240.00    -4600.00
00364             160.00    -5000.00
00365             320.00    -5000.00
00366             180.00    -5000.00
00367             -20.00    -5400.00
00368               0.00    -5400.00
00369             140.00    -5000.00
00370             300.00    -5400.00
00371             220.00    -5600.00
00372             320.00    -5600.00
00373             320.00    -5800.00
00374             240.00    -6000.00
00375             340.00    -6000.00
00376             300.00    -6000.00
00377             160.00    -6200.00
00378             160.00    -6200.00
00379             240.00    -6200.00
00380             260.00    -6200.00
00381             300.00    -6600.00
00382             400.00    -6600.00
00383             400.00    -6600.00
00384             340.00    -6600.00
00385             380.00    -6800.00
00386             400.00    -6800.00
00387             360.00    -7000.00
00388             340.00    -6800.00
00389             380.00    -7000.00
00390             340.00    -7000.00
00391             380.00    -7000.00
00392             540.00    -7000.00
00393             560.00    -7200.00
00394             540.00    -7400.00
00395             540.00    -7400.00
00396             540.00    -7200.00
00397             480.00    -7400.00
00398             480.00    -7600.00
00399             560.00    -7400.00
00400             600.00    -7600.00
00401             640.00    -7400.00
00402             700.00    -7400.00
00403             720.00    -7600.00
00404             700.00    -7400.00
00405             760.00    -7600.00
00406             780.00    -7600.00
00407             740.00    -7400.00
00408             760.00    -7600.00
00409             800.00    -7600.00
00410             860.00    -7600.00
00411             900.00    -7600.00
00412             960.00    -7800.00
00413            1020.00    -7600.00
00414            1020.00    -7600.00
00415            1040.00    -7600.00
00416            1060.00    -7600.00
00417            1100.00    -7600.00
00418            1120.00    -7600.00
00419            1200.00    -7600.00
00420            1220.00    -7400.00
00421            1220.00    -7600.00
00422            1260.00    -7200.00
00423            1260.00    -7400.00
00424            1260.00    -7200.00
00425            1280.00    -7400.00
00426            1280.00    -7200.00
00427            1280.00    -7400.00
00428            1260.00    -7200.00
00429            1260.00    -7200.00
00430            1220.00    -7000.00
00431            1220.00    -7000.00
00432            1200.00    -7000.00
00433            1200.00    -7000.00
00434            1180.00    -7000.00
00435            1120.00    -6800.00
00436            1120.00    -6800.00
00437            1060.00    -6800.00
00438            1040.00    -6600.00
00439            1040.00    -6600.00
00440            1020.00    -6600.00
00441             960.00    -6600.00
00442             940.00    -6200.00
00443             880.00    -6400.00
00444             860.00    -6200.00
00445             840.00    -6200.00
00446             800.00    -6200.00
00447             780.00    -6000.00
00448             740.00    -6000.00
00449             700.00    -5800.00
00450             640.00    -5600.00
00451             640.00    -5800.00
00452             620.00    -5400.00
00453             620.00    -5400.00
00454             580.00    -5400.00
00455             540.00    -5200.00
00456             500.00    -5000.00
00457             480.00    -4800.00
00458             460.00    -5000.00
00459             460.00    -4800.00
00460             460.00    -4600.00
00461             400.00    -4600.00
00462             380.00    -4400.00
00463             360.00    -4400.00
00464             340.00    -4200.00
00465             340.00    -4200.00
00466             340.00    -3800.00
00467             320.00    -3800.00
00468             300.00    -3800.00
00469             280.00    -3400.00
00470             260.00    -3400.00
00471             260.00    -3200.00
00472             240.00    -3200.00
00473             240.00    -3000.00
00474             220.00    -3000.00
00475             200.00    -2800.00
00476             220.00    -2600.00
00477             180.00    -2600.00
00478             180.00    -2400.00
00479             160.00    -2200.00
00480             180.00    -2000.00
00481             160.00    -2200.00
00482             140.00    -1800.00
00483             140.00    -1800.00
00484             140.00    -1400.00
00485             140.00    -1400.00
00486             140.00    -1200.00
00487             120.00    -1000.00
00488             100.00     -800.00
00489              80.00     -800.00
00490              80.00     -600.00
00491              80.00     -600.00
00492              60.00     -400.00
00493              80.00     -200.00
00494              80.00     -200.00
00495              60.00      200.00
00496              60.00      200.00
00497              80.00      400.00
00498             160.00      600.00
00499             160.00      600.00
00500             140.00      600.00
00501              80.00      600.00
00502              60.00     1000.00
00503              80.00     1000.00
00504             300.00     1400.00
00505            1020.00     1600.00
00506             880.00     1600.00
00507            -260.00     1800.00
00508           -1700.00     1400.00
00509           -1740.00     2000.00
00510             420.00     2600.00
00511             940.00     2200.00
00512            -320.00     2200.00
00513             320.00     2400.00
00514             540.00     2800.00
00515            -460.00     3200.00
00516            -120.00     2600.00
00517             -20.00     2800.00
00518              60.00     3800.00
00519             320.00     3000.00
00520            -480.00     3400.00
00521            -120.00     4200.00
00522             140.00     3800.00
00523            -540.00     3600.00
00524             140.00     4200.00
00525             140.00     4200.00
00526            -380.00     4400.00
00527             -20.00     4200.00
00528             -80.00     4400.00
00529             -80.00     4800.00
00530            -240.00     4400.00
00531            -180.00     5000.00
00532               0.00     5000.00
00533            -300.00     5000.00
00534            -200.00     5400.00
00535            -160.00     5200.00
00536            -180.00     5600.00
00537            -100.00     5400.00
00538            -220.00     5600.00
00539            -160.00     6000.00
00540            -280.00     5600.00
00541            -260.00     6000.00
00542            -180.00     6000.00
00543            -300.00     6000.00
00544            -260.00     6200.00
00545            -300.00     6000.00
00546            -320.00     6400.00
00547            -320.00     6200.00
00548            -240.00     6600.00
00549            -260.00     6600.00
00550            -380.00     6600.00
00551            -380.00     6800.00
00552            -340.00     6800.00
00553            -340.00     6800.00
00554            -380.00     6800.00
00555            -380.00     7000.00
00556            -460.00     7000.00
00557            -460.00     7000.00
00558            -400.00     7000.00
00559            -420.00     7200.00
00560            -460.00     7200.00
00561            -480.00     7400.00
00562            -480.00     7400.00
00563            -540.00     7400.00
00564            -560.00     7400.00
00565            -540.00     7400.00
00566            -560.00     7400.00
00567            -580.00     7600.00
00568            -580.00     7400.00
00569            -640.00     7400.00
00570            -700.00     7600.00
00571            -700.00     7600.00
00572            -660.00     7600.00
00573            -720.00     7600.00
00574            -780.00     7800.00
00575            -780.00     7800.00
00576            -820.00     7600.00
00577            -880.00     7600.00
00578            -880.00     7600.00
00579            -900.00     7800.00
00580            -960.00     7800.00
00581            -980.00     7600.00
00582           -1020.00     7800.00
00583           -1060.00     7600.00
00584           -1140.00     7600.00
00585           -1120.00     7600.00
00586           -1140.00     7600.00
00587           -1200.00     7600.00
00588           -1200.00     7600.00
00589           -1220.00     7600.00
00590           -1260.00     7600.00
00591           -1280.00     7400.00
00592           -1260.00     7400.00
00593           -1260.00     7400.00
00594           -1280.00     7400.00
00595           -1260.00     7400.00
00596           -1260.00     7200.00
00597           -1260.00     7000.00
00598           -1220.00     7200.00
00599           -1200.00     7000.00
00600           -1160.00     7200.00
00601           -1180.00     6800.00
00602           -1140.00     6800.00
00603           -1120.00     6800.00
00604           -1100.00     6800.00
00605           -1060.00     6800.00
00606           -1020.00     6600.00
00607            -980.00     6600.00
00608            -960.00     6200.00
00609            -960.00     6400.00
00610            -900.00     6400.00
00611            -880.00     6200.00
00612            -820.00     6200.00
00613            -800.00     6000.00
00614            -780.00     6000.00
00615            -740.00     5800.00
00616            -720.00     5800.00
00617            -700.00     5800.00
00618            -640.00     5800.00
00619            -620.00     5400.00
00620            -580.00     5400.00
00621            -580.00     5200.00
00622            -540.00     5200.00
00623            -540.00     5000.00
00624            -500.00     5000.00
00625            -480.00     5000.00
00626            -460.00     4600.00
00627            -420.00     4600.00
00628            -420.00     4400.00
00629            -400.00     4400.00
00630            -400.00     4200.00
00631            -380.00     4200.00
00632            -340.00     4200.00
00633            -320.00     4000.00
00634            -320.00     3800.00
00635            -300.00     3800.00
00636            -300.00     3600.00
00637            -280.00     3400.00
00638            -260.00     3400.00
00639            -260.00     3200.00
00640            -240.00     3000.00
00641            -220.00     2800.00
00642            -220.00     2800.00
00643            -180.00     2600.00
00644            -200.00     2600.00
00645            -180.00     2400.00
00646            -160.00     2200.00
00647            -160.00     2000.00
00648            -160.00     1800.00
00649            -160.00     2000.00
00650            -160.00     1800.00
00651            -100.00     1400.00
00652            -100.00     1400.00
00653            -120.00     1200.00
00654            -100.00     1200.00
00655            -100.00     1000.00
00656            -100.00     1000.00
00657            -100.00      600.00
00658             -80.00      600.00
00659             -80.00      400.00
00660             -80.00      200.00
00661             -60.00      200.00
00662             -60.00      200.00
00663             -60.00     -200.00
00664               0.00     -200.00
00665              60.00     -400.00
00666              80.00     -400.00
00667              60.00     -600.00
00668              20.00    -1000.00
00669               0.00    -1000.00
00670              20.00     -800.00
00671              80.00    -1000.00
00672             400.00    -1400.00
00673             920.00    -1800.00
00674             620.00    -1800.00
00675            -340.00    -1800.00
00676           -1300.00    -2000.00
00677           -1440.00    -1800.00
00678             220.00    -2200.00
00679             800.00    -2600.00
00680            -120.00    -2200.00
00681             300.00    -2800.00
00682             480.00    -2800.00
00683             -60.00    -2600.00
00684             180.00    -3000.00
00685             -40.00    -3400.00
00686              60.00    -3000.00
00687             540.00    -3400.00
00688             -60.00    -3600.00
00689            -160.00    -3600.00
00690             160.00    -3800.00
00691             -20.00    -3800.00
00692             180.00    -4200.00
00693             260.00    -4200.00
00694               0.00    -4200.00
00695              40.00    -4600.00
00696             260.00    -4400.00
00697             260.00    -4600.00
00698              60.00    -4800.00
00699             160.00    -5000.00
00700             300.00    -5000.00
00701             140.00    -5000.00
00702             140.00    -5400.00
00703             160.00    -5200.00
00704             260.00    -5200.00
00705             240.00    -5600.00
00706             200.00    -5400.00
00707             260.00    -5800.00
00708             220.00    -5800.00
00709             240.00    -6000.00
00710             320.00    -6000.00
00711             240.00    -6000.00
00712             200.00    -6200.00
00713             300.00    -6200.00
00714             340.00    -6200.00
00715             300.00    -6200.00
00716             320.00    -6400.00
00717             380.00    -6600.00
00718             320.00    -6600.00
00719             300.00    -6800.00
00720             380.00    -6800.00
00721             380.00    -6800.00
00722             380.00    -6800.00
00723             420.00    -7000.00
00724             400.00    -7000.00
00725             380.00    -7000.00
00726             460.00    -7200.00
00727             540.00    -7200.00
00728             500.00    -7400.00
00729             480.00    -7200.00
00730             540.00    -7200.00
00731             520.00    -7200.00
00732             520.00    -7400.00
00733             560.00    -7400.00
00734             620.00    -7200.00
00735             640.00    -7600.00
00736             640.00    -7600.00
00737             660.00    -7400.00
00738             640.00    -7600.00
00739             700.00    -7600.00
00740             740.00    -7600.00
00741             780.00    -7800.00
00742             780.00    -7800.00
00743             820.00    -7600.00
00744             860.00    -7600.00
00745             860.00    -7600.00
00746             900.00    -7600.00
00747             960.00    -7600.00
00748            1000.00    -7600.00
00749            1020.00    -7800.00
00750            1080.00    -7600.00
00751            1100.00    -7600.00
00752            1100.00    -7600.00
00753            1180.00    -7600.00
00754            1200.00    -7600.00
00755            1220.00    -7600.00
00756            1240.00    -7600.00
00757            1260.00    -7200.00
00758            1260.00    -7600.00
00759            1260.00    -7200.00
00760            1280.00    -7200.00
00761            1280.00    -7200.00
00762            1280.00    -7400.00
00763            1260.00    -7200.00
00764            1260.00    -7200.00
00765            1240.00    -7000.00
00766            1220.00    -7000.00
00767            1220.00    -7000.00
00768            1180.00    -7000.00
00769            1180.00    -6800.00
00770            1120.00    -7000.00
00771            1100.00    -6800.00
00772            1060.00    -6800.00
00773            1040.00    -6800.00
00774            1020.00    -6600.00
00775             960.00    -6600.00
00776             960.00    -6600.00
00777             900.00    -6200.00
00778             880.00    -6400.00
00779             860.00    -6200.00
00780             820.00    -6000.00
00781             800.00    -6000.00
00782             760.00    -5800.00
00783             720.00    -5800.00
00784             700.00    -5800.00
00785             640.00    -5800.00
00786             620.00    -5400.00
00787             620.00    -5400.00
00788             580.00    -5400.00
00789             540.00    -5200.00
00790             520.00    -5200.00
00791             500.00    -5000.00
00792             480.00    -5000.00
00793             460.00    -4800.00
00794             460.00    -4800.00
00795             420.00    -4600.00
00796             380.00    -4600.00
00797             380.00    -4400.00
00798             340.00    -4200.00
00799             340.00    -4200.00
00800             320.00    -4200.00
00801             320.00    -3800.00
00802             320.00    -3800.00
00803             260.00    -3600.00
00804             260.00    -3400.00
00805             260.00    -3400.00
00806             260.00    -3400.00
00807             240.00    -3200.00
00808             220.00    -3000.00
00809             220.00    -2800.00
00810             220.00    -2600.00
00811             180.00    -2600.00
00812             160.00    -2400.00
00813             180.00    -2200.00
00814             180.00    -2200.00
00815             160.00    -2200.00
00816             160.00    -1800.00
00817             140.00    -1800.00
00818             120.00    -1600.00
00819             120.00    -1400.00
00820             140.00    -1400.00
00821             140.00    -1200.00
00822             100.00    -1000.00
00823              80.00     -800.00
00824              80.00     -600.00
00825              80.00     -600.00
00826              80.00     -400.00
00827             100.00     -200.00
00828              60.00     -400.00
00829              60.00        0.00
00830             100.00      200.00
00831              80.00      200.00
00832             140.00      400.00
00833             160.00      600.00
00834             140.00      600.00
00835              80.00      800.00
00836              80.00      800.00
00837              80.00     1200.00
00838             140.00     1200.00
00839             600.00     1400.00
00840            1120.00     1800.00
00841             480.00     1800.00
00842            -900.00     1800.00
00843           -2060.00     1600.00
00844            -900.00     2200.00
00845            1100.00     2400.00
00846             260.00     2000.00
00847            -240.00     2600.00
00848             680.00     2400.00
00849              20.00     3000.00
00850            -420.00     3400.00
00851              20.00     2400.00
00852            -100.00     3400.00
00853             300.00     3600.00
00854             -20.00     2800.00
00855            -500.00     3800.00
00856             220.00     3800.00
00857            -240.00     3400.00
00858            -340.00     3800.00
00859             340.00     4000.00
00860            -180.00     4200.00
00861            -260.00     4400.00
00862             -20.00     4200.00
00863            -120.00     5000.00
00864            -100.00     4600.00
00865            -260.00     4400.00
00866             -20.00     5200.00
00867            -100.00     4800.00
00868            -300.00     5200.00
00869            -160.00     5200.00
00870            -220.00     5400.00
00871            -140.00     5600.00
00872            -180.00     5200.00
00873            -200.00     5800.00
00874            -220.00     5800.00
00875            -320.00     5600.00
00876            -160.00     6200.00
00877            -180.00     6000.00
00878            -300.00     6000.00
00879            -260.00     6200.00
00880            -300.00     6200.00
00881            -340.00     6200.00
00882            -300.00     6200.00
00883            -240.00     6600.00
00884            -320.00     6600.00
00885            -380.00     6600.00
00886            -340.00     6600.00
00887            -320.00     6800.00
00888            -340.00     6800.00
00889            -340.00     6800.00
00890            -400.00     7000.00
00891            -480.00     7000.00
00892            -420.00     7000.00
00893            -420.00     7200.00
00894            -460.00     7200.00
00895            -480.00     7000.00
00896            -480.00     7400.00
00897            -480.00     7400.00
00898            -540.00     7200.00
00899            -540.00     7400.00
00900            -560.00     7400.00
00901            -580.00     7400.00
00902            -580.00     7400.00
00903            -600.00     7600.00
00904            -660.00     7600.00
00905            -700.00     7600.00
00906            -660.00     7600.00
00907            -700.00     7600.00
00908            -740.00     7600.00
00909            -780.00     7800.00
00910            -800.00     7800.00
00911            -860.00     7600.00
00912            -900.00     7600.00
00913            -900.00     7800.00
00914            -960.00     7800.00
00915            -980.00     7800.00
00916           -1000.00     7600.00
00917           -1040.00     7600.00
00918           -1120.00     7600.00
00919           -1140.00     7600.00
00920           -1120.00     7600.00
00921           -1140.00     7600.00
00922           -1200.00     7600.00
00923           -1200.00     7400.00
00924           -1240.00     7600.00
00925           -1280.00     7400.00
00926           -1280.00     7400.00
00927           -1280.00     7400.00
00928           -1280.00     7400.00
00929           -1260.00     7400.00
00930           -1240.00     7000.00
00931           -1280.00     7000.00
00932           -1260.00     7200.00
00933           -1220.00     7000.00
00934           -1200.00     7000.00
00935           -1180.00     7000.00
00936           -1140.00     7000.00
00937           -1140.00     7000.00
00938           -1120.00     6800.00
00939           -1080.00     6600.00
00940           -1040.00     6800.00
00941           -1020.00     6600.00
00942            -980.00     6400.00
00943            -960.00     6400.00
00944            -940.00     6200.00
00945            -900.00     6200.00
00946            -880.00     6200.00
00947            -820.00     6000.00
00948            -780.00     6000.00
00949            -740.00     6000.00
00950            -740.00     5800.00
00951            -720.00     5800.00
00952            -660.00     5600.00
00953            -640.00     5400.00
00954            -580.00     5600.00
00955            -580.00     5400.00
00956            -560.00     5200.00
00957            -540.00     5200.00
00958            -540.00     5000.00
00959            -480.00     4800.00
00960            -460.00     5000.00
00961            -420.00     4600.00
00962            -420.00     4600.00
00963            -400.00     4600.00
00964            -400.00     4400.00
00965            -380.00     4200.00
00966            -320.00     4000.00
00967            -320.00     4000.00
00968            -320.00     3800.00
00969            -320.00     3800.00
00970            -320.00     3600.00
00971            -260.00     3600.00
00972            -260.00     3400.00
00973            -240.00     3400.00
00974            -240.00     3000.00
00975            -220.00     3000.00
00976            -240.00     2800.00
00977            -200.00     2800.00
00978            -220.00     2600.00
00979            -180.00     2400.00
00980            -180.00     2200.00
00981            -160.00     2200.00
00982            -180.00     2000.00
00983            -180.00     1800.00
00984            -160.00     1800.00
00985            -140.00     1600.00
00986            -100.00     1400.00
00987            -100.00     1200.00
00988            -100.00     1200.00
00989            -100.00     1000.00
00990            -100.00     1000.00
00991            -100.00      600.00
00992            -100.00      600.00
00993             -80.00      600.00
00994             -60.00      400.00
00995             -60.00      200.00
00996             -60.00      200.00
00997             -60.00     -200.00
00998             -20.00     -200.00
00999              60.00     -400.00
01000              80.00     -400.00
01001              80.00     -600.00
01002              40.00     -600.00
01003               0.00    -1000.00
01004               0.00    -1000.00
01005               0.00    -1200.00
01006             160.00    -1200.00
01007             680.00    -1400.00
01008             900.00    -1800.00
01009             220.00    -2000.00
01010            -800.00    -2000.00
01011           -1580.00    -2000.00
01012            -820.00    -1800.00
01013             800.00    -2400.00
01014             320.00    -2400.00
01015             -80.00    -2600.00
01016             560.00    -3000.00
01017             220.00    -2400.00
01018              20.00    -2800.00
01019             160.00    -3400.00
01020            -160.00    -3000.00
01021             320.00    -3000.00
01022             360.00    -3600.00
01023            -260.00    -3600.00
01024              60.00    -3800.00
01025              80.00    -3600.00
01026               0.00    -4200.00
01027             300.00    -4200.00
01028             180.00    -3800.00
01029             -20.00    -4400.00
01030             140.00    -4600.00
01031             300.00    -4400.00
01032             160.00    -4600.00
01033              60.00    -5000.00
01034             240.00    -5000.00
01035             240.00    -4800.00
01036             100.00    -5000.00
01037             140.00    -5400.00
01038             180.00    -5200.00
01039             300.00    -5400.00
01040             220.00    -5600.00
01041             240.00    -5400.00
01042             260.00    -5800.00
01043             180.00    -6000.00
01044             300.00    -6000.00
01045             320.00    -6000.00
01046             220.00    -6000.00
01047             220.00    -6200.00
01048             320.00    -6200.00
01049             320.00    -6200.00
01050             300.00    -6600.00
01051             340.00    -6600.00
01052             380.00    -6600.00
01053             300.00    -6800.00
01054             340.00    -6800.00
01055             400.00    -6800.00
01056             380.00    -7000.00
01057             400.00    -7000.00
01058             420.00    -7000.00
01059             400.00    -7000.00
01060             400.00    -7000.00
01061             480.00    -7000.00
01062             500.00    -7000.00
01063             480.00    -7200.00
01064             500.00    -7200.00
01065             520.00    -7200.00
01066             500.00    -7400.00
01067             540.00    -7600.00
01068             580.00    -7400.00
01069             620.00    -7200.00
01070             640.00    -7600.00
01071             640.00    -7600.00
01072             640.00    -7400.00
01073             640.00    -7600.00
01074             700.00    -7600.00
01075             780.00    -7600.00
01076             780.00    -7600.00
01077             780.00    -7600.00
01078             860.00    -7400.00
01079             860.00    -7600.00
01080             860.00    -7600.00
01081             940.00    -7600.00
01082            1000.00    -7600.00
01083            1020.00    -7600.00
01084            1040.00    -7600.00
01085            1100.00    -7600.00
01086            1100.00    -7600.00
01087            1120.00    -7400.00
01088            1180.00    -7600.00
01089            1220.00    -7600.00
01090            1220.00    -7600.00
01091            1260.00    -7400.00
01092            1260.00    -7200.00
01093            1260.00    -7200.00
01094            1260.00    -7200.00
01095            1300.00    -7200.00
01096            1280.00    -7200.00
01097            1280.00    -7200.00
01098            1260.00    -7200.00
01099            1240.00    -7200.00
01100            1220.00    -7000.00
01101            1220.00    -7000.00
01102            1220.00    -7000.00
01103            1180.00    -6800.00
01104            1180.00    -7000.00
01105            1120.00    -6800.00
01106            1100.00    -6800.00
01107            1060.00    -6600.00
01108            1040.00    -6600.00
01109            1020.00    -6600.00
01110             960.00    -6400.00
01111             940.00    -6200.00
01112             880.00    -6200.00
01113             860.00    -6200.00
01114             820.00    -6200.00
01115             800.00    -6200.00
01116             780.00    -6000.00
01117             720.00    -6000.00
01118             700.00    -5800.00
01119             680.00    -5600.00
01120             640.00    -5800.00
01121             620.00    -5400.00
01122             620.00    -5400.00
01123             560.00    -5400.00
01124             540.00    -5200.00
01125             500.00    -5000.00
01126             480.00    -5000.00
01127             480.00    -5000.00
01128             460.00    -4800.00
01129             420.00    -4600.00
01130             400.00    -4600.00
01131             380.00    -4600.00
01132             380.00    -4400.00
01133             340.00    -4200.00
01134             320.00    -4200.00
01135             320.00    -3800.00
01136             320.00    -4000.00
01137             300.00    -3600.00
01138             260.00    -3600.00
01139             260.00    -3400.00
01140             260.00    -3200.00
01141             240.00    -3000.00
01142             220.00    -3000.00
01143             220.00    -3000.00
01144             200.00    -2800.00
01145             220.00    -2600.00
01146             180.00    -2600.00
01147             180.00    -2200.00
01148             180.00    -2200.00
01149             180.00    -2000.00
01150             160.00    -2000.00
01151             140.00    -1800.00
01152             140.00    -1800.00
01153             140.00    -1400.00
01154             140.00    -1200.00
01155             140.00    -1200.00
01156             140.00     -800.00
01157             100.00     -800.00
01158             100.00     -800.00
01159              80.00     -600.00
01160              80.00     -400.00
01161              80.00     -400.00
01162              80.00     -200.00
01163              80.00     -200.00
01164              80.00        0.00
01165              60.00      200.00
01166             100.00      400.00
01167             160.00      600.00
01168             160.00      600.00
01169             140.00      600.00
01170             100.00     1000.00
01171              60.00     1000.00
01172              80.00     1000.00
01173             240.00     1200.00
01174             940.00     1400.00
01175             960.00     1800.00
01176            -100.00     1800.00
01177           -1520.00     1600.00
01178           -1900.00     1800.00
01179             140.00     2600.00
01180            1060.00     2400.00
01181            -260.00     2200.00
01182             160.00     2400.00
01183             640.00     2600.00
01184            -400.00     3400.00
01185            -180.00     2800.00
01186             -20.00     2600.00
01187             -20.00     3600.00
01188             380.00     3000.00
01189            -420.00     3000.00
01190            -240.00     4200.00
01191             220.00     3600.00
01192            -500.00     3800.00
01193               0.00     4200.00
01194             180.00     3800.00
01195            -400.00     4400.00
01196            -100.00     4200.00
01197             -60.00     4200.00
01198             -80.00     5000.00
01199            -220.00     4200.00
01200            -280.00     5000.00
01201               0.00     5000.00
01202            -200.00     4800.00
01203            -180.00     5200.00
01204            -180.00     5200.00
01205            -240.00     5600.00
01206            -140.00     5200.00
01207            -260.00     5400.00
01208            -160.00     6000.00
01209            -240.00     5600.00
01210            -260.00     6000.00
01211            -180.00     6000.00
01212            -300.00     5800.00
01213            -260.00     6200.00
01214            -260.00     6200.00
01215            -320.00     6400.00
01216            -320.00     6400.00
01217            -240.00     6400.00
01218            -300.00     6600.00
01219            -380.00     6600.00
01220            -340.00     6800.00
01221            -320.00     6800.00
01222            -340.00     6800.00
01223            -400.00     6800.00
01224            -360.00     7000.00
01225            -440.00     7000.00
01226            -460.00     7000.00
01227            -380.00     7000.00
01228            -400.00     7200.00
01229            -460.00     7400.00
01230            -460.00     7400.00
01231            -480.00     7400.00
01232            -560.00     7400.00
01233            -560.00     7400.00
01234            -540.00     7400.00
01235            -540.00     7400.00
01236            -580.00     7600.00
01237            -580.00     7600.00
01238            -640.00     7600.00
01239            -700.00     7600.00
01240            -700.00     7600.00
01241            -660.00     7600.00
01242            -700.00     7800.00
01243            -760.00     7600.00
01244            -800.00     7800.00
01245            -840.00     7600.00
01246            -900.00     7600.00
01247            -880.00     7600.00
01248            -900.00     7600.00
01249            -940.00     7800.00
01250            -980.00     7600.00
01251           -1020.00     7800.00
01252           -1080.00     7600.00
01253           -1120.00     7800.00
01254           -1120.00     7600.00
01255           -1120.00     7600.00
01256           -1180.00     7600.00
01257           -1200.00     7400.00
01258           -1260.00     7400.00
01259           -1280.00     7400.00
01260           -1280.00     7400.00
01261           -1280.00     7400.00
01262           -1260.00     7400.00
01263           -1260.00     7400.00
01264           -1260.00     7400.00
01265           -1280.00     7000.00
01266           -1280.00     7200.00
01267           -1260.00     7200.00
01268           -1220.00     7000.00
01269           -1200.00     7000.00
01270           -1200.00     7000.00
01271           -1140.00     6800.00
01272           -1120.00     6600.00
01273           -1120.00     6600.00
01274           -1060.00     6800.00
01275           -1020.00     6600.00
01276           -1020.00     6600.00
01277            -960.00     6600.00
01278            -940.00     6400.00
01279            -920.00     6200.00
01280            -880.00     6200.00
01281            -860.00     6200.00
01282            -800.00     6000.00
01283            -780.00     6000.00
01284            -740.00     6000.00
01285            -720.00     5800.00
01286            -700.00     5600.00
01287            -660.00     5800.00
01288            -620.00     5400.00
01289            -580.00     5400.00
01290            -560.00     5400.00
01291            -560.00     5200.00
01292            -540.00     5200.00
01293            -500.00     5000.00
01294            -480.00     5000.00
01295            -460.00     5000.00
01296            -420.00     4600.00
01297            -400.00     4600.00
01298            -400.00     4400.00
01299            -380.00     4200.00
01300            -340.00     4200.00
01301            -320.00     4200.00
01302            -320.00     3800.00
01303            -320.00     3800.00
01304            -300.00     3800.00
01305            -300.00     3600.00
01306            -280.00     3600.00
01307            -260.00     3400.00
01308            -240.00     3400.00
01309            -240.00     3200.00
01310            -240.00     3000.00
01311            -220.00     2800.00
01312            -220.00     2600.00
01313            -220.00     2600.00
01314            -180.00     2400.00
01315            -160.00     2200.00
01316            -160.00     2200.00
01317            -160.00     1800.00
01318            -160.00     1800.00
01319            -160.00     1600.00
01320            -140.00     1400.00
01321            -100.00     1400.00
01322            -100.00     1200.00
01323            -120.00     1200.00
01324            -100.00     1000.00
01325            -100.00      800.00
01326            -100.00      800.00
01327            -100.00      600.00
01328             -80.00      400.00
01329             -80.00      400.00
01330             -60.00      200.00
01331             -60.00      200.00
01332             -20.00     -200.00
01333             -20.00     -400.00
01334              60.00     -400.00
01335              80.00     -600.00
01336              60.00     -600.00
01337               0.00     -600.00
01338               0.00     -800.00
01339               0.00    -1000.00
01340              60.00    -1200.00
01341             340.00    -1200.00
01342             880.00    -1600.00
01343             720.00    -1800.00
01344            -240.00    -2000.00
01345           -1220.00    -2200.00
01346           -1540.00    -1800.00
01347             -20.00    -2000.00
01348             880.00    -2600.00
01349             -60.00    -2200.00
01350             220.00    -2800.00
01351             540.00    -2800.00
01352             -20.00    -2600.00
01353             180.00    -3000.00
01354               0.00    -3400.00
01355             -20.00    -3000.00
01356             540.00    -3400.00
01357              20.00    -3600.00
01358            -200.00    -3600.00
01359             160.00    -3800.00
01360               0.00    -3800.00
01361             140.00    -4200.00
01362             300.00    -4200.00
01363              60.00    -4200.00
01364              60.00    -4600.00
01365             240.00    -4400.00
01366             300.00    -4600.00
01367              60.00    -4800.00
01368             140.00    -5000.00
01369             300.00    -4800.00
01370             160.00    -5000.00
01371             100.00    -5400.00
01372             160.00    -5200.00
01373             280.00    -5200.00
01374             260.00    -5600.00
01375             220.00    -5400.00
01376             260.00    -5800.00
01377             220.00    -5800.00
01378             220.00    -5800.00
01379             320.00    -6000.00
01380             240.00    -6000.00
01381             180.00    -6200.00
01382             280.00    -6000.00
01383             340.00    -6200.00
01384             300.00    -6400.00
01385             320.00    -6600.00
01386             380.00    -6600.00
01387             320.00    -6600.00
01388             300.00    -6800.00
01389             380.00    -6800.00
01390             380.00    -6800.00
01391             380.00    -7000.00
01392             400.00    -6800.00
01393             400.00    -7000.00
01394             380.00    -7000.00
01395             460.00    -7000.00
01396             500.00    -7000.00
01397             500.00    -7200.00
01398             480.00    -7400.00
01399             500.00    -7200.00
01400             520.00    -7200.00
01401             500.00    -7400.00
01402             560.00    -7400.00
01403             620.00    -7400.00
01404             620.00    -7400.00
01405             640.00    -7600.00
01406             660.00    -7600.00
01407             660.00    -7600.00
01408             660.00    -7600.00
01409             740.00    -7600.00
01410             780.00    -7600.00
01411             780.00    -7600.00
01412             800.00    -7600.00
01413             860.00    -7600.00
01414             860.00    -7800.00
01415             900.00    -7600.00
01416             960.00    -7600.00
01417             980.00    -7600.00
01418            1020.00    -7600.00
01419            1060.00    -7600.00
01420            1100.00    -7600.00
01421            1100.00    -7600.00
01422            1160.00    -7600.00
01423            1200.00    -7200.00
01424            1200.00    -7400.00
01425            1220.00    -7400.00
01426            1260.00    -7400.00
01427            1260.00    -7200.00
01428            1260.00    -7400.00
01429            1280.00    -7200.00
01430            1300.00    -7200.00
01431            1280.00    -7400.00
01432            1260.00    -7000.00
01433            1260.00    -7000.00
01434            1220.00    -7000.00
01435            1220.00    -7000.00
01436            1240.00    -7000.00
01437            1200.00    -6800.00
01438            1180.00    -7000.00
01439            1140.00    -6800.00
01440            1100.00    -6800.00
01441            1080.00    -6800.00
01442            1060.00    -6600.00
01443            1020.00    -6600.00
01444             980.00    -6600.00
01445             940.00    -6400.00
01446             920.00    -6400.00
01447             880.00    -6200.00
01448             840.00    -6200.00
01449             820.00    -6000.00
01450             800.00    -6000.00
01451             780.00    -6000.00
01452             720.00    -5800.00
01453             680.00    -5800.00
01454             640.00    -5600.00
01455             640.00    -5400.00
01456             620.00    -5400.00
01457             580.00    -5400.00
01458             540.00    -5200.00
01459             540.00    -5200.00
01460             500.00    -5000.00
01461             480.00    -5000.00
01462             440.00    -4800.00
01463             420.00    -4600.00
01464             420.00    -4600.00
01465             380.00    -4600.00
01466             380.00    -4400.00
01467             340.00    -4400.00
01468             320.00    -4200.00
01469             340.00    -4000.00
01470             320.00    -3800.00
01471             300.00    -3800.00
01472             280.00    -3600.00
01473             300.00    -3400.00
01474             260.00    -3400.00
01475             240.00    -3400.00
01476             240.00    -3000.00
01477             240.00    -2800.00
01478             220.00    -2800.00
01479             220.00    -2600.00
01480             160.00    -2600.00
01481             160.00    -2600.00
01482             160.00    -2400.00
01483             220.00    -2200.00
01484             220.00    -2200.00
01485             180.00    -1800.00
01486             140.00    -1800.00
01487             120.00    -1400.00
01488             140.00    -1400.00
01489             160.00    -1200.00
01490             100.00    -1200.00
01491              80.00     -800.00
01492             140.00     -800.00
01493             120.00     -600.00
01494              80.00     -600.00
01495              60.00     -400.00
01496             100.00     -200.00
01497             100.00     -200.00
01498              80.00        0.00
01499              80.00      200.00
01500              80.00      200.00
01501             100.00      400.00
01502             140.00      600.00
01503             140.00      600.00
01504             160.00     1000.00
01505              80.00      800.00
01506              60.00     1000.00
01507             100.00     1200.00
01508             540.00     1400.00
01509            1060.00     1800.00
01510             580.00     1800.00
01511            -720.00     1800.00
01512           -1980.00     1400.00
01513           -1180.00     2200.00
01514             980.00     2400.00
01515             480.00     2200.00
01516            -320.00     2600.00
01517             620.00     2200.00
01518             180.00     2800.00
01519            -480.00     3400.00
01520             -20.00     2600.00
01521            -100.00     3000.00
01522             260.00     3800.00
01523             100.00     2800.00
01524            -560.00     3600.00
01525             140.00     4000.00
01526            -160.00     3600.00
01527            -460.00     3800.00
01528             320.00     4000.00
01529            -100.00     4200.00
01530            -300.00     4400.00
01531             -20.00     4200.00
01532            -120.00     4600.00
01533            -100.00     4600.00
01534            -280.00     4400.00
01535             -80.00     5200.00
01536             -80.00     4600.00
01537            -300.00     5000.00
01538            -160.00     5200.00
01539            -240.00     5200.00
01540            -160.00     5600.00
01541            -140.00     5200.00
01542            -200.00     5800.00
01543            -180.00     5800.00
01544            -320.00     5800.00
01545            -220.00     6000.00
01546            -220.00     5800.00
01547            -300.00     6000.00
01548            -260.00     6200.00
01549            -260.00     6200.00
01550            -300.00     6200.00
01551            -280.00     6200.00
01552            -240.00     6600.00
01553            -320.00     6600.00
01554            -400.00     6600.00
01555            -360.00     6800.00
01556            -320.00     6800.00
01557            -340.00     6800.00
01558            -340.00     6800.00
01559            -400.00     7000.00
01560            -460.00     6800.00
01561            -420.00     7000.00
01562            -400.00     7000.00
01563            -420.00     7200.00
01564            -460.00     7200.00
01565            -480.00     7400.00
01566            -500.00     7400.00
01567            -560.00     7600.00
01568            -540.00     7400.00
01569            -560.00     7400.00
01570            -560.00     7400.00
01571            -580.00     7600.00
01572            -600.00     7600.00
01573            -660.00     7600.00
01574            -700.00     7600.00
01575            -660.00     7600.00
01576            -700.00     7600.00
01577            -740.00     7600.00
01578            -780.00     7600.00
01579            -780.00     7600.00
01580            -840.00     7600.00
01581            -880.00     7600.00
01582            -880.00     7600.00
01583            -940.00     7600.00
01584            -980.00     7600.00
01585           -1020.00     7600.00
01586           -1040.00     7800.00
01587           -1120.00     7600.00
01588           -1140.00     7600.00
01589           -1140.00     7600.00
01590           -1180.00     7600.00
01591           -1220.00     7600.00
01592           -1220.00     7600.00
01593           -1260.00     7600.00
01594           -1280.00     7400.00
01595           -1280.00     7400.00
01596           -1280.00     7600.00
01597           -1280.00     7400.00
01598           -1280.00     7400.00
01599           -1280.00     7400.00
01600           -1280.00     7400.00
01601           -1260.00     7000.00
01602           -1240.00     7000.00
01603           -1200.00     7000.00
01604           -1180.00     7000.00
01605           -1180.00     7000.00
01606           -1160.00     7000.00
01607           -1120.00     6800.00
01608           -1100.00     6800.00
01609           -1060.00     6800.00
01610           -1020.00     6800.00
01611            -980.00     6600.00
01612            -960.00     6400.00
01613            -940.00     6400.00
01614            -900.00     6200.00
01615            -860.00     6200.00
01616            -820.00     6200.00
01617            -780.00     6000.00
01618            -740.00     6000.00
01619            -740.00     6000.00
01620            -720.00     5800.00
01621            -660.00     5800.00
01622            -620.00     5400.00
01623            -580.00     5600.00
01624            -580.00     5400.00
01625            -560.00     5400.00
01626            -540.00     5200.00
01627            -500.00     5000.00
01628            -480.00     5000.00
01629            -480.00     5000.00
01630            -420.00     4800.00
01631            -420.00     4600.00
01632            -400.00     4400.00
01633            -400.00     4400.00
01634            -380.00     4400.00
01635            -340.00     4200.00
01636            -320.00     4200.00
01637            -320.00     3800.00
01638            -300.00     3800.00
01639            -300.00     3600.00
01640            -260.00     3600.00
01641            -260.00     3400.00
01642            -240.00     3400.00
01643            -240.00     3200.00
01644            -240.00     3000.00
01645            -240.00     3000.00
01646            -220.00     2800.00
01647            -180.00     2600.00
01648            -220.00     2400.00
01649            -180.00     2400.00
01650            -180.00     2200.00
01651            -160.00     2000.00
01652            -180.00     1800.00
01653            -160.00     1800.00
01654            -140.00     1600.00
01655            -140.00     1400.00
01656            -120.00     1400.00
01657            -100.00     1200.00
01658            -100.00     1000.00
01659            -100.00     1000.00
01660            -100.00      800.00
01661            -100.00      600.00
01662            -100.00      400.00
01663             -80.00      400.00
01664             -60.00      200.00
01665             -60.00      200.00
01666             -60.00     -200.00
01667             -60.00     -200.00
01668              40.00     -400.00
01669              80.00     -600.00
01670              60.00     -600.00
01671              20.00     -600.00
01672               0.00     -800.00
01673               0.00    -1000.00
01674              20.00     -800.00
01675             140.00    -1200.00
01676             600.00    -1200.00
01677             920.00    -1800.00
01678             340.00    -1800.00
01679            -660.00    -2000.00
01680           -1520.00    -2000.00
01681           -1040.00    -1800.00
01682             660.00    -2400.00
01683             480.00    -2400.00
01684            -100.00    -2200.00
01685             500.00    -3000.00
01686             280.00    -2600.00
01687               0.00    -2600.00
01688             200.00    -3400.00
01689            -120.00    -3000.00
01690             240.00    -3200.00
01691             440.00    -3600.00
01692            -240.00    -3400.00
01693               0.00    -3800.00
01694             120.00    -3600.00
01695             -20.00    -3800.00
01696             300.00    -4200.00
01697             220.00    -4000.00
01698               0.00    -4400.00
01699             100.00    -4400.00
01700             300.00    -4400.00
01701             180.00    -4600.00
01702              20.00    -4600.00
01703             220.00    -5000.00
01704             260.00    -5000.00
01705             140.00    -5200.00
01706             120.00    -5400.00
01707             220.00    -5000.00
01708             280.00    -5400.00
01709             220.00    -5600.00
01710             220.00    -5600.00
01711             260.00    -5800.00
01712             180.00    -5800.00
01713             300.00    -6000.00
01714             320.00    -6000.00
01715             220.00    -6200.00
01716             220.00    -6200.00
01717             320.00    -6200.00
01718             320.00    -6400.00
01719             260.00    -6600.00
01720             340.00    -6600.00
01721             340.00    -6600.00
01722             300.00    -6600.00
01723             320.00    -6800.00
01724             400.00    -6800.00
01725             380.00    -6800.00
01726             380.00    -7000.00
01727             400.00    -7000.00
01728             400.00    -7000.00
01729             400.00    -7200.00
01730             460.00    -7000.00
01731             500.00    -7000.00
01732             480.00    -7000.00
01733             480.00    -7200.00
01734             540.00    -7200.00
01735             520.00    -7400.00
01736             540.00    -7600.00
01737             580.00    -7200.00
01738             620.00    -7400.00
01739             620.00    -7600.00
01740             640.00    -7600.00
01741             640.00    -7400.00
01742             640.00    -7600.00
01743             720.00    -7600.00
01744             780.00    -7400.00
01745             800.00    -7600.00
01746             800.00    -7800.00
01747             820.00    -7400.00
01748             840.00    -7600.00
01749             860.00    -7600.00
01750             940.00    -7600.00
01751            1020.00    -7600.00
01752            1020.00    -7600.00
01753            1020.00    -7600.00
01754            1060.00    -7600.00
01755            1100.00    -7600.00
01756            1120.00    -7600.00
01757            1180.00    -7600.00
01758            1220.00    -7400.00
01759            1220.00    -7600.00
01760            1220.00    -7600.00
01761            1260.00    -7200.00
01762            1260.00    -7400.00
01763            1280.00    -7400.00
01764            1280.00    -7200.00
01765            1280.00    -7400.00
01766            1280.00    -7200.00
01767            1280.00    -7000.00
01768            1260.00    -7000.00
01769            1220.00    -7000.00
01770            1200.00    -7000.00
01771            1220.00    -7000.00
01772            1180.00    -7000.00
01773            1180.00    -7000.00
01774            1120.00    -6600.00
01775            1100.00    -6800.00
01776            1040.00    -6600.00
01777            1020.00    -6600.00
01778            1020.00    -6600.00
01779             980.00    -6400.00
01780             940.00    -6400.00
01781             880.00    -6200.00
01782             820.00    -6200.00
01783             800.00    -6200.00
01784             800.00    -6200.00
01785             780.00    -6000.00
01786             740.00    -6000.00
01787             700.00    -5800.00
01788             660.00    -5800.00
01789             640.00    -5800.00
01790             620.00    -5600.00
01791             620.00    -5400.00
01792             560.00    -5400.00
01793             500.00    -5200.00
01794             500.00    -5000.00
01795             480.00    -5000.00
01796             480.00    -5000.00
01797             460.00    -4600.00
01798             420.00    -4800.00
01799             420.00    -4400.00
01800             380.00    -4400.00
01801             380.00    -4400.00
01802             360.00    -4400.00
01803             320.00    -3800.00
01804             320.00    -4000.00
01805             340.00    -3800.00
01806             300.00    -3600.00
01807             300.00    -3600.00
01808             260.00    -3400.00
01809             260.00    -3200.00
01810             260.00    -3200.00
01811             240.00    -3000.00
01812             220.00    -2800.00
01813             220.00    -2800.00
01814             200.00    -2600.00
01815             180.00    -2600.00
01816             200.00    -2200.00
01817             160.00    -2200.00
01818             180.00    -2000.00
01819             180.00    -2000.00
01820             160.00    -1600.00
01821             140.00    -1800.00
01822             140.00    -1400.00
01823             140.00    -1200.00
01824             140.00    -1200.00
01825             140.00    -1200.00
01826             100.00     -800.00
01827             100.00     -800.00
01828             100.00     -600.00
01829              80.00     -600.00
01830              80.00     -200.00
01831              80.00     -200.00
01832              80.00     -200.00
01833              80.00        0.00
01834              80.00      200.00
01835             100.00      400.00
01836             160.00      400.00
01837             160.00      600.00
01838             140.00      800.00
01839             100.00      800.00
01840              80.00     1000.00
01841              60.00     1000.00
01842             180.00     1200.00
01843             860.00     1400.00
01844            1040.00     1600.00
01845              80.00     1800.00
01846           -1360.00     1600.00
01847           -2000.00     1600.00
01848            -140.00     2200.00
01849            1140.00     2400.00
01850            -160.00     2200.00
01851              40.00     2400.00
01852             660.00     2200.00
01853            -320.00     3000.00
01854            -260.00     3000.00
01855               0.00     2600.00
01856             -80.00     3600.00
01857             380.00     3400.00
01858            -340.00     3000.00
01859            -340.00     3800.00
01860             240.00     3600.00
01861            -480.00     3800.00
01862            -100.00     4000.00
01863             260.00     4000.00
01864            -340.00     4400.00
01865            -140.00     4200.00
01866             -40.00     4200.00
01867            -100.00     5000.00
01868            -180.00     4400.00
01869            -240.00     4800.00
01870              20.00     5200.00
01871            -220.00     4600.00
01872            -260.00     5200.00
01873            -140.00     5200.00
01874            -220.00     5400.00
01875            -100.00     5600.00
01876            -200.00     5400.00
01877            -160.00     6000.00
01878            -260.00     5800.00
01879            -300.00     5800.00
01880            -160.00     6000.00
01881            -260.00     5800.00
01882            -300.00     6200.00
01883            -260.00     6200.00
01884            -300.00     6400.00
01885            -300.00     6200.00
01886            -240.00     6200.00
01887            -240.00     6600.00
01888            -380.00     6600.00
01889            -380.00     6600.00
01890            -340.00     6800.00
01891            -320.00     6800.00
01892            -340.00     7000.00
01893            -340.00     7000.00
01894            -420.00     7000.00
01895            -480.00     7000.00
01896            -400.00     7000.00
01897            -400.00     7200.00
01898            -420.00     7400.00
01899            -480.00     7200.00
01900            -480.00     7400.00
01901            -540.00     7400.00
01902            -560.00     7200.00
01903            -540.00     7400.00
01904            -560.00     7400.00
01905            -580.00     7600.00
01906            -580.00     7600.00
01907            -620.00     7600.00
01908            -700.00     7600.00
01909            -700.00     7600.00
01910            -700.00     7600.00
01911            -720.00     7600.00
01912            -800.00     7600.00
01913            -800.00     7800.00
01914            -820.00     7600.00
01915            -880.00     7600.00
01916            -900.00     7800.00
01917            -900.00     7600.00
01918            -960.00     7800.00
01919            -980.00     7600.00
01920           -1020.00     7800.00
01921           -1060.00     7600.00
01922           -1140.00     7600.00
01923           -1140.00     7600.00
01924           -1140.00     7400.00
01925           -1180.00     7600.00
01926           -1220.00     7600.00
01927           -1220.00     7600.00
01928           -1280.00     7400.00
01929           -1280.00     7400.00
01930           -1260.00     7400.00
01931           -1280.00     7400.00
01932           -1280.00     7400.00
01933           -1260.00     7400.00
01934           -1280.00     7200.00
01935           -1280.00     7200.00
01936           -1260.00     7200.00
01937           -1220.00     7200.00
01938           -1180.00     7200.00
01939           -1160.00     7000.00
01940           -1140.00     7000.00
01941           -1140.00     6800.00
01942           -1120.00     6800.00
01943           -1060.00     6800.00
01944           -1040.00     6600.00
01945           -1020.00     6600.00
01946            -960.00     6400.00
01947            -940.00     6400.00
01948            -900.00     6200.00
01949            -880.00     6200.00
01950            -820.00     6200.00
01951            -800.00     6000.00
01952            -780.00     6000.00
01953            -740.00     5800.00
01954            -720.00     5800.00
01955            -720.00     5600.00
01956            -660.00     5600.00
01957            -620.00     5400.00
01958            -580.00     5400.00
01959            -560.00     5400.00
01960            -540.00     5200.00
01961            -500.00     5400.00
01962            -480.00     5000.00
01963            -480.00     5000.00
01964            -460.00     5000.00
01965            -440.00     4600.00
01966            -400.00     4600.00
01967            -400.00     4600.00
01968            -400.00     4200.00
01969            -360.00     4200.00
01970            -340.00     4200.00
01971            -320.00     4000.00
01972            -320.00     3800.00
01973            -300.00     3600.00
01974            -300.00     3600.00
01975            -300.00     3400.00
01976            -260.00     3400.00
01977            -240.00     3200.00
01978            -260.00     3000.00
01979            -240.00     3000.00
01980            -220.00     2800.00
01981            -220.00     2600.00
01982            -200.00     2600.00
01983            -180.00     2400.00
01984            -180.00     2200.00
01985            -160.00     2000.00
01986            -160.00     2000.00
01987            -160.00     1800.00
01988            -160.00     1800.00
01989            -140.00     1600.00
01990            -100.00     1400.00
01991            -100.00     1200.00
01992            -100.00     1000.00
01993            -100.00     1200.00
01994            -120.00      800.00
01995            -100.00      600.00
01996            -100.00      600.00
01997            -100.00      600.00
01998             -60.00      200.00
01999             -60.00      200.00
02000             -60.00     -200.00
02001             -60.00        0.00
02002             -20.00     -200.00
02003              60.00     -400.00
02004              80.00     -600.00
02005              80.00     -600.00
02006              40.00     -800.00
02007              20.00    -1000.00
02008               0.00    -1000.00
02009              40.00    -1200.00
02010             300.00    -1200.00
02011             840.00    -1400.00
02012             780.00    -1800.00
02013            -100.00    -1800.00
02014           -1100.00    -2000.00
02015           -1560.00    -1800.00
02016            -240.00    -2000.00
02017             900.00    -2600.00
02018               0.00    -2200.00
02019             140.00    -2800.00
02020             580.00    -3000.00
02021              20.00    -2400.00
02022             160.00    -3000.00
02023              60.00    -3400.00
02024            -100.00    -3000.00
02025             540.00    -3400.00
02026             100.00    -3600.00
02027            -240.00    -3600.00
02028             160.00    -3800.00
02029               0.00    -3600.00
02030             100.00    -4200.00
02031             320.00    -4200.00
02032              80.00    -4200.00
02033              20.00    -4600.00
02034             220.00    -4600.00
02035             300.00    -4400.00
02036              80.00    -4600.00
02037              80.00    -5000.00
02038             260.00    -5000.00
02039             180.00    -5000.00
02040             100.00    -5400.00
02041             160.00    -5400.00
02042             260.00    -5200.00
02043             260.00    -5800.00
02044             180.00    -5600.00
02045             260.00    -5600.00
02046             220.00    -5800.00
02047             180.00    -5800.00
02048             320.00    -6000.00
02049             260.00    -6000.00
02050             220.00    -6200.00
02051             260.00    -6200.00
02052             340.00    -6200.00
02053             260.00    -6600.00
02054             300.00    -6600.00
02055             380.00    -6600.00
02056             320.00    -6600.00
02057             320.00    -6800.00
02058             380.00    -6800.00
02059             400.00    -6800.00
02060             380.00    -6800.00
02061             380.00    -7000.00
02062             400.00    -7000.00
02063             380.00    -7000.00
02064             400.00    -7000.00
02065             520.00    -7200.00
02066             500.00    -7000.00
02067             480.00    -7200.00
02068             500.00    -7200.00
02069             540.00    -7400.00
02070             500.00    -7600.00
02071             560.00    -7200.00
02072             620.00    -7400.00
02073             620.00    -7400.00
02074             620.00    -7600.00
02075             640.00    -7200.00
02076             660.00    -7600.00
02077             660.00    -7600.00
02078             740.00    -7400.00
02079             800.00    -7600.00
02080             780.00    -7800.00
02081             800.00    -7600.00
02082             860.00    -7600.00
02083             860.00    -7800.00
02084             900.00    -7600.00
02085             960.00    -7600.00
02086            1020.00    -7600.00
02087            1020.00    -7600.00
02088            1060.00    -7600.00
02089            1100.00    -7600.00
02090            1100.00    -7600.00
02091            1140.00    -7600.00
02092            1220.00    -7600.00
02093            1220.00    -7600.00
02094            1220.00    -7200.00
02095            1260.00    -7600.00
02096            1260.00    -7200.00
02097            1260.00    -7400.00
02098            1280.00    -7200.00
02099            1300.00    -7400.00
02100            1280.00    -7200.00
02101            1260.00    -7200.00
02102            1260.00    -7000.00
02103            1240.00    -7000.00
02104            1220.00    -7000.00
02105            1200.00    -7000.00
02106            1220.00    -7000.00
02107            1180.00    -6800.00
02108            1140.00    -7000.00
02109            1100.00    -6800.00
02110            1060.00    -6800.00
02111            1020.00    -6600.00
02112            1040.00    -6600.00
02113            1020.00    -6600.00
02114             940.00    -6600.00
02115             900.00    -6600.00
02116             860.00    -6200.00
02117             820.00    -6200.00
02118             800.00    -6000.00
02119             800.00    -6000.00
02120             780.00    -5800.00
02121             720.00    -5800.00
02122             660.00    -5800.00
02123             640.00    -5800.00
02124             620.00    -5600.00
02125             620.00    -5400.00
02126             580.00    -5400.00
02127             540.00    -5200.00
02128             480.00    -5200.00
02129             480.00    -5200.00
02130             460.00    -5000.00
02131             480.00    -5000.00
02132             480.00    -4600.00
02133             500.00    -4600.00
02134             460.00    -4400.00
02135             400.00    -4400.00
02136             340.00    -4200.00
02137             300.00    -4200.00
02138             240.00    -4200.00
02139             240.00    -3800.00
02140             260.00    -3800.00
02141             300.00    -3600.00
02142             340.00    -3400.00
02143             360.00    -3400.00
02144             340.00    -3400.00
02145             320.00    -3000.00
02146             240.00    -3000.00
02147             160.00    -2800.00
02148             100.00    -2800.00
02149             140.00    -2800.00
02150             160.00    -2400.00
02151             200.00    -2200.00
02152             240.00    -2000.00
02153             240.00    -2000.00
02154             220.00    -1800.00
02155             180.00    -1800.00
02156             160.00    -1600.00
02157             100.00    -1400.00
02158             100.00    -1400.00
02159              80.00    -1200.00
02160              80.00     -800.00
02161             100.00    -1000.00
02162             120.00     -600.00
02163             140.00     -600.00
02164             160.00     -400.00
02165             140.00     -400.00
02166             100.00     -200.00
02167              60.00        0.00
02168              20.00      200.00
02169               0.00      200.00
02170              60.00      400.00
02171             140.00      600.00
02172             180.00      600.00
02173             160.00      600.00
02174             140.00      800.00
02175              80.00     1000.00
02176             100.00     1200.00
02177             400.00     1200.00
02178            1020.00     1800.00
02179             640.00     1800.00
02180            -580.00     1800.00
02181           -1920.00     1600.00
02182           -1380.00     2000.00
02183             820.00     2600.00
02184             700.00     2200.00
02185            -320.00     2400.00
02186             500.00     2200.00
02187             300.00     2800.00
02188            -560.00     3400.00
02189             -60.00     2600.00
02190             -80.00     3000.00
02191             180.00     3800.00
02192             220.00     3000.00
02193            -540.00     3400.00
02194              60.00     4200.00
02195             -40.00     3600.00
02196            -500.00     3800.00
02197             280.00     4000.00
02198             -20.00     4200.00
02199            -340.00     4600.00
02200             -40.00     4200.00
02201            -100.00     4600.00
02202             -80.00     4600.00
02203            -260.00     4400.00
02204            -100.00     5200.00
02205             -20.00     4600.00
02206            -320.00     5000.00
02207            -160.00     5400.00
02208            -200.00     5200.00
02209            -160.00     5600.00
02210            -140.00     5200.00
02211            -220.00     5800.00
02212            -160.00     5800.00
02213            -280.00     5600.00
02214            -220.00     6000.00
02215            -180.00     6000.00
02216            -280.00     6000.00
02217            -280.00     6200.00
02218            -300.00     6200.00
02219            -320.00     6400.00
02220            -300.00     6200.00
02221            -220.00     6600.00
02222            -300.00     6600.00
02223            -360.00     6600.00
02224            -340.00     6800.00
02225            -320.00     6800.00
02226            -340.00     6800.00
02227            -340.00     6800.00
02228            -380.00     7000.00
02229            -480.00     7000.00
02230            -420.00     7000.00
02231            -380.00     7200.00
02232            -420.00     7200.00
02233            -460.00     7200.00
02234            -480.00     7200.00
02235            -500.00     7400.00
02236            -560.00     7400.00
02237            -560.00     7400.00
02238            -540.00     7400.00
02239            -580.00     7400.00
02240            -580.00     7400.00
02241            -580.00     7600.00
02242            -660.00     7600.00
02243            -720.00     7400.00
02244            -700.00     7400.00
02245            -720.00     7800.00
02246            -740.00     7600.00
02247            -800.00     7600.00
02248            -800.00     7600.00
02249            -860.00     7600.00
02250            -900.00     7600.00
02251            -900.00     7600.00
02252            -940.00     7600.00
02253            -960.00     7600.00
02254            -980.00     7600.00
02255           -1040.00     7800.00
02256           -1120.00     7600.00
02257           -1140.00     7600.00
02258           -1120.00     7800.00
02259           -1160.00     7600.00
02260           -1180.00     7600.00
02261           -1200.00     7600.00
02262           -1260.00     7600.00
02263           -1280.00     7400.00
02264           -1280.00     7600.00
02265           -1280.00     7600.00
02266           -1280.00     7400.00
02267           -1260.00     7400.00
02268           -1260.00     7400.00
02269           -1260.00     7200.00
02270           -1260.00     7000.00
02271           -1260.00     7000.00
02272           -1200.00     7000.00
02273           -1180.00     7000.00
02274           -1180.00     7000.00
02275           -1140.00     6800.00
02276           -1140.00     6800.00
02277           -1100.00     6600.00
02278           -1040.00     6800.00
02279           -1020.00     6600.00
02280            -980.00     6600.00
02281            -960.00     6600.00
02282            -940.00     6200.00
02283            -900.00     6200.00
02284            -880.00     6200.00
02285            -820.00     6200.00
02286            -780.00     6000.00
02287            -740.00     6000.00
02288            -720.00     6000.00
02289            -720.00     5800.00
02290            -680.00     5800.00
02291            -640.00     5600.00
02292            -620.00     5600.00
02293            -580.00     5400.00
02294            -580.00     5400.00
02295            -560.00     5200.00
02296            -500.00     5200.00
02297            -500.00     5000.00
02298            -460.00     4800.00
02299            -460.00     4600.00
02300            -420.00     4600.00
02301            -400.00     4600.00
02302            -400.00     4400.00
02303            -400.00     4200.00
02304            -380.00     4200.00
02305            -320.00     4200.00
02306            -320.00     4000.00
02307            -300.00     3800.00
02308            -320.00     3800.00
02309            -300.00     3600.00
02310            -280.00     3400.00
02311            -260.00     3400.00
02312            -240.00     3400.00
02313            -240.00     3000.00
02314            -220.00     3000.00
02315            -220.00     2800.00
02316            -220.00     2600.00
02317            -220.00     2400.00
02318            -180.00     2400.00
02319            -160.00     2200.00
02320            -180.00     2000.00
02321            -160.00     2000.00
02322            -160.00     1800.00
02323            -140.00     1800.00
02324            -140.00     1400.00
02325            -100.00     1200.00
02326            -100.00     1200.00
02327            -100.00     1000.00
02328            -100.00     1000.00
02329            -100.00     1000.00
02330            -100.00      600.00
02331             -80.00      600.00
02332            -100.00      400.00
02333             -60.00      200.00
02334             -60.00      200.00
02335             -60.00        0.00
02336             -40.00     -200.00
02337              20.00     -400.00
02338              80.00     -400.00
02339              80.00     -600.00
02340              60.00     -600.00
02341               0.00     -800.00
02342              20.00     -800.00
02343              20.00    -1000.00
02344             140.00     -800.00
02345             540.00    -1400.00
02346             940.00    -1800.00
02347             480.00    -1800.00
02348            -540.00    -2000.00
02349           -1440.00    -2200.00
02350           -1200.00    -1800.00
02351             540.00    -2200.00
02352             620.00    -2600.00
02353            -140.00    -2200.00
02354             420.00    -3000.00
02355             380.00    -2600.00
02356             -20.00    -2600.00
02357             220.00    -3400.00
02358            -100.00    -3200.00
02359             180.00    -3000.00
02360             480.00    -3600.00
02361            -160.00    -3600.00
02362             -60.00    -3600.00
02363             140.00    -3800.00
02364             -20.00    -3800.00
02365             240.00    -4200.00
02366             240.00    -4000.00
02367               0.00    -4200.00
02368              80.00    -4600.00
02369             300.00    -4400.00
02370             220.00    -4600.00
02371              20.00    -4800.00
02372             180.00    -5000.00
02373             260.00    -5000.00
02374             140.00    -5000.00
02375             140.00    -5400.00
02376             200.00    -5200.00
02377             300.00    -5400.00
02378             220.00    -5800.00
02379             200.00    -5600.00
02380             260.00    -5800.00
02381             180.00    -5800.00
02382             260.00    -6000.00
02383             320.00    -6000.00
02384             220.00    -6000.00
02385             200.00    -6200.00
02386             320.00    -6200.00
02387             320.00    -6200.00
02388             260.00    -6600.00
02389             340.00    -6400.00
02390             380.00    -6600.00
02391             300.00    -6600.00
02392             320.00    -6800.00
02393             400.00    -6600.00
02394             380.00    -6800.00
02395             380.00    -7000.00
02396             420.00    -7000.00
02397             400.00    -7000.00
02398             380.00    -7200.00
02399             480.00    -7000.00
02400             500.00    -7000.00
02401             480.00    -7200.00
02402             480.00    -7400.00
02403             520.00    -7200.00
02404             540.00    -7200.00
02405             540.00    -7400.00
02406             600.00    -7400.00
02407             620.00    -7400.00
02408             620.00    -7600.00
02409             640.00    -7600.00
02410             680.00    -7600.00
02411             660.00    -7400.00
02412             700.00    -7600.00
02413             780.00    -7600.00
02414             780.00    -7600.00
02415             780.00    -7600.00
02416             820.00    -7600.00
02417             860.00    -7600.00
02418             860.00    -7800.00
02419             940.00    -7600.00
02420             980.00    -7600.00
02421            1020.00    -7600.00
02422            1040.00    -7600.00
02423            1100.00    -7600.00
02424            1100.00    -7200.00
02425            1120.00    -7600.00
02426            1180.00    -7600.00
02427            1220.00    -7600.00
02428            1220.00    -7600.00
02429            1240.00    -7400.00
02430            1260.00    -7600.00
02431            1260.00    -7400.00
02432            1260.00    -7200.00
02433            1280.00    -7400.00
02434            1280.00    -7200.00
02435            1260.00    -7200.00
02436            1260.00    -7400.00
02437            1240.00    -7200.00
02438            1220.00    -7400.00
02439            1220.00    -7000.00
02440            1200.00    -7000.00
02441            1180.00    -6800.00
02442            1140.00    -7000.00
02443            1120.00    -6800.00
02444            1080.00    -6800.00
02445            1040.00    -6800.00
02446            1040.00    -6600.00
02447            1020.00    -6600.00
02448             960.00    -6600.00
02449             940.00    -6600.00
02450             900.00    -6400.00
02451             860.00    -6200.00
02452             820.00    -6200.00
02453             800.00    -6000.00
02454             780.00    -6000.00
02455             740.00    -6000.00
02456             700.00    -5800.00
02457             660.00    -5600.00
02458             640.00    -5800.00
02459             640.00    -5600.00
02460             620.00    -5400.00
02461             560.00    -5200.00
02462             540.00    -5000.00
02463             520.00    -5000.00
02464             480.00    -5000.00
02465             480.00    -5000.00
02466             460.00    -4800.00
02467             420.00    -4600.00
02468             420.00    -4600.00
02469             400.00    -4400.00
02470             380.00    -4400.00
02471             380.00    -4400.00
02472             340.00    -4200.00
02473             340.00    -4000.00
02474             320.00    -3800.00
02475             300.00    -3600.00
02476             280.00    -3600.00
02477             260.00    -3400.00
02478             260.00    -3400.00
02479             260.00    -3000.00
02480             240.00    -3000.00
02481             240.00    -2800.00
02482             220.00    -2800.00
02483             220.00    -2600.00
02484             180.00    -2600.00
02485             180.00    -2200.00
02486             180.00    -2200.00
02487             180.00    -2200.00
02488             160.00    -2200.00
02489             160.00    -1800.00
02490             140.00    -1800.00
02491             160.00    -1400.00
02492             140.00    -1200.00
02493             140.00    -1200.00
02494             140.00    -1000.00
02495             100.00    -1000.00
02496              80.00     -800.00
02497              80.00     -600.00
02498              80.00     -400.00
02499              80.00     -600.00
02500              80.00     -200.00
02501              80.00     -200.00
02502              60.00      200.00
02503              60.00      200.00
02504             100.00      400.00
02505             160.00      400.00
02506             160.00      600.00
02507             140.00      600.00
02508              80.00     1000.00
02509              60.00     1000.00
02510              60.00     1000.00
02511             160.00     1200.00
02512             760.00     1400.00
02513            1060.00     1600.00
02514             220.00     1800.00
02515           -1200.00     1600.00
02516           -2060.00     1600.00
02517            -460.00     2200.00
02518            1180.00     2200.00
02519               0.00     2200.00
02520             -60.00     2400.00
02521             720.00     2200.00
02522            -220.00     3000.00
02523            -340.00     3200.00
02524               0.00     2600.00
02525            -100.00     3600.00
02526             380.00     3400.00
02527            -240.00     3000.00
02528            -420.00     4000.00
02529             260.00     3800.00
02530            -420.00     3400.00
02531            -200.00     4200.00
02532             320.00     4000.00
02533            -320.00     4200.00
02534            -180.00     4400.00
02535             -20.00     4200.00
02536            -100.00     5000.00
02537            -140.00     4400.00
02538            -260.00     4600.00
02539               0.00     5200.00
02540            -180.00     4800.00
02541            -260.00     5200.00
02542            -120.00     5400.00
02543            -220.00     5600.00
02544            -100.00     5400.00
02545            -180.00     5400.00
02546            -160.00     5800.00
02547            -240.00     5800.00
02548            -300.00     5800.00
02549            -160.00     6000.00
02550            -260.00     5800.00
02551            -280.00     6200.00
02552            -260.00     6200.00
02553            -300.00     6200.00
02554            -300.00     6200.00
02555            -240.00     6200.00
02556            -240.00     6600.00
02557            -340.00     6400.00
02558            -380.00     6600.00
02559            -340.00     6600.00
02560            -340.00     6800.00
02561            -380.00     6800.00
02562            -340.00     7000.00
02563            -420.00     6800.00
02564            -480.00     7000.00
02565            -420.00     7000.00
02566            -400.00     7400.00
02567            -440.00     7000.00
02568            -480.00     7200.00
02569            -480.00     7400.00
02570            -500.00     7400.00
02571            -580.00     7400.00
02572            -560.00     7400.00
02573            -560.00     7600.00
02574            -560.00     7400.00
02575            -580.00     7400.00
02576            -640.00     7600.00
02577            -720.00     7600.00
02578            -700.00     7400.00
02579            -660.00     7600.00
02580            -700.00     7600.00
02581            -760.00     7400.00
02582            -800.00     7600.00
02583            -820.00     7600.00
02584            -880.00     7600.00
02585            -880.00     7600.00
02586            -880.00     7800.00
02587            -960.00     7800.00
02588            -980.00     7600.00
02589           -1040.00     7800.00
02590           -1060.00     7600.00
02591           -1120.00     7400.00
02592           -1140.00     7600.00
02593           -1140.00     7600.00
02594           -1180.00     7600.00
02595           -1200.00     7600.00
02596           -1200.00     7400.00
02597           -1260.00     7400.00
02598           -1280.00     7400.00
02599           -1280.00     7600.00
02600           -1280.00     7400.00
02601           -1280.00     7400.00
02602           -1260.00     7400.00
02603           -1260.00     7200.00
02604           -1260.00     7200.00
02605           -1260.00     7000.00
02606           -1220.00     7400.00
02607           -1180.00     7000.00
02608           -1180.00     7000.00
02609           -1160.00     7000.00
02610           -1140.00     6800.00
02611           -1120.00     6800.00
02612           -1060.00     6800.00
02613           -1040.00     6600.00
02614           -1020.00     6600.00
02615            -980.00     6600.00
02616            -960.00     6600.00
02617            -900.00     6400.00
02618            -880.00     6200.00
02619            -860.00     6200.00
02620            -820.00     6200.00
02621            -780.00     6000.00
02622            -740.00     6000.00
02623            -740.00     5800.00
02624            -700.00     5800.00
02625            -640.00     5800.00
02626            -620.00     5400.00
02627            -580.00     5400.00
02628            -580.00     5400.00
02629            -560.00     5200.00
02630            -540.00     5200.00
02631            -500.00     5000.00
02632            -480.00     4800.00
02633            -460.00     5000.00
02634            -460.00     4600.00
02635            -420.00     4600.00
02636            -420.00     4400.00
02637            -400.00     4200.00
02638            -380.00     4400.00
02639            -340.00     4200.00
02640            -320.00     4000.00
02641            -320.00     3800.00
02642            -320.00     3800.00
02643            -300.00     3600.00
02644            -300.00     3400.00
02645            -280.00     3400.00
02646            -240.00     3400.00
02647            -240.00     3200.00
02648            -240.00     3000.00
02649            -220.00     2800.00
02650            -220.00     2600.00
02651            -220.00     2600.00
02652            -200.00     2400.00
02653            -180.00     2200.00
02654            -160.00     2200.00
02655            -160.00     2000.00
02656            -160.00     1800.00
02657            -160.00     1800.00
02658            -140.00     1600.00
02659            -140.00     1400.00
02660            -100.00     1400.00
02661            -100.00     1200.00
02662            -100.00     1000.00
02663            -100.00     1000.00
02664            -100.00      600.00
02665            -100.00      600.00
02666             -80.00      400.00
02667             -60.00      400.00
02668             -60.00      200.00
02669             -60.00      200.00
02670             -20.00        0.00
02671             -20.00     -200.00
02672              60.00     -400.00
02673             100.00     -400.00
02674              80.00     -600.00
02675              20.00     -600.00
02676               0.00     -800.00
02677               0.00    -1000.00
02678              60.00    -1000.00
02679             240.00    -1200.00
02680             780.00    -1400.00
02681             860.00    -1800.00
02682              20.00    -2000.00
02683            -960.00    -2200.00
02684           -1600.00    -1800.00
02685            -460.00    -2000.00
02686             900.00    -2400.00
02687             100.00    -2200.00
02688              60.00    -2600.00
02689             580.00    -3000.00
02690              60.00    -2400.00
02691             100.00    -2800.00
02692             100.00    -3400.00
02693            -140.00    -3000.00
02694             460.00    -3200.00
02695             220.00    -3600.00
02696            -260.00    -3600.00
02697             140.00    -3800.00
02698              20.00    -3600.00
02699              60.00    -4200.00
02700             320.00    -4200.00
02701             100.00    -4000.00
02702               0.00    -4600.00
02703             160.00    -4600.00
02704             300.00    -4400.00
02705             100.00    -4600.00
02706              80.00    -5000.00
02707             260.00    -4800.00
02708             200.00    -4800.00
02709             100.00    -5200.00
02710             140.00    -5400.00
02711             220.00    -5000.00
02712             260.00    -5600.00
02713             200.00    -5800.00
02714             260.00    -5800.00
02715             240.00    -5600.00
02716             180.00    -6000.00
02717             320.00    -6000.00
02718             300.00    -6000.00
02719             200.00    -6200.00
02720             240.00    -6200.00
02721             340.00    -6000.00
02722             300.00    -6600.00
02723             300.00    -6600.00
02724             380.00    -6600.00
02725             340.00    -6600.00
02726             300.00    -6800.00
02727             360.00    -6800.00
02728             400.00    -6800.00
02729             380.00    -7000.00
02730             400.00    -7000.00
02731             420.00    -7000.00
02732             380.00    -7000.00
02733             420.00    -7200.00
02734             500.00    -7000.00
02735             500.00    -7000.00
02736             480.00    -7200.00
02737             500.00    -7200.00
02738             540.00    -7200.00
02739             500.00    -7400.00
02740             560.00    -7200.00
02741             620.00    -7400.00
02742             620.00    -7400.00
02743             620.00    -7600.00
02744             660.00    -7600.00
02745             660.00    -7600.00
02746             660.00    -7600.00
02747             740.00    -7600.00
02748             780.00    -7600.00
02749             780.00    -7600.00
02750             800.00    -7600.00
02751             860.00    -7600.00
02752             860.00    -7600.00
02753             880.00    -7800.00
02754             960.00    -7600.00
02755            1020.00    -7600.00
02756            1020.00    -7800.00
02757            1040.00    -7600.00
02758            1100.00    -7800.00
02759            1100.00    -7600.00
02760            1140.00    -7600.00
02761            1200.00    -7600.00
02762            1220.00    -7400.00
02763            1220.00    -7200.00
02764            1220.00    -7400.00
02765            1260.00    -7200.00
02766            1260.00    -7400.00
02767            1280.00    -7400.00
02768            1300.00    -7200.00
02769            1280.00    -7200.00
02770            1280.00    -7200.00
02771            1260.00    -7200.00
02772            1220.00    -7000.00
02773            1200.00    -7000.00
02774            1200.00    -7000.00
02775            1220.00    -7000.00
02776            1180.00    -7000.00
02777            1140.00    -7000.00
02778            1100.00    -7000.00
02779            1060.00    -6800.00
02780            1020.00    -6800.00
02781            1040.00    -6600.00
02782            1020.00    -6600.00
02783             940.00    -6600.00
02784             900.00    -6400.00
02785             880.00    -6200.00
02786             860.00    -6200.00
02787             840.00    -6200.00
02788             820.00    -6000.00
02789             780.00    -6000.00
02790             720.00    -6000.00
02791             680.00    -5600.00
02792             640.00    -5800.00
02793             640.00    -5600.00
02794             620.00    -5400.00
02795             600.00    -5400.00
02796             560.00    -5200.00
02797             540.00    -5000.00
02798             520.00    -5000.00
02799             480.00    -5000.00
02800             460.00    -4800.00
02801             460.00    -4600.00
02802             420.00    -4600.00
02803             400.00    -4400.00
02804             380.00    -4400.00
02805             380.00    -4200.00
02806             360.00    -4200.00
02807             340.00    -4000.00
02808             340.00    -3800.00
02809             320.00    -3800.00
02810             300.00    -3600.00
02811             280.00    -3600.00
02812             260.00    -3200.00
02813             240.00    -3400.00
02814             240.00    -3000.00
02815             260.00    -3000.00
02816             220.00    -3000.00
02817             220.00    -2800.00
02818             200.00    -2600.00
02819             200.00    -2400.00
02820             180.00    -2200.00
02821             160.00    -2200.00
02822             180.00    -2200.00
02823             140.00    -2000.00
02824             140.00    -1600.00
02825             140.00    -1800.00
02826             140.00    -1400.00
02827             140.00    -1400.00
02828             140.00    -1200.00
02829             140.00    -1200.00
02830             100.00     -800.00
02831              80.00     -800.00
02832              80.00     -600.00
02833              80.00     -600.00
02834              80.00     -400.00
02835              80.00     -200.00
02836              80.00     -200.00
02837              60.00      200.00
02838              60.00      200.00
02839             100.00      400.00
02840             160.00      400.00
02841             160.00      600.00
02842             120.00      800.00
02843              80.00      800.00
02844              80.00     1000.00
02845              80.00     1200.00
02846             340.00     1200.00
02847            1020.00     1600.00
02848             820.00     1800.00
02849            -340.00     1800.00
02850           -1760.00     1400.00
02851           -1640.00     2000.00
02852             560.00     2600.00
02853             860.00     2200.00
02854            -340.00     2400.00
02855             400.00     2400.00
02856             480.00     2600.00
02857            -480.00     3400.00
02858             -80.00     2800.00
02859             -60.00     3000.00
02860             100.00     3800.00
02861             280.00     3000.00
02862            -500.00     3200.00
02863             -60.00     4000.00
02864              60.00     3600.00
02865            -540.00     3800.00
02866             220.00     4200.00
02867              80.00     4000.00
02868            -380.00     4600.00
02869             -60.00     4200.00
02870             -80.00     4400.00
02871             -80.00     5000.00
02872            -240.00     4400.00
02873            -160.00     5000.00
02874               0.00     5000.00
02875            -300.00     5000.00
02876            -160.00     5200.00
02877            -180.00     5400.00
02878            -180.00     5600.00
02879            -100.00     5400.00
02880            -220.00     5600.00
02881            -160.00     5800.00
02882            -280.00     5600.00
02883            -240.00     6000.00
02884            -180.00     6000.00
02885            -260.00     6000.00
02886            -260.00     6200.00
02887            -260.00     6200.00
02888            -300.00     6400.00
02889            -300.00     6200.00
02890            -240.00     6400.00
02891            -300.00     6600.00
02892            -380.00     6600.00
02893            -340.00     6800.00
02894            -340.00     6800.00
02895            -320.00     6800.00
02896            -340.00     6800.00
02897            -380.00     7000.00
02898            -460.00     7000.00
02899            -460.00     7000.00
02900            -400.00     7200.00
02901            -420.00     7200.00
02902            -460.00     7400.00
02903            -480.00     7200.00
02904            -500.00     7400.00
02905            -540.00     7400.00
02906            -560.00     7400.00
02907            -540.00     7400.00
02908            -560.00     7400.00
02909            -580.00     7400.00
02910            -600.00     7600.00
02911            -640.00     7600.00
02912            -700.00     7600.00
02913            -660.00     7600.00
02914            -700.00     7600.00
02915            -740.00     7600.00
02916            -780.00     7600.00
02917            -800.00     7600.00
02918            -820.00     7600.00
02919            -880.00     7800.00
02920            -880.00     7800.00
02921            -900.00     7800.00
02922            -960.00     7800.00
02923            -980.00     7600.00
02924           -1020.00     7600.00
02925           -1060.00     7600.00
02926           -1120.00     7600.00
02927           -1120.00     7600.00
02928           -1140.00     7600.00
02929           -1180.00     7600.00
02930           -1220.00     7600.00
02931           -1220.00     7400.00
02932           -1260.00     7600.00
02933           -1260.00     7400.00
02934           -1260.00     7400.00
02935           -1280.00     7400.00
02936           -1280.00     7400.00
02937           -1260.00     7200.00
02938           -1280.00     7400.00
02939           -1280.00     7000.00
02940           -1240.00     7000.00
02941           -1200.00     7000.00
02942           -1200.00     7000.00
02943           -1180.00     7000.00
02944           -1140.00     6800.00
02945           -1140.00     6800.00
02946           -1100.00     6800.00
02947           -1040.00     6800.00
02948           -1020.00     6600.00
02949           -1000.00     6600.00
02950            -960.00     6600.00
02951            -940.00     6400.00
02952            -920.00     6200.00
02953            -880.00     6200.00
02954            -820.00     6000.00
02955            -800.00     6200.00
02956            -780.00     6000.00
02957            -740.00     5800.00
02958            -740.00     5800.00
02959            -700.00     5800.00
02960            -640.00     5600.00
02961            -620.00     5400.00
02962            -580.00     5400.00
02963            -580.00     5200.00
02964            -540.00     5200.00
02965            -540.00     5200.00
02966            -480.00     5000.00
02967            -480.00     5000.00
02968            -460.00     4800.00
02969            -420.00     4600.00
02970            -420.00     4400.00
02971            -400.00     4400.00
02972            -400.00     4200.00
02973            -340.00     4200.00
02974            -320.00     4200.00
02975            -320.00     3800.00
02976            -320.00     3800.00
02977            -320.00     3600.00
02978            -280.00     3600.00
02979            -260.00     3400.00
02980            -260.00     3400.00
02981            -240.00     3200.00
02982            -260.00     3000.00
02983            -240.00     3000.00
02984            -220.00     2800.00
02985            -200.00     2600.00
02986            -220.00     2600.00
02987            -200.00     2200.00
02988            -160.00     2200.00
02989            -160.00     2200.00
02990            -160.00     1800.00
02991            -160.00     1800.00
02992            -160.00     1800.00
02993            -140.00     1600.00
02994            -100.00     1400.00
02995            -100.00     1200.00
02996            -100.00     1000.00
02997            -100.00     1000.00
02998            -100.00      800.00
02999            -100.00      600.00
03000             -80.00      600.00
03001             -80.00      400.00
03002             -60.00      400.00
03003             -60.00      200.00
03004             -60.00        0.00
03005             -60.00     -200.00
03006               0.00     -200.00
03007              80.00     -200.00
03008              80.00     -600.00
03009              60.00     -600.00
03010              20.00    -1000.00
03011              20.00     -800.00
03012              20.00    -1000.00
03013              80.00    -1000.00
03014             460.00    -1400.00
03015             940.00    -1600.00
03016             560.00    -2000.00
03017            -420.00    -2000.00
03018           -1360.00    -2000.00
03019           -1360.00    -1800.00
03020             320.00    -2200.00
03021             720.00    -2600.00
03022            -140.00    -2200.00
03023             380.00    -2800.00
03024             460.00    -2800.00
03025             -20.00    -2400.00
03026             220.00    -3400.00
03027             -80.00    -3000.00
03028             100.00    -3000.00
03029             500.00    -3600.00
03030            -120.00    -3600.00
03031            -100.00    -3600.00
03032             140.00    -3800.00
03033             -60.00    -3800.00
03034             220.00    -4200.00
03035             260.00    -4000.00
03036               0.00    -4400.00
03037              80.00    -4600.00
03038             240.00    -4400.00
03039             240.00    -4600.00
03040               0.00    -4800.00
03041             160.00    -5000.00
03042             300.00    -4800.00
03043             140.00    -5000.00
03044             100.00    -5400.00
03045             160.00    -5000.00
03046             280.00    -5400.00
03047             240.00    -5600.00
03048             220.00    -5600.00
03049             260.00    -5800.00
03050             220.00    -5800.00
03051             240.00    -6000.00
03052             340.00    -6000.00
03053             240.00    -6000.00
03054             220.00    -6200.00
03055             300.00    -6200.00
03056             320.00    -6200.00
03057             300.00    -6400.00
03058             340.00    -6600.00
03059             380.00    -6600.00
03060             300.00    -6600.00
03061             320.00    -6800.00
03062             380.00    -6600.00
03063             380.00    -6800.00
03064             380.00    -7000.00
03065             420.00    -6800.00
03066             420.00    -7000.00
03067             400.00    -7000.00
03068             460.00    -7000.00
03069             540.00    -7000.00
03070             500.00    -7200.00
03071             500.00    -7200.00
03072             540.00    -7400.00
03073             520.00    -7200.00
03074             500.00    -7400.00
03075             580.00    -7200.00
03076             620.00    -7600.00
03077             620.00    -7400.00
03078             620.00    -7400.00
03079             700.00    -7200.00
03080             660.00    -7600.00
03081             700.00    -7600.00
03082             780.00    -7600.00
03083             780.00    -7600.00
03084             780.00    -7800.00
03085             820.00    -7600.00
03086             860.00    -7800.00
03087             860.00    -7600.00
03088             880.00    -7600.00
03089             980.00    -7400.00
03090            1020.00    -7600.00
03091            1040.00    -7600.00
03092            1100.00    -7600.00
03093            1100.00    -7200.00
03094            1100.00    -7600.00
03095            1140.00    -7600.00
03096            1200.00    -7400.00
03097            1200.00    -7600.00
03098            1200.00    -7600.00
03099            1260.00    -7400.00
03100            1260.00    -7400.00
03101            1260.00    -7200.00
03102            1280.00    -7200.00
03103            1300.00    -7400.00
03104            1280.00    -7200.00
03105            1260.00    -7200.00
03106            1240.00    -7200.00
03107            1220.00    -7000.00
03108            1200.00    -7200.00
03109            1240.00    -7000.00
03110            1200.00    -7000.00
03111            1140.00    -7000.00
03112            1060.00    -6800.00
03113            1100.00    -6800.00
03114            1120.00    -6800.00
03115            1060.00    -6600.00
03116            1020.00    -6600.00
03117             960.00    -6400.00
03118             940.00    -6200.00
03119             860.00    -6200.00
03120             860.00    -6200.00
03121             880.00    -6200.00
03122             860.00    -6000.00
03123             780.00    -6200.00
03124             740.00    -6000.00
03125             740.00    -5800.00
03126             700.00    -5800.00
03127             640.00    -5800.00
03128             640.00    -5400.00
03129             620.00    -5400.00
03130             560.00    -5400.00
03131             540.00    -5200.00
03132             540.00    -5000.00
03133             500.00    -5000.00
03134             480.00    -5000.00
03135             480.00    -4600.00
03136             480.00    -4600.00
03137             420.00    -4600.00
03138             380.00    -4400.00
03139             380.00    -4400.00
03140             340.00    -4200.00
03141             340.00    -4000.00
03142             320.00    -3800.00
03143             340.00    -3800.00
03144             300.00    -3600.00
03145             260.00    -3600.00
03146             300.00    -3400.00
03147             300.00    -3400.00
03148             260.00    -3200.00
03149             220.00    -3000.00
03150             220.00    -3000.00
03151             180.00    -2800.00
03152             180.00    -2800.00
03153             200.00    -2600.00
03154             200.00    -2400.00
03155             180.00    -2200.00
03156             160.00    -2200.00
03157             160.00    -2000.00
03158             140.00    -2000.00
03159             140.00    -1600.00
03160             140.00    -1400.00
03161             140.00    -1400.00
03162             140.00    -1200.00
03163             100.00    -1200.00
03164              80.00     -800.00
03165              80.00     -800.00
03166             100.00     -600.00
03167             100.00     -600.00
03168             100.00     -400.00
03169              80.00     -400.00
03170              60.00     -200.00
03171              60.00        0.00
03172              60.00      200.00
03173             100.00      200.00
03174             160.00      400.00
03175             160.00      600.00
03176             140.00      600.00
03177             100.00      800.00
03178              60.00      800.00
03179              60.00     1000.00
03180             120.00     1200.00
03181             680.00     1400.00
03182            1100.00     1800.00
03183             400.00     1800.00
03184            -980.00     1800.00
03185           -2080.00     1400.00
03186            -740.00     2200.00
03187            1140.00     2600.00
03188             160.00     2200.00
03189            -180.00     2400.00
03190             720.00     2200.00
03191             -60.00     3000.00
03192            -400.00     3200.00
03193               0.00     2400.00
03194            -100.00     3400.00
03195             320.00     3600.00
03196            -100.00     2800.00
03197            -460.00     3800.00
03198             240.00     4000.00
03199            -320.00     3600.00
03200            -320.00     4200.00
03201             340.00     4000.00
03202            -260.00     4200.00
03203            -240.00     4400.00
03204               0.00     4000.00
03205            -100.00     4800.00
03206            -140.00     4400.00
03207            -260.00     4400.00
03208             -20.00     5400.00
03209            -160.00     4600.00
03210            -280.00     5200.00
03211            -140.00     5400.00
03212            -220.00     5400.00
03213            -140.00     5600.00
03214            -160.00     5200.00
03215            -180.00     5800.00
03216            -220.00     5800.00
03217            -320.00     5800.00
03218            -160.00     6000.00
03219            -240.00     5800.00
03220            -300.00     6000.00
03221            -260.00     6200.00
03222            -300.00     6200.00
03223            -320.00     6400.00
03224            -260.00     6200.00
03225            -240.00     6600.00
03226            -320.00     6400.00
03227            -380.00     6600.00
03228            -340.00     6600.00
03229            -340.00     6600.00
03230            -380.00     6800.00
03231            -360.00     7000.00
03232            -400.00     7000.00
03233            -460.00     6800.00
03234            -420.00     7000.00
03235            -400.00     7200.00
03236            -460.00     7000.00
03237            -480.00     7200.00
03238            -480.00     7400.00
03239            -500.00     7400.00
03240            -560.00     7400.00
03241            -520.00     7400.00
03242            -540.00     7400.00
03243            -580.00     7400.00
03244            -580.00     7600.00
03245            -620.00     7600.00
03246            -680.00     7600.00
03247            -700.00     7600.00
03248            -660.00     7400.00
03249            -700.00     7600.00
03250            -780.00     7600.00
03251            -800.00     7800.00
03252            -800.00     7600.00
03253            -860.00     7600.00
03254            -880.00     7600.00
03255            -880.00     7600.00
03256            -940.00     7800.00
03257            -980.00     7600.00
03258           -1020.00     7600.00
03259           -1060.00     7600.00
03260           -1120.00     7600.00
03261           -1140.00     7600.00
03262           -1120.00     7600.00
03263           -1140.00     7400.00
03264           -1200.00     7400.00
03265           -1220.00     7600.00
03266           -1260.00     7400.00
03267           -1280.00     7600.00
03268           -1260.00     7400.00
03269           -1260.00     7400.00
03270           -1260.00     7400.00
03271           -1280.00     7400.00
03272           -1260.00     7200.00
03273           -1280.00     7200.00
03274           -1260.00     7000.00
03275           -1220.00     7000.00
03276           -1160.00     7000.00
03277           -1140.00     7000.00
03278           -1140.00     7000.00
03279           -1140.00     7000.00
03280           -1140.00     6600.00
03281           -1100.00     6600.00
03282           -1040.00     6600.00
03283           -1020.00     6600.00
03284            -980.00     6600.00
03285            -960.00     6600.00
03286            -940.00     6200.00
03287            -900.00     6200.00
03288            -860.00     6200.00
03289            -800.00     6000.00
03290            -780.00     6000.00
03291            -740.00     6000.00
03292            -740.00     5800.00
03293            -720.00     5800.00
03294            -680.00     5600.00
03295            -640.00     5400.00
03296            -600.00     5600.00
03297            -560.00     5400.00
03298            -560.00     5200.00
03299            -540.00     5200.00
03300            -500.00     5000.00
03301            -500.00     4800.00
03302            -460.00     5000.00
03303            -460.00     4800.00
03304            -420.00     4600.00
03305            -400.00     4400.00
03306            -400.00     4200.00
03307            -380.00     4200.00
03308            -340.00     4200.00
03309            -340.00     4200.00
03310            -320.00     3800.00
03311            -300.00     3800.00
03312            -320.00     3600.00
03313            -300.00     3400.00
03314            -260.00     3400.00
03315            -260.00     3200.00
03316            -260.00     3200.00
03317            -240.00     3000.00
03318            -240.00     3000.00
03319            -220.00     2800.00
03320            -180.00     2800.00
03321            -180.00     2600.00
03322            -180.00     2200.00
03323            -180.00     2200.00
03324            -180.00     2000.00
03325            -160.00     1800.00
03326            -140.00     1800.00
03327            -140.00     1600.00
03328            -140.00     1400.00
03329            -100.00     1400.00
03330            -100.00     1200.00
03331            -100.00     1000.00
03332            -100.00     1000.00
03333            -100.00     1000.00
03334            -100.00      600.00
03335            -100.00      400.00
03336             -80.00      400.00
03337             -60.00      200.00
03338             -60.00      200.00
03339             -60.00     -200.00
03340             -20.00     -200.00
03341              60.00     -400.00
03342              60.00     -600.00
03343              60.00     -600.00
03344              60.00     -800.00
03345               0.00    -1000.00
03346               0.00     -800.00
03347              20.00    -1000.00
03348             180.00    -1200.00
03349             720.00    -1400.00
03350             880.00    -1800.00
03351             160.00    -2000.00
03352            -880.00    -2000.00
03353           -1580.00    -2000.00
03354            -700.00    -1800.00
03355             820.00    -2400.00
03356             220.00    -2400.00
03357             -20.00    -2400.00
03358             580.00    -3000.00
03359             160.00    -2600.00
03360              80.00    -2800.00
03361             140.00    -3400.00
03362            -160.00    -3000.00
03363             400.00    -3200.00
03364             300.00    -3600.00
03365            -280.00    -3600.00
03366              60.00    -3800.00
03367              60.00    -3600.00
03368              20.00    -4200.00
03369             300.00    -4400.00
03370             140.00    -4000.00
03371             -20.00    -4400.00
03372             160.00    -4600.00
03373             320.00    -4400.00
03374             160.00    -4600.00
03375              60.00    -5000.00
03376             240.00    -5000.00
03377             220.00    -5000.00
03378             100.00    -5200.00
03379             140.00    -5400.00
03380             240.00    -5200.00
03381             300.00    -5600.00
03382             220.00    -5600.00
03383             260.00    -5400.00
03384             240.00    -5800.00
03385             180.00    -5800.00
03386             300.00    -6000.00
03387             320.00    -6000.00
03388             220.00    -6200.00
03389             240.00    -6200.00
03390             340.00    -6200.00
03391             300.00    -6200.00
03392             280.00    -6600.00
03393             380.00    -6600.00
03394             380.00    -6600.00
03395             300.00    -6600.00
03396             360.00    -6800.00
03397             400.00    -6800.00
03398             380.00    -7000.00
03399             380.00    -7000.00
03400             420.00    -7000.00
03401             400.00    -7200.00
03402             400.00    -7000.00
03403             480.00    -7200.00
03404             540.00    -7000.00
03405             480.00    -7200.00
03406             480.00    -7400.00
03407             520.00    -7200.00
03408             500.00    -7200.00
03409             540.00    -7400.00
03410             600.00    -7200.00
03411             620.00    -7400.00
03412             620.00    -7600.00
03413             660.00    -7400.00
03414             660.00    -7600.00
03415             640.00    -7800.00
03416             740.00    -7600.00
03417             780.00    -7600.00
03418             780.00    -7800.00
03419             800.00    -7800.00
03420             840.00    -7800.00
03421             860.00    -7600.00
03422             880.00    -7600.00
03423             940.00    -7600.00
03424             980.00    -7600.00
03425            1020.00    -7600.00
03426            1040.00    -7600.00
03427            1100.00    -7600.00
03428            1120.00    -7600.00
03429            1120.00    -7800.00
03430            1180.00    -7400.00
03431            1200.00    -7600.00
03432            1220.00    -7600.00
03433            1240.00    -7400.00
03434            1260.00    -7200.00
03435            1260.00    -7600.00
03436            1280.00    -7200.00
03437            1300.00    -7400.00
03438            1280.00    -7200.00
03439            1260.00    -7200.00
03440            1260.00    -7200.00
03441            1260.00    -7400.00
03442            1220.00    -7000.00
03443            1200.00    -7000.00
03444            1200.00    -7000.00
03445            1200.00    -7000.00
03446            1180.00    -6800.00
03447            1100.00    -6800.00
03448            1040.00    -6800.00
03449            1060.00    -6800.00
03450            1060.00    -6600.00
03451            1020.00    -6600.00
03452             960.00    -6400.00
03453             940.00    -6400.00
03454             860.00    -6200.00
03455             820.00    -6200.00
03456             820.00    -6200.00
03457             860.00    -6000.00
03458             800.00    -6000.00
03459             740.00    -6000.00
03460             700.00    -5800.00
03461             640.00    -5600.00
03462             620.00    -5600.00
03463             620.00    -5400.00
03464             640.00    -5400.00
03465             580.00    -5400.00
03466             540.00    -5200.00
03467             500.00    -5000.00
03468             480.00    -5000.00
03469             460.00    -5000.00
03470             480.00    -4800.00
03471             440.00    -4600.00
03472             400.00    -4600.00
03473             380.00    -4400.00
03474             340.00    -4200.00
03475             360.00    -4200.00
03476             340.00    -4200.00
03477             320.00    -3800.00
03478             300.00    -3800.00
03479             300.00    -3600.00
03480             280.00    -3400.00
03481             260.00    -3400.00
03482             240.00    -3400.00
03483             260.00    -3200.00
03484             220.00    -3000.00
03485             220.00    -3000.00
03486             220.00    -2600.00
03487             180.00    -2600.00
03488             180.00    -2600.00
03489             180.00    -2400.00
03490             180.00    -2200.00
03491             160.00    -2000.00
03492             160.00    -1800.00
03493             140.00    -1800.00
03494             140.00    -1800.00
03495             140.00    -1400.00
03496             140.00    -1400.00
03497             140.00    -1200.00
03498             100.00     -800.00
03499             100.00    -1000.00
03500              80.00     -800.00
03501              80.00     -600.00
03502              80.00     -400.00
03503              80.00     -600.00
03504              80.00     -200.00
03505              80.00     -200.00
03506              80.00      200.00
03507              60.00      200.00
03508              80.00      200.00
03509             160.00      400.00
03510             160.00      600.00
03511             140.00      600.00
03512              80.00     1000.00
03513              60.00     1000.00
03514              80.00     1000.00
03515             260.00     1200.00
03516             980.00     1400.00
03517             900.00     1800.00
03518            -180.00     1800.00
03519           -1600.00     1400.00
03520           -1820.00     1800.00
03521             320.00     2600.00
03522            1020.00     2200.00
03523            -320.00     2200.00
03524             280.00     2200.00
03525             580.00     2600.00
03526            -420.00     3400.00
03527            -160.00     2800.00
03528             -20.00     2600.00
03529              20.00     3800.00
03530             320.00     3000.00
03531            -480.00     3000.00
03532            -160.00     4000.00
03533             160.00     3600.00
03534            -540.00     3600.00
03535             100.00     4200.00
03536             160.00     3800.00
03537            -380.00     4400.00
03538             -60.00     4200.00
03539             -80.00     4400.00
03540             -80.00     5000.00
03541            -240.00     4200.00
03542            -220.00     5000.00
03543               0.00     5000.00
03544            -300.00     4800.00
03545            -220.00     5200.00
03546            -160.00     5200.00
03547            -180.00     5600.00
03548            -120.00     5200.00
03549            -220.00     5400.00
03550            -180.00     5800.00
03551            -300.00     5600.00
03552            -260.00     6000.00
03553            -160.00     6000.00
03554            -300.00     6000.00
03555            -260.00     6200.00
03556            -280.00     6200.00
03557            -320.00     6200.00
03558            -300.00     6200.00
03559            -240.00     6200.00
03560            -260.00     6600.00
03561            -380.00     6400.00
03562            -380.00     6600.00
03563            -340.00     6800.00
03564            -340.00     6800.00
03565            -380.00     6800.00
03566            -380.00     7000.00
03567            -460.00     7000.00
03568            -460.00     7000.00
03569            -400.00     7000.00
03570            -420.00     7200.00
03571            -460.00     7000.00
03572            -480.00     7200.00
03573            -500.00     7200.00
03574            -560.00     7400.00
03575            -540.00     7400.00
03576            -540.00     7400.00
03577            -560.00     7400.00
03578            -580.00     7400.00
03579            -580.00     7600.00
03580            -640.00     7600.00
03581            -700.00     7400.00
03582            -660.00     7400.00
03583            -660.00     7600.00
03584            -720.00     7600.00
03585            -780.00     7600.00
03586            -780.00     7800.00
03587            -820.00     7600.00
03588            -880.00     7800.00
03589            -880.00     7600.00
03590            -900.00     7800.00
03591            -960.00     7600.00
03592            -980.00     7600.00
03593           -1020.00     7800.00
03594           -1060.00     7600.00
03595           -1140.00     7400.00
03596           -1120.00     7600.00
03597           -1120.00     7600.00
03598           -1180.00     7400.00
03599           -1200.00     7600.00
03600           -1220.00     7600.00
03601           -1260.00     7600.00
03602           -1280.00     7400.00
03603           -1260.00     7400.00
03604           -1280.00     7200.00
03605           -1280.00     7400.00
03606           -1260.00     7400.00
03607           -1280.00     7200.00
03608           -1280.00     7200.00
03609           -1260.00     7000.00
03610           -1200.00     7000.00
03611           -1180.00     7000.00
03612           -1160.00     7000.00
03613           -1140.00     6800.00
03614           -1140.00     6800.00
03615           -1100.00     6800.00
03616           -1060.00     6800.00
03617           -1020.00     6600.00
03618            -980.00     6600.00
03619            -960.00     6600.00
03620            -960.00     6600.00
03621            -900.00     6200.00
03622            -900.00     6200.00
03623            -840.00     6000.00
03624            -800.00     6000.00
03625            -740.00     6000.00
03626            -740.00     5800.00
03627            -740.00     5800.00
03628            -700.00     5800.00
03629            -640.00     5600.00
03630            -580.00     5400.00
03631            -580.00     5400.00
03632            -580.00     5400.00
03633            -560.00     5200.00
03634            -540.00     5200.00
03635            -500.00     5000.00
03636            -480.00     4800.00
03637            -420.00     4600.00
03638            -420.00     4600.00
03639            -420.00     4400.00
03640            -400.00     4400.00
03641            -380.00     4400.00
03642            -360.00     4200.00
03643            -340.00     4200.00
03644            -320.00     3800.00
03645            -320.00     3800.00
03646            -320.00     3600.00
03647            -300.00     3600.00
03648            -260.00     3400.00
03649            -240.00     3400.00
03650            -240.00     3200.00
03651            -240.00     3000.00
03652            -240.00     3000.00
03653            -220.00     2800.00
03654            -220.00     2800.00
03655            -220.00     2600.00
03656            -200.00     2200.00
03657            -160.00     2200.00
03658            -160.00     2000.00
03659            -160.00     2000.00
03660            -180.00     1800.00
03661            -160.00     1600.00
03662            -140.00     1600.00
03663            -100.00     1400.00
03664             -80.00     1200.00
03665            -100.00     1200.00
03666            -140.00     1000.00
03667            -140.00     1000.00
03668            -100.00      600.00
03669            -100.00      600.00
03670             -60.00      600.00
03671             -60.00      200.00
03672             -80.00      200.00
03673             -80.00     -200.00
03674             -60.00     -200.00
03675               0.00     -400.00
03676              60.00     -400.00
03677             100.00     -600.00
03678              60.00     -600.00
03679              20.00     -800.00
03680               0.00    -1000.00
03681               0.00    -1000.00
03682              80.00    -1200.00
03683             380.00    -1200.00
03684             900.00    -1600.00
03685             640.00    -1800.00
03686            -300.00    -1800.00
03687           -1260.00    -2200.00
03688           -1480.00    -1800.00
03689             100.00    -2000.00
03690             800.00    -2600.00
03691            -100.00    -2200.00
03692             300.00    -2800.00
03693             520.00    -2800.00
03694             -20.00    -2400.00
03695             180.00    -3200.00
03696             -40.00    -3400.00
03697               0.00    -3000.00
03698             540.00    -3400.00
03699             -20.00    -3800.00
03700            -180.00    -3600.00
03701             160.00    -3800.00
03702             -20.00    -3800.00
03703             160.00    -4200.00
03704             300.00    -4200.00
03705              40.00    -4200.00
03706              60.00    -4600.00
03707             260.00    -4400.00
03708             280.00    -4400.00
03709              40.00    -4800.00
03710             140.00    -5000.00
03711             300.00    -5000.00
03712             160.00    -5000.00
03713             140.00    -5400.00
03714             160.00    -5200.00
03715             260.00    -5200.00
03716             240.00    -5600.00
03717             200.00    -5600.00
03718             280.00    -5800.00
03719             240.00    -6000.00
03720             240.00    -6000.00
03721             340.00    -6000.00
03722             240.00    -6000.00
03723             180.00    -6200.00
03724             300.00    -6200.00
03725             340.00    -6200.00
03726             300.00    -6600.00
03727             300.00    -6400.00
03728             380.00    -6600.00
03729             320.00    -6600.00
03730             320.00    -6800.00
03731             400.00    -6800.00
03732             400.00    -6800.00
03733             380.00    -7000.00
03734             400.00    -7000.00
03735             400.00    -7000.00
03736             380.00    -7000.00
03737             460.00    -7000.00
03738             520.00    -7000.00
03739             500.00    -7200.00
03740             480.00    -7200.00
03741             520.00    -7400.00
03742             500.00    -7400.00
03743             500.00    -7400.00
03744             560.00    -7400.00
03745             620.00    -7400.00
03746             620.00    -7400.00
03747             640.00    -7600.00
03748             680.00    -7600.00
03749             660.00    -7600.00
03750             680.00    -7600.00
03751             760.00    -7400.00
03752             780.00    -7600.00
03753             780.00    -7600.00
03754             800.00    -7600.00
03755             860.00    -7600.00
03756             860.00    -7600.00
03757             900.00    -7600.00
03758             980.00    -7600.00
03759            1020.00    -7600.00
03760            1020.00    -7600.00
03761            1060.00    -7600.00
03762            1100.00    -7600.00
03763            1100.00    -7600.00
03764            1160.00    -7400.00
03765            1200.00    -7400.00
03766            1200.00    -7600.00
03767            1220.00    -7600.00
03768            1260.00    -7400.00
03769            1260.00    -7600.00
03770            1260.00    -7200.00
03771            1280.00    -7200.00
03772            1300.00    -7200.00
03773            1280.00    -7400.00
03774            1280.00    -7200.00
03775            1260.00    -7000.00
03776            1220.00    -7000.00
03777            1220.00    -7000.00
03778            1220.00    -7000.00
03779            1200.00    -7000.00
03780            1180.00    -7000.00
03781            1120.00    -6800.00
03782            1120.00    -6800.00
03783            1060.00    -6600.00
03784            1040.00    -6600.00
03785            1040.00    -6600.00
03786             980.00    -6600.00
03787             940.00    -6600.00
03788             920.00    -6400.00
03789             880.00    -6200.00
03790             820.00    -6200.00
03791             820.00    -6000.00
03792             800.00    -6000.00
03793             780.00    -5800.00
03794             720.00    -5800.00
03795             700.00    -5800.00
03796             640.00    -5600.00
03797             640.00    -5400.00
03798             620.00    -5400.00
03799             600.00    -5400.00
03800             540.00    -5200.00
03801             500.00    -5000.00
03802             480.00    -5000.00
03803             460.00    -5000.00
03804             460.00    -4800.00
03805             460.00    -4600.00
03806             420.00    -4600.00
03807             400.00    -4600.00
03808             360.00    -4400.00
03809             340.00    -4200.00
03810             320.00    -4200.00
03811             340.00    -4000.00
03812             320.00    -3800.00
03813             300.00    -3800.00
03814             260.00    -3600.00
03815             260.00    -3400.00
03816             260.00    -3400.00
03817             240.00    -3400.00
03818             240.00    -3000.00
03819             240.00    -3000.00
03820             220.00    -2800.00
03821             200.00    -2600.00
03822             180.00    -2600.00
03823             160.00    -2600.00
03824             160.00    -2200.00
03825             180.00    -2200.00
03826             180.00    -2200.00
03827             140.00    -1800.00
03828             140.00    -1800.00
03829             140.00    -1400.00
03830             140.00    -1400.00
03831             120.00    -1400.00
03832             140.00    -1200.00
03833             120.00     -800.00
03834             100.00     -800.00
03835              80.00     -600.00
03836             100.00     -600.00
03837              80.00     -400.00
03838              80.00     -200.00
03839              80.00     -200.00
03840              80.00        0.00
03841              80.00      200.00
03842              80.00      400.00
03843             140.00      400.00
03844             160.00      600.00
03845             160.00      600.00
03846             140.00      800.00
03847              80.00     1000.00
03848              80.00     1000.00
03849              80.00     1200.00
03850             560.00     1400.00
03851            1120.00     1800.00
03852             540.00     1800.00
03853            -800.00     1800.00
03854           -2020.00     1600.00
03855           -1040.00     2200.00
03856            1060.00     2600.00
03857             360.00     2000.00
03858            -260.00     2600.00
03859             640.00     2400.00
03860              80.00     3000.00
03861            -460.00     3400.00
03862               0.00     2600.00
03863            -100.00     3400.00
03864             280.00     3600.00
03865               0.00     2800.00
03866            -560.00     3800.00
03867             160.00     3800.00
03868            -220.00     3400.00
03869            -400.00     4000.00
03870             320.00     4000.00
03871            -160.00     4200.00
03872            -300.00     4600.00
03873             -20.00     4000.00
03874            -100.00     4600.00
03875            -100.00     4600.00
03876            -300.00     4600.00
03877             -60.00     5200.00
03878            -100.00     4600.00
03879            -300.00     5000.00
03880            -160.00     5200.00
03881            -240.00     5200.00
03882            -140.00     5600.00
03883            -160.00     5200.00
03884            -200.00     5800.00
03885            -200.00     5800.00
03886            -320.00     5800.00
03887            -180.00     6000.00
03888            -220.00     5800.00
03889            -300.00     6000.00
03890            -260.00     6200.00
03891            -300.00     6200.00
03892            -300.00     6400.00
03893            -260.00     6200.00
03894            -240.00     6600.00
03895            -320.00     6600.00
03896            -380.00     6600.00
03897            -340.00     6800.00
03898            -320.00     6800.00
03899            -340.00     6800.00
03900            -340.00     7000.00
03901            -400.00     7000.00
03902            -480.00     6800.00
03903            -420.00     7000.00
03904            -380.00     7400.00
03905            -420.00     7000.00
03906            -460.00     7000.00
03907            -480.00     7200.00
03908            -500.00     7400.00
03909            -560.00     7400.00
03910            -540.00     7400.00
03911            -540.00     7400.00
03912            -560.00     7600.00
03913            -580.00     7400.00
03914            -580.00     7600.00
03915            -660.00     7600.00
03916            -720.00     7600.00
03917            -660.00     7600.00
03918            -700.00     7600.00
03919            -760.00     7600.00
03920            -780.00     7600.00
03921            -800.00     7600.00
03922            -860.00     7600.00
03923            -900.00     7600.00
03924            -880.00     7600.00
03925            -940.00     7800.00
03926            -980.00     7600.00
03927            -980.00     7600.00
03928           -1040.00     7600.00
03929           -1100.00     7600.00
03930           -1140.00     7600.00
03931           -1120.00     7600.00
03932           -1180.00     7600.00
03933           -1200.00     7400.00
03934           -1220.00     7600.00
03935           -1260.00     7400.00
03936           -1260.00     7400.00
03937           -1280.00     7400.00
03938           -1260.00     7400.00
03939           -1280.00     7400.00
03940           -1280.00     7400.00
03941           -1260.00     7400.00
03942           -1280.00     7000.00
03943           -1260.00     7000.00
03944           -1220.00     7000.00
03945           -1200.00     7000.00
03946           -1180.00     7000.00
03947           -1160.00     7000.00
03948           -1140.00     7000.00
03949           -1120.00     6800.00
03950           -1100.00     6800.00
03951           -1060.00     6600.00
03952           -1020.00     6600.00
03953            -980.00     6600.00
03954            -960.00     6200.00
03955            -940.00     6400.00
03956            -900.00     6200.00
03957            -860.00     6200.00
03958            -820.00     6200.00
03959            -780.00     6000.00
03960            -740.00     6000.00
03961            -720.00     5800.00
03962            -720.00     5600.00
03963            -660.00     5800.00
03964            -640.00     5600.00
03965            -580.00     5400.00
03966            -560.00     5400.00
03967            -540.00     5400.00
03968            -500.00     5000.00
03969            -500.00     5200.00
03970            -480.00     5000.00
03971            -480.00     5000.00
03972            -440.00     4600.00
03973            -420.00     4600.00
03974            -400.00     4400.00
03975            -400.00     4200.00
03976            -380.00     4200.00
03977            -340.00     4200.00
03978            -320.00     4200.00
03979            -320.00     3800.00
03980            -320.00     3800.00
03981            -300.00     3800.00
03982            -300.00     3600.00
03983            -260.00     3400.00
03984            -260.00     3400.00
03985            -240.00     3000.00
03986            -240.00     3000.00
03987            -220.00     3000.00
03988            -220.00     2800.00
03989            -180.00     2600.00
03990            -180.00     2400.00
03991            -180.00     2200.00
03992            -160.00     2000.00
03993            -180.00     2000.00
03994            -160.00     2000.00
03995            -160.00     1600.00
03996            -160.00     1800.00
03997            -140.00     1400.00
03998            -100.00     1400.00
03999            -120.00     1200.00
04000            -100.00     1000.00
04001            -100.00     1000.00
04002            -100.00      800.00
04003            -100.00      600.00
04004            -100.00      400.00
04005             -80.00      400.00
04006             -60.00      200.00
04007             -60.00      200.00
04008             -60.00     -200.00
04009             -40.00     -200.00
04010              60.00     -400.00
04011              80.00     -400.00
04012              80.00     -600.00
04013              40.00     -800.00
04014               0.00    -1000.00
04015               0.00    -1000.00
04016              20.00    -1200.00
04017             160.00    -1200.00
04018             640.00    -1400.00
04019             900.00    -1800.00
04020             260.00    -2000.00
04021            -740.00    -2200.00
04022           -1540.00    -2000.00
04023            -900.00    -1800.00
04024             740.00    -2200.00
04025             380.00    -2200.00
04026             -80.00    -2400.00
04027             540.00    -3000.00
04028             240.00    -2600.00
04029              20.00    -2600.00
04030             160.00    -3400.00
04031            -160.00    -3200.00
04032             300.00    -3000.00
04033             380.00    -3600.00
04034            -240.00    -3400.00
04035              40.00    -3800.00
04036              80.00    -3600.00
04037             -20.00    -4000.00
04038             300.00    -4200.00
04039             180.00    -4000.00
04040             -20.00    -4400.00
04041             160.00    -4600.00
04042             320.00    -4400.00
04043             160.00    -5000.00
04044              40.00    -4800.00
04045             240.00    -5000.00
04046             260.00    -5000.00
04047             120.00    -5000.00
04048             140.00    -5400.00
04049             220.00    -5000.00
04050             300.00    -5400.00
04051             220.00    -5600.00
04052             240.00    -5600.00
04053             260.00    -5800.00
04054             180.00    -5800.00
04055             300.00    -6000.00
04056             320.00    -6000.00
04057             180.00    -6200.00
04058             220.00    -6200.00
04059             320.00    -6200.00
04060             320.00    -6200.00
04061             260.00    -6600.00
04062             340.00    -6600.00
04063             380.00    -6600.00
04064             300.00    -6600.00
04065             320.00    -6800.00
04066             400.00    -6800.00
04067             380.00    -7000.00
04068             400.00    -7000.00
04069             400.00    -7000.00
04070             400.00    -7000.00
04071             400.00    -7200.00
04072             460.00    -7000.00
04073             540.00    -7200.00
04074             500.00    -7400.00
04075             480.00    -7200.00
04076             500.00    -7400.00
04077             500.00    -7200.00
04078             520.00    -7400.00
04079             600.00    -7400.00
04080             640.00    -7400.00
04081             620.00    -7600.00
04082             640.00    -7600.00
04083             660.00    -7600.00
04084             640.00    -7600.00
04085             700.00    -7600.00
04086             780.00    -7600.00
04087             780.00    -7600.00
04088             800.00    -7800.00
04089             820.00    -7600.00
04090             860.00    -7600.00
04091             860.00    -7600.00
04092             960.00    -7600.00
04093             980.00    -7600.00
04094            1020.00    -7600.00
04095            1040.00    -7800.00
04096            1100.00    -7600.00
04097            1100.00    -7600.00
04098            1120.00    -7600.00
04099            1180.00    -7600.00
04100            1220.00    -7200.00
04101            1240.00    -7200.00
04102            1260.00    -7600.00
04103            1280.00    -7400.00
04104            1280.00    -7400.00
04105            1260.00    -7400.00
04106            1280.00    -7200.00
04107            1280.00    -7400.00
04108            1280.00    -7200.00
04109            1280.00    -7000.00
04110            1260.00    -7000.00
04111            1220.00    -7200.00
04112            1220.00    -7200.00
04113            1220.00    -7000.00
04114            1180.00    -7000.00
04115            1140.00    -7000.00
04116            1120.00    -6800.00
04117            1100.00    -6600.00
04118            1080.00    -6600.00
04119            1060.00    -6600.00
04120            1020.00    -6600.00
04121             960.00    -6400.00
04122             920.00    -6400.00
04123             900.00    -6200.00
04124             860.00    -6200.00
04125             860.00    -6200.00
04126             820.00    -6000.00
04127             780.00    -6000.00
04128             720.00    -5800.00
04129             700.00    -5800.00
04130             660.00    -5800.00
04131             640.00    -5800.00
04132             620.00    -5600.00
04133             600.00    -5400.00
04134             560.00    -5200.00
04135             520.00    -5200.00
04136             500.00    -5200.00
04137             480.00    -5000.00
04138             460.00    -4800.00
04139             460.00    -4600.00
04140             460.00    -4600.00
04141             400.00    -4600.00
04142             380.00    -4600.00
04143             360.00    -4400.00
04144             320.00    -4400.00
04145             340.00    -4200.00
04146             320.00    -3800.00
04147             320.00    -3800.00
04148             300.00    -3800.00
04149             300.00    -3600.00
04150             260.00    -3400.00
04151             220.00    -3200.00
04152             240.00    -3400.00
04153             240.00    -3000.00
04154             240.00    -2800.00
04155             220.00    -2800.00
04156             220.00    -2600.00
04157             180.00    -2400.00
04158             180.00    -2200.00
04159             160.00    -2200.00
04160             180.00    -2200.00
04161             160.00    -2000.00
04162             160.00    -1800.00
04163             140.00    -1800.00
04164             140.00    -1400.00
04165             140.00    -1200.00
04166             140.00    -1200.00
04167             140.00    -1000.00
04168             100.00     -800.00
04169             100.00     -800.00
04170             100.00     -600.00
04171              80.00     -600.00
04172              80.00     -400.00
04173              80.00     -200.00
04174              80.00        0.00
04175              80.00        0.00
04176              60.00      200.00
04177             100.00      400.00
04178             160.00      400.00
04179             160.00      600.00
04180             140.00      600.00
04181             100.00     1000.00
04182              60.00     1000.00
04183              80.00     1000.00
04184             220.00     1200.00
04185             900.00     1600.00
04186            1000.00     1800.00
04187             -20.00     1800.00
04188           -1440.00     1600.00
04189           -1940.00     1800.00
04190               0.00     2200.00
04191            1120.00     2200.00
04192            -220.00     2200.00
04193             100.00     2600.00
04194             640.00     2400.00
04195            -380.00     3200.00
04196            -240.00     3000.00
04197             -20.00     2800.00
04198             -20.00     3800.00
04199             380.00     3200.00
04200            -400.00     3000.00
04201            -300.00     4000.00
04202             220.00     3800.00
04203            -540.00     3600.00
04204             -20.00     4200.00
04205             240.00     4000.00
04206            -380.00     4400.00
04207            -100.00     4200.00
04208             -60.00     4200.00
04209            -100.00     5000.00
04210            -180.00     4400.00
04211            -240.00     5000.00
04212               0.00     5200.00
04213            -260.00     4600.00
04214            -240.00     5200.00
04215            -160.00     5200.00
04216            -220.00     5400.00
04217            -100.00     5400.00
04218            -220.00     5400.00
04219            -160.00     5800.00
04220            -260.00     5800.00
04221            -300.00     5800.00
04222            -160.00     6000.00
04223            -260.00     6000.00
04224            -300.00     6200.00
04225            -280.00     6000.00
04226            -300.00     6200.00
04227            -300.00     6200.00
04228            -240.00     6400.00
04229            -260.00     6600.00
04230            -380.00     6600.00
04231            -380.00     6600.00
04232            -320.00     6800.00
04233            -320.00     6800.00
04234            -360.00     6800.00
04235            -340.00     7000.00
04236            -420.00     7200.00
04237            -460.00     7000.00
04238            -400.00     7000.00
04239            -400.00     7200.00
04240            -440.00     7000.00
04241            -480.00     7400.00
04242            -480.00     7400.00
04243            -520.00     7400.00
04244            -560.00     7400.00
04245            -540.00     7400.00
04246            -560.00     7600.00
04247            -560.00     7400.00
04248            -580.00     7600.00
04249            -640.00     7600.00
04250            -700.00     7600.00
04251            -700.00     7400.00
04252            -660.00     7600.00
04253            -720.00     7800.00
04254            -780.00     7800.00
04255            -780.00     7800.00
04256            -820.00     7600.00
04257            -880.00     7600.00
04258            -880.00     7600.00
04259            -900.00     7600.00
04260            -960.00     7800.00
04261            -980.00     7600.00
04262           -1020.00     7600.00
04263           -1080.00     7800.00
04264           -1120.00     7600.00
04265           -1140.00     7600.00
04266           -1140.00     7600.00
04267           -1180.00     7600.00
04268           -1220.00     7400.00
04269           -1220.00     7400.00
04270           -1260.00     7400.00
04271           -1280.00     7400.00
04272           -1280.00     7400.00
04273           -1280.00     7400.00
04274           -1280.00     7400.00
04275           -1260.00     7400.00
04276           -1260.00     7200.00
04277           -1280.00     7000.00
04278           -1260.00     7200.00
04279           -1220.00     7000.00
04280           -1200.00     7000.00
04281           -1180.00     7000.00
04282           -1160.00     6800.00
04283           -1140.00     6800.00
04284           -1120.00     6800.00
04285           -1060.00     6800.00
04286           -1040.00     6800.00
04287           -1000.00     6600.00
04288            -960.00     6600.00
04289            -940.00     6200.00
04290            -900.00     6400.00
04291            -880.00     6200.00
04292            -820.00     6200.00
04293            -800.00     6000.00
04294            -760.00     6000.00
04295            -740.00     5800.00
04296            -720.00     5800.00
04297            -700.00     5800.00
04298            -640.00     5800.00
04299            -600.00     5600.00
04300            -580.00     5400.00
04301            -560.00     5200.00
04302            -560.00     5200.00
04303            -520.00     5200.00
04304            -500.00     5000.00
04305            -480.00     5000.00
04306            -420.00     4800.00
04307            -420.00     4600.00
04308            -400.00     4600.00
04309            -400.00     4400.00
04310            -380.00     4400.00
04311            -340.00     4200.00
04312            -340.00     4200.00
04313            -320.00     4000.00
04314            -320.00     3800.00
04315            -320.00     3800.00
04316            -300.00     3600.00
04317            -260.00     3400.00
04318            -260.00     3400.00
04319            -240.00     3400.00
04320            -240.00     3000.00
04321            -240.00     3000.00
04322            -220.00     2800.00
04323            -220.00     2800.00
04324            -220.00     2400.00
04325            -180.00     2200.00
04326            -180.00     2200.00
04327            -180.00     2000.00
04328            -160.00     2000.00
04329            -160.00     2000.00
04330            -160.00     1600.00
04331            -140.00     1600.00
04332            -100.00     1400.00
04333            -100.00     1200.00
04334            -100.00     1200.00
04335            -100.00     1000.00
04336            -100.00      800.00
04337            -100.00     1000.00
04338            -100.00      600.00
04339            -100.00      400.00
04340             -80.00      400.00
04341             -60.00      200.00
04342             -60.00     -200.00
04343             -60.00     -200.00
04344               0.00     -200.00
04345              60.00     -400.00
04346              80.00     -600.00
04347              60.00     -600.00
04348              40.00     -600.00
04349               0.00    -1000.00
04350               0.00     -800.00
04351              60.00    -1000.00
04352             320.00    -1200.00
04353             880.00    -1600.00
04354             740.00    -1800.00
04355            -160.00    -1800.00
04356           -1140.00    -2200.00
04357           -1540.00    -1800.00
04358            -100.00    -2000.00
04359             880.00    -2600.00
04360             -20.00    -2200.00
04361             200.00    -2600.00
04362             560.00    -3000.00
04363               0.00    -2200.00
04364             180.00    -3000.00
04365              20.00    -3400.00
04366             -60.00    -2800.00
04367             540.00    -3200.00
04368              60.00    -3600.00
04369            -220.00    -3600.00
04370             160.00    -3600.00
04371             -20.00    -3600.00
04372             100.00    -4400.00
04373             320.00    -4200.00
04374              80.00    -4200.00
04375              20.00    -4600.00
04376             220.00    -4400.00
04377             300.00    -4400.00
04378              60.00    -4800.00
04379             100.00    -5000.00
04380             300.00    -5000.00
04381             180.00    -5000.00
04382             100.00    -5400.00
04383             160.00    -5200.00
04384             240.00    -5200.00
04385             260.00    -5600.00
04386             180.00    -5400.00
04387             260.00    -5800.00
04388             220.00    -5800.00
04389             220.00    -6000.00
04390             320.00    -6000.00
04391             240.00    -6000.00
04392             160.00    -6200.00
04393             260.00    -6200.00
04394             320.00    -6200.00
04395             300.00    -6600.00
04396             300.00    -6600.00
04397             380.00    -6600.00
04398             320.00    -6600.00
04399             300.00    -6800.00
04400             380.00    -6800.00
04401             400.00    -6800.00
04402             380.00    -7000.00
04403             400.00    -7000.00
04404             400.00    -7000.00
04405             380.00    -7000.00
04406             420.00    -7000.00
04407             500.00    -7200.00
04408             500.00    -7400.00
04409             460.00    -7200.00
04410             500.00    -7200.00
04411             500.00    -7200.00
04412             500.00    -7400.00
04413             560.00    -7400.00
04414             620.00    -7400.00
04415             620.00    -7600.00
04416             640.00    -7400.00
04417             660.00    -7600.00
04418             660.00    -7600.00
04419             660.00    -7600.00
04420             740.00    -7400.00
04421             780.00    -7600.00
04422             780.00    -7600.00
04423             800.00    -7800.00
04424             860.00    -7600.00
04425             860.00    -7600.00
04426             900.00    -7600.00
04427             960.00    -7600.00
04428            1020.00    -7600.00
04429            1020.00    -7600.00
04430            1060.00    -7600.00
04431            1100.00    -7600.00
04432            1120.00    -7600.00
04433            1140.00    -7600.00
04434            1200.00    -7600.00
04435            1220.00    -7600.00
04436            1220.00    -7400.00
04437            1260.00    -7400.00
04438            1260.00    -7400.00
04439            1260.00    -7400.00
04440            1280.00    -7200.00
04441            1300.00    -7200.00
04442            1280.00    -7200.00
04443            1280.00    -7200.00
04444            1260.00    -7200.00
04445            1240.00    -7000.00
04446            1220.00    -7000.00
04447            1220.00    -7000.00
04448            1220.00    -7000.00
04449            1180.00    -6800.00
04450            1140.00    -6800.00
04451            1120.00    -6800.00
04452            1060.00    -6800.00
04453            1060.00    -6800.00
04454            1020.00    -6600.00
04455             980.00    -6600.00
04456             940.00    -6600.00
04457             900.00    -6200.00
04458             880.00    -6400.00
04459             860.00    -6200.00
04460             820.00    -6200.00
04461             800.00    -6000.00
04462             780.00    -6000.00
04463             720.00    -5800.00
04464             660.00    -5800.00
04465             640.00    -5800.00
04466             620.00    -5600.00
04467             620.00    -5400.00
04468             580.00    -5400.00
04469             560.00    -5200.00
04470             540.00    -5200.00
04471             500.00    -5000.00
04472             460.00    -5000.00
04473             460.00    -4800.00
04474             440.00    -4600.00
04475             440.00    -4600.00
04476             400.00    -4600.00
04477             380.00    -4400.00
04478             340.00    -4400.00
04479             320.00    -4200.00
04480             320.00    -3800.00
04481             340.00    -3800.00
04482             320.00    -3800.00
04483             300.00    -3600.00
04484             260.00    -3600.00
04485             260.00    -3400.00
04486             240.00    -3400.00
04487             240.00    -3200.00
04488             220.00    -3000.00
04489             220.00    -2800.00
04490             220.00    -2800.00
04491             220.00    -2600.00
04492             180.00    -2600.00
04493             180.00    -2200.00
04494             180.00    -2200.00
04495             160.00    -2000.00
04496             160.00    -2200.00
04497             160.00    -1800.00
04498             140.00    -1400.00
04499             140.00    -1400.00
04500             140.00    -1400.00
04501             140.00    -1200.00
04502             120.00    -1000.00
04503             100.00     -800.00
04504             100.00     -600.00
04505              80.00     -600.00
04506              80.00     -400.00
04507              80.00     -400.00
04508              80.00     -200.00
04509              80.00        0.00
04510              60.00      200.00
04511              80.00      400.00
04512             140.00      400.00
04513             160.00      400.00
04514             160.00      600.00
04515             140.00      800.00
04516              80.00     1000.00
04517              60.00     1000.00
04518              60.00     1200.00
04519             460.00     1400.00
04520            1100.00     1800.00
04521             660.00     1800.00
04522            -640.00     1800.00
04523           -1960.00     1400.00
04524           -1320.00     2000.00
04525             880.00     2600.00
04526             560.00     2000.00
04527            -340.00     2400.00
04528             560.00     2200.00
04529             240.00     2800.00
04530            -480.00     3400.00
04531             -40.00     2400.00
04532            -100.00     3000.00
04533             220.00     3600.00
04534             140.00     2800.00
04535            -560.00     3400.00
04536              80.00     4000.00
04537            -100.00     3400.00
04538            -500.00     3800.00
04539             300.00     4200.00
04540             -60.00     4200.00
04541            -320.00     4400.00
04542               0.00     4200.00
04543            -100.00     4600.00
04544            -100.00     4800.00
04545            -260.00     4400.00
04546            -100.00     5200.00
04547             -60.00     4800.00
04548            -320.00     5000.00
04549            -140.00     5200.00
04550            -180.00     5200.00
04551            -160.00     5600.00
04552            -140.00     5200.00
04553            -200.00     5600.00
04554            -180.00     5800.00
04555            -320.00     5600.00
04556            -180.00     6000.00
04557            -180.00     6000.00
04558            -300.00     6200.00
04559            -240.00     6000.00
04560            -260.00     6200.00
04561            -320.00     6400.00
04562            -300.00     6200.00
04563            -220.00     6400.00
04564            -300.00     6600.00
04565            -380.00     6600.00
04566            -340.00     6800.00
04567            -320.00     6600.00
04568            -340.00     6800.00
04569            -340.00     6800.00
04570            -400.00     7000.00
04571            -460.00     7000.00
04572            -420.00     7200.00
04573            -380.00     7000.00
04574            -420.00     7000.00
04575            -460.00     7200.00
04576            -480.00     7200.00
04577            -500.00     7400.00
04578            -560.00     7400.00
04579            -560.00     7400.00
04580            -540.00     7600.00
04581            -580.00     7400.00
04582            -580.00     7600.00
04583            -580.00     7600.00
04584            -660.00     7400.00
04585            -720.00     7400.00
04586            -660.00     7600.00
04587            -700.00     7600.00
04588            -740.00     7600.00
04589            -780.00     7600.00
04590            -800.00     7800.00
04591            -860.00     7600.00
04592            -900.00     7600.00
04593            -900.00     7600.00
04594            -940.00     7600.00
04595            -980.00     7600.00
04596           -1000.00     7800.00
04597           -1020.00     7600.00
04598           -1100.00     7600.00
04599           -1140.00     7600.00
04600           -1120.00     7400.00
04601           -1180.00     7400.00
04602           -1200.00     7600.00
04603           -1220.00     7600.00
04604           -1260.00     7400.00
04605           -1260.00     7400.00
04606           -1280.00     7400.00
04607           -1280.00     7400.00
04608           -1280.00     7400.00
04609           -1280.00     7200.00
04610           -1260.00     7400.00
04611           -1280.00     7000.00
04612           -1260.00     7200.00
04613           -1220.00     7000.00
04614           -1200.00     7000.00
04615           -1180.00     7000.00
04616           -1180.00     7000.00
04617           -1160.00     7000.00
04618           -1120.00     6800.00
04619           -1080.00     6800.00
04620           -1040.00     6800.00
04621           -1020.00     6600.00
04622            -980.00     6600.00
04623            -960.00     6600.00
04624            -900.00     6400.00
04625            -900.00     6200.00
04626            -860.00     6200.00
04627            -800.00     6000.00
04628            -780.00     6000.00
04629            -740.00     6000.00
04630            -740.00     6000.00
04631            -720.00     5800.00
04632            -660.00     5800.00
04633            -640.00     5600.00
04634            -620.00     5600.00
04635            -580.00     5400.00
04636            -560.00     5200.00
04637            -540.00     5000.00
04638            -520.00     5200.00
04639            -460.00     5200.00
04640            -460.00     5000.00
04641            -420.00     4600.00
04642            -420.00     4600.00
04643            -400.00     4600.00
04644            -400.00     4400.00
04645            -380.00     4200.00
04646            -380.00     4200.00
04647            -320.00     4000.00
04648            -320.00     3800.00
04649            -320.00     3800.00
04650            -300.00     3600.00
04651            -300.00     3600.00
04652            -260.00     3600.00
04653            -260.00     3400.00
04654            -260.00     3200.00
04655            -240.00     3000.00
04656            -240.00     3000.00
04657            -240.00     2800.00
04658            -220.00     2800.00
04659            -220.00     2600.00
04660            -180.00     2200.00
04661            -160.00     2200.00
04662            -180.00     2000.00
04663            -180.00     1800.00
04664            -160.00     1600.00
04665            -160.00     1600.00
04666            -120.00     1400.00
04667            -120.00     1400.00
04668            -100.00     1200.00
04669            -120.00     1200.00
04670            -100.00     1000.00
04671            -100.00      800.00
04672            -100.00      600.00
04673            -100.00      400.00
04674            -100.00      400.00
04675             -80.00      200.00
04676             -60.00      200.00
04677             -60.00     -200.00
04678             -20.00     -200.00
04679              20.00     -400.00
04680              80.00     -600.00
04681              60.00     -600.00
04682              20.00     -600.00
04683              20.00     -800.00
04684               0.00    -1000.00
04685              20.00     -800.00
04686             100.00    -1200.00
04687             560.00    -1400.00
04688             960.00    -1600.00
04689             400.00    -1800.00
04690            -600.00    -2000.00
04691           -1460.00    -2000.00
04692           -1120.00    -1600.00
04693             600.00    -2200.00
04694             540.00    -2600.00
04695            -100.00    -2200.00
04696             480.00    -3000.00
04697             320.00    -2600.00
04698             -20.00    -2600.00
04699             200.00    -3400.00
04700            -140.00    -3200.00
04701             220.00    -3000.00
04702             480.00    -3600.00
04703            -220.00    -3400.00
04704             -20.00    -3600.00
04705             140.00    -3600.00
04706             -20.00    -3800.00
04707             240.00    -4200.00
04708             240.00    -4200.00
04709               0.00    -4400.00
04710             120.00    -4600.00
04711             300.00    -4400.00
04712             220.00    -4600.00
04713               0.00    -5000.00
04714             180.00    -5000.00
04715             260.00    -5000.00
04716             140.00    -5200.00
04717             140.00    -5400.00
04718             180.00    -5200.00
04719             260.00    -5400.00
04720             220.00    -5600.00
04721             220.00    -5400.00
04722             260.00    -5800.00
04723             180.00    -5800.00
04724             260.00    -6000.00
04725             320.00    -6000.00
04726             220.00    -6200.00
04727             220.00    -6200.00
04728             320.00    -6200.00
04729             300.00    -6200.00
04730             300.00    -6600.00
04731             380.00    -6600.00
04732             380.00    -6600.00
04733             300.00    -6600.00
04734             320.00    -6800.00
04735             380.00    -6800.00
04736             380.00    -6800.00
04737             380.00    -6800.00
04738             400.00    -6800.00
04739             400.00    -7000.00
04740             400.00    -7000.00
04741             500.00    -7000.00
04742             500.00    -7200.00
04743             480.00    -7400.00
04744             480.00    -7200.00
04745             500.00    -7200.00
04746             500.00    -7400.00
04747             540.00    -7200.00
04748             620.00    -7400.00
04749             620.00    -7400.00
04750             620.00    -7600.00
04751             640.00    -7400.00
04752             660.00    -7600.00
04753             640.00    -7400.00
04754             720.00    -7600.00
04755             780.00    -7600.00
04756             780.00    -7600.00
04757             800.00    -7800.00
04758             840.00    -7600.00
04759             860.00    -7600.00
04760             880.00    -7600.00
04761             960.00    -7600.00
04762             980.00    -7600.00
04763             980.00    -7600.00
04764            1020.00    -7600.00
04765            1060.00    -7600.00
04766            1100.00    -7600.00
04767            1120.00    -7600.00
04768            1180.00    -7600.00
04769            1220.00    -7600.00
04770            1220.00    -7200.00
04771            1260.00    -7600.00
04772            1260.00    -7400.00
04773            1260.00    -7200.00
04774            1260.00    -7400.00
04775            1280.00    -7200.00
04776            1280.00    -7200.00
04777            1280.00    -7200.00
04778            1280.00    -7000.00
04779            1240.00    -7000.00
04780            1200.00    -7000.00
04781            1220.00    -7000.00
04782            1220.00    -7000.00
04783            1180.00    -7000.00
04784            1160.00    -7000.00
04785            1120.00    -7000.00
04786            1060.00    -6600.00
04787            1060.00    -6800.00
04788            1040.00    -6600.00
04789            1020.00    -6600.00
04790             960.00    -6600.00
04791             940.00    -6400.00
04792             900.00    -6200.00
04793             860.00    -6200.00
04794             820.00    -6200.00
04795             820.00    -6200.00
04796             780.00    -6000.00
04797             740.00    -6000.00
04798             700.00    -5800.00
04799             660.00    -5800.00
04800             640.00    -5800.00
04801             620.00    -5600.00
04802             620.00    -5400.00
04803             540.00    -5400.00
04804             520.00    -5200.00
04805             500.00    -5000.00
04806             500.00    -5000.00
04807             480.00    -5000.00
04808             480.00    -4800.00
04809             460.00    -4600.00
04810             400.00    -4400.00
04811             380.00    -4600.00
04812             340.00    -4400.00
04813             340.00    -4200.00
04814             340.00    -4200.00
04815             320.00    -3800.00
04816             320.00    -3800.00
04817             300.00    -3600.00
04818             300.00    -3400.00
04819             260.00    -3400.00
04820             260.00    -3200.00
04821             260.00    -3400.00
04822             260.00    -3000.00
04823             240.00    -2800.00
04824             220.00    -2800.00
04825             180.00    -2800.00
04826             180.00    -2400.00
04827             180.00    -2400.00
04828             180.00    -2200.00
04829             180.00    -2200.00
04830             160.00    -2000.00
04831             160.00    -2000.00
04832             140.00    -1600.00
04833             140.00    -1400.00
04834             140.00    -1400.00
04835             140.00    -1400.00
04836             140.00    -1200.00
04837             100.00     -800.00
04838             100.00     -600.00
04839              80.00     -600.00
04840              80.00     -600.00
04841              80.00     -400.00
04842              80.00     -400.00
04843              80.00     -200.00
04844              60.00        0.00
04845              60.00      200.00
04846             100.00      200.00
04847             140.00      400.00
04848             160.00      600.00
04849             140.00      600.00
04850             100.00      600.00
04851              80.00      800.00
04852              60.00     1200.00
04853             160.00     1200.00
04854             800.00     1400.00
04855            1040.00     1600.00
04856             160.00     1800.00
04857           -1280.00     1600.00
04858           -2020.00     1600.00
04859            -320.00     2200.00
04860            1180.00     2200.00
04861             -80.00     2000.00
04862             -20.00     2400.00
04863             700.00     2200.00
04864            -280.00     3000.00
04865            -320.00     3000.00
04866               0.00     2600.00
04867             -80.00     3600.00
04868             380.00     3400.00
04869            -300.00     3000.00
04870            -400.00     3800.00
04871             240.00     3800.00
04872            -460.00     3600.00
04873            -140.00     4200.00
04874             320.00     3800.00
04875            -340.00     4400.00
04876            -160.00     4200.00
04877             -20.00     4200.00
04878            -100.00     5000.00
04879            -160.00     4400.00
04880            -260.00     4600.00
04881               0.00     5200.00
04882            -220.00     4600.00
04883            -260.00     5200.00
04884            -140.00     5200.00
04885            -220.00     5600.00
04886            -100.00     5600.00
04887            -180.00     5200.00
04888            -160.00     5800.00
04889            -240.00     5800.00
04890            -300.00     5800.00
04891            -160.00     6000.00
04892            -240.00     6000.00
04893            -260.00     6200.00
04894            -260.00     6200.00
04895            -300.00     6200.00
04896            -300.00     6400.00
04897            -260.00     6200.00
04898            -240.00     6600.00
04899            -340.00     6600.00
04900            -380.00     6600.00
04901            -340.00     6800.00
04902            -320.00     6800.00
04903            -340.00     6800.00
04904            -360.00     7000.00
04905            -400.00     7000.00
04906            -460.00     7000.00
04907            -380.00     7000.00
04908            -420.00     7200.00
04909            -460.00     7000.00
04910            -480.00     7000.00
04911            -480.00     7400.00
04912            -540.00     7400.00
04913            -560.00     7400.00
04914            -540.00     7600.00
04915            -560.00     7400.00
04916            -580.00     7600.00
04917            -580.00     7600.00
04918            -640.00     7600.00
04919            -700.00     7600.00
04920            -700.00     7400.00
04921            -660.00     7600.00
04922            -720.00     7600.00
04923            -780.00     7600.00
04924            -780.00     7600.00
04925            -820.00     7800.00
04926            -880.00     7600.00
04927            -900.00     7800.00
04928            -900.00     7600.00
04929            -960.00     7600.00
04930            -980.00     7600.00
04931           -1040.00     7600.00
04932           -1060.00     7600.00
04933           -1120.00     7800.00
04934           -1140.00     7600.00
04935           -1140.00     7800.00
04936           -1180.00     7400.00
04937           -1200.00     7600.00
04938           -1220.00     7600.00
04939           -1260.00     7400.00
04940           -1280.00     7400.00
04941           -1280.00     7600.00
04942           -1260.00     7400.00
04943           -1280.00     7400.00
04944           -1260.00     7200.00
04945           -1260.00     7200.00
04946           -1280.00     7400.00
04947           -1260.00     7200.00
04948           -1220.00     7000.00
04949           -1180.00     7200.00
04950           -1180.00     7000.00
04951           -1160.00     7000.00
04952           -1120.00     6800.00
04953           -1100.00     6800.00
04954           -1060.00     6600.00
04955           -1040.00     6600.00
04956            -980.00     6600.00
04957            -960.00     6600.00
04958            -940.00     6600.00
04959            -920.00     6400.00
04960            -900.00     6200.00
04961            -860.00     6200.00
04962            -800.00     6200.00
04963            -780.00     6000.00
04964            -740.00     6200.00
04965            -720.00     5800.00
04966            -700.00     5800.00
04967            -660.00     5600.00
04968            -580.00     5800.00
04969            -580.00     5400.00
04970            -580.00     5400.00
04971            -560.00     5200.00
04972            -500.00     5000.00
04973            -500.00     5200.00
04974            -480.00     5000.00
04975            -420.00     4600.00
04976            -420.00     4800.00
04977            -420.00     4600.00
04978            -420.00     4400.00
04979            -400.00     4400.00
04980            -380.00     4200.00
04981            -340.00     4200.00
04982            -320.00     4000.00
04983            -340.00     4000.00
04984            -340.00     3800.00
04985            -320.00     3600.00
04986            -240.00     3400.00
04987            -240.00     3400.00
04988            -260.00     3400.00
04989            -260.00     3200.00
04990            -260.00     3000.00
04991            -240.00     2800.00
04992            -220.00     2600.00
04993            -180.00     2600.00
04994            -180.00     2200.00
04995            -220.00     2200.00
04996            -180.00     2200.00
04997            -160.00     2000.00
04998            -160.00     1800.00
04999            -160.00     1800.00
05000            -140.00     1400.00
