Unit:(mV)
                     CH1         CH2
Frequency              ? 299.089 kHz
00001             380.00    -2200.00
00002            1040.00    -2600.00
00003             660.00    -3000.00
00004            -420.00    -3200.00
00005           -1040.00    -3400.00
00006            -880.00    -3400.00
00007            -780.00    -3800.00
00008            -500.00    -3800.00
00009             380.00    -4400.00
00010             220.00    -4600.00
00011             300.00    -4600.00
00012             140.00    -5400.00
00013            -160.00    -5000.00
00014             220.00    -5800.00
00015               0.00    -5600.00
00016               0.00    -6000.00
00017              60.00    -6400.00
00018            -100.00    -6200.00
00019            -180.00    -7000.00
00020            -140.00    -6800.00
00021              20.00    -7000.00
00022            -160.00    -7400.00
00023            -100.00    -7600.00
00024              20.00    -7800.00
00025             -80.00    -7600.00
00026            -100.00    -8600.00
00027             -20.00    -8400.00
00028              20.00    -8600.00
00029            -100.00    -9000.00
00030            -100.00    -9000.00
00031             -40.00    -9200.00
00032             -80.00    -9400.00
00033            -120.00    -9800.00
00034             -20.00    -9600.00
00035             -60.00   -10000.00
00036            -140.00   -10200.00
00037             -80.00   -10200.00
00038             -60.00   -10600.00
00039            -100.00   -10800.00
00040            -100.00   -11000.00
00041             -60.00   -11000.00
00042            -100.00   -11200.00
00043            -120.00   -11400.00
00044             -80.00   -11400.00
00045             -60.00   -11600.00
00046            -100.00   -11800.00
00047             -80.00   -11800.00
00048             -60.00   -11800.00
00049             -80.00   -12200.00
00050             -80.00   -12200.00
00051             -60.00   -12400.00
00052             -80.00   -12400.00
00053            -100.00   -12600.00
00054             -80.00   -12600.00
00055             -80.00   -12600.00
00056             -80.00   -13000.00
00057             -60.00   -13000.00
00058             -20.00   -13000.00
00059             -80.00   -13200.00
00060            -100.00   -13200.00
00061             -80.00   -13200.00
00062             -80.00   -13400.00
00063             -60.00   -13400.00
00064             -40.00   -13400.00
00065             -60.00   -13400.00
00066             -80.00   -13600.00
00067             -80.00   -13800.00
00068             -60.00   -13600.00
00069             -60.00   -13600.00
00070             -60.00   -13600.00
00071             -60.00   -13600.00
00072             -80.00   -13600.00
00073             -80.00   -13800.00
00074             -80.00   -13800.00
00075             -60.00   -13800.00
00076             -60.00   -13600.00
00077             -60.00   -13600.00
00078             -20.00   -13800.00
00079             -60.00   -13800.00
00080             -60.00   -13800.00
00081             -60.00   -13600.00
00082             -40.00   -13800.00
00083             -20.00   -13600.00
00084             -20.00   -13400.00
00085             -60.00   -13400.00
00086             -60.00   -13400.00
00087             -60.00   -13400.00
00088             -60.00   -13200.00
00089             -20.00   -13400.00
00090             -60.00   -13200.00
00091             -20.00   -13200.00
00092             -20.00   -13200.00
00093             -60.00   -13000.00
00094             -40.00   -13000.00
00095             -20.00   -12600.00
00096             -20.00   -12800.00
00097             -20.00   -12600.00
00098             -20.00   -12600.00
00099             -20.00   -12400.00
00100             -40.00   -12200.00
00101             -20.00   -12200.00
00102             -20.00   -12200.00
00103             -20.00   -12000.00
00104               0.00   -11600.00
00105             -20.00   -11800.00
00106             -20.00   -11600.00
00107             -20.00   -11400.00
00108             -20.00   -11400.00
00109             -20.00   -11200.00
00110             -20.00   -10800.00
00111             -20.00   -10800.00
00112               0.00   -10600.00
00113             -20.00   -10200.00
00114             -20.00   -10200.00
00115               0.00   -10000.00
00116               0.00   -10000.00
00117               0.00    -9800.00
00118               0.00    -9600.00
00119               0.00    -9400.00
00120               0.00    -9000.00
00121               0.00    -9000.00
00122               0.00    -8800.00
00123              20.00    -8600.00
00124               0.00    -8400.00
00125               0.00    -8200.00
00126               0.00    -8000.00
00127               0.00    -7800.00
00128               0.00    -7400.00
00129              20.00    -7200.00
00130              20.00    -7000.00
00131              20.00    -6800.00
00132              20.00    -6600.00
00133               0.00    -6600.00
00134              20.00    -6200.00
00135               0.00    -6000.00
00136              20.00    -5800.00
00137              40.00    -5400.00
00138              40.00    -5200.00
00139              20.00    -5200.00
00140               0.00    -4800.00
00141              20.00    -4600.00
00142              40.00    -4400.00
00143              60.00    -4000.00
00144              60.00    -3800.00
00145              60.00    -3400.00
00146              60.00    -3400.00
00147              20.00    -3000.00
00148              20.00    -2800.00
00149              40.00    -2600.00
00150              60.00    -2200.00
00151              40.00    -2000.00
00152              60.00    -2000.00
00153              20.00    -1400.00
00154              40.00    -1200.00
00155              20.00     -800.00
00156              60.00     -600.00
00157              60.00     -400.00
00158              60.00     -200.00
00159              60.00        0.00
00160              80.00      400.00
00161             140.00      600.00
00162             220.00     1000.00
00163             240.00     1000.00
00164             180.00     1200.00
00165             160.00     1400.00
00166             140.00     1600.00
00167             240.00     2000.00
00168             800.00     2600.00
00169            1380.00     2800.00
00170             540.00     2800.00
00171            -800.00     3000.00
00172           -1180.00     3000.00
00173            -960.00     3600.00
00174            -640.00     3800.00
00175             640.00     4200.00
00176             560.00     4200.00
00177             380.00     4600.00
00178             280.00     4600.00
00179            -180.00     4800.00
00180             300.00     5800.00
00181              80.00     5200.00
00182             140.00     5800.00
00183             380.00     5800.00
00184               0.00     6200.00
00185             -60.00     6600.00
00186             -80.00     6400.00
00187             220.00     7200.00
00188              20.00     6800.00
00189             100.00     7400.00
00190             180.00     7600.00
00191              80.00     7800.00
00192             100.00     8200.00
00193              60.00     8000.00
00194             180.00     8600.00
00195              20.00     8400.00
00196             140.00     8600.00
00197              60.00     9200.00
00198              80.00     9200.00
00199              60.00     9400.00
00200             100.00     9600.00
00201             160.00     9800.00
00202              60.00    10000.00
00203             120.00    10200.00
00204              80.00    10400.00
00205              80.00    10600.00
00206              60.00    10600.00
00207             140.00    11000.00
00208              60.00    11000.00
00209              60.00    11400.00
00210              80.00    11400.00
00211             100.00    11600.00
00212              80.00    11600.00
00213             100.00    11800.00
00214              80.00    12000.00
00215              60.00    12000.00
00216              60.00    12200.00
00217             100.00    12200.00
00218              80.00    12400.00
00219              40.00    12400.00
00220              60.00    12600.00
00221              60.00    12600.00
00222              80.00    13000.00
00223             100.00    13000.00
00224             100.00    13000.00
00225              60.00    13000.00
00226              60.00    13200.00
00227              60.00    13400.00
00228              40.00    13400.00
00229              60.00    13400.00
00230              80.00    13400.00
00231              80.00    13800.00
00232              60.00    13600.00
00233              60.00    13800.00
00234              60.00    13800.00
00235              60.00    13800.00
00236              80.00    13800.00
00237              60.00    14000.00
00238              60.00    13800.00
00239              60.00    13800.00
00240              40.00    14000.00
00241              40.00    13800.00
00242              60.00    13800.00
00243              60.00    13800.00
00244              80.00    13800.00
00245              60.00    13800.00
00246              20.00    13800.00
00247              60.00    13800.00
00248              60.00    13800.00
00249              40.00    13800.00
00250              60.00    13600.00
00251              60.00    13800.00
00252              60.00    13400.00
00253              40.00    13600.00
00254              20.00    13400.00
00255              20.00    13400.00
00256              20.00    13400.00
00257              60.00    13200.00
00258              60.00    13400.00
00259              20.00    13200.00
00260              20.00    13000.00
00261              20.00    13000.00
00262              20.00    13000.00
00263              20.00    13000.00
00264              60.00    12600.00
00265              20.00    12600.00
00266               0.00    12400.00
00267               0.00    12400.00
00268               0.00    12400.00
00269               0.00    12200.00
00270              20.00    12200.00
00271              20.00    11800.00
00272               0.00    11800.00
00273               0.00    11600.00
00274               0.00    11400.00
00275               0.00    11200.00
00276               0.00    11200.00
00277              20.00    11000.00
00278               0.00    10800.00
00279               0.00    10600.00
00280               0.00    10600.00
00281               0.00    10200.00
00282               0.00    10200.00
00283               0.00    10000.00
00284               0.00     9800.00
00285               0.00     9800.00
00286             -20.00     9400.00
00287             -20.00     9200.00
00288             -20.00     9000.00
00289             -20.00     8600.00
00290             -20.00     8600.00
00291             -20.00     8400.00
00292             -20.00     8200.00
00293             -20.00     7800.00
00294             -40.00     7600.00
00295             -20.00     7600.00
00296             -20.00     7200.00
00297             -20.00     7200.00
00298             -40.00     6800.00
00299             -20.00     6600.00
00300             -20.00     6400.00
00301             -40.00     6200.00
00302             -60.00     6000.00
00303             -20.00     5800.00
00304             -40.00     5400.00
00305             -20.00     5400.00
00306             -60.00     5000.00
00307             -60.00     4800.00
00308             -20.00     4600.00
00309             -60.00     4200.00
00310             -20.00     4200.00
00311             -60.00     3800.00
00312             -60.00     3600.00
00313             -60.00     3400.00
00314             -60.00     3200.00
00315             -60.00     2800.00
00316             -40.00     2600.00
00317             -60.00     2400.00
00318             -60.00     2000.00
00319             -60.00     1800.00
00320             -60.00     1600.00
00321             -40.00     1400.00
00322             -60.00     1200.00
00323             -40.00      600.00
00324             -60.00      600.00
00325             -60.00      200.00
00326             -60.00        0.00
00327             -20.00     -200.00
00328              40.00     -600.00
00329             120.00     -600.00
00330             140.00    -1000.00
00331              80.00    -1200.00
00332              20.00    -1400.00
00333               0.00    -1800.00
00334              20.00    -1800.00
00335             220.00    -2000.00
00336             860.00    -2200.00
00337             960.00    -3000.00
00338             -20.00    -3000.00
00339            -900.00    -3400.00
00340            -940.00    -3400.00
00341            -760.00    -3600.00
00342            -780.00    -3600.00
00343             140.00    -4200.00
00344             300.00    -4600.00
00345             140.00    -4200.00
00346             160.00    -5200.00
00347            -160.00    -5000.00
00348             160.00    -5200.00
00349             240.00    -5800.00
00350              80.00    -5800.00
00351             160.00    -6400.00
00352             -60.00    -6000.00
00353            -260.00    -6600.00
00354            -380.00    -6800.00
00355            -140.00    -6800.00
00356            -140.00    -7400.00
00357            -140.00    -7200.00
00358             120.00    -8000.00
00359              40.00    -7600.00
00360             -20.00    -8200.00
00361             -20.00    -8400.00
00362              20.00    -8400.00
00363            -100.00    -9000.00
00364            -180.00    -9000.00
00365            -160.00    -9200.00
00366            -160.00    -9200.00
00367            -140.00    -9600.00
00368             -60.00    -9600.00
00369              20.00    -9800.00
00370             -40.00   -10200.00
00371               0.00   -10200.00
00372               0.00   -10400.00
00373             -80.00   -10600.00
00374            -160.00   -10800.00
00375            -160.00   -11000.00
00376            -180.00   -11000.00
00377            -180.00   -11400.00
00378             -60.00   -11400.00
00379              20.00   -11400.00
00380              20.00   -11800.00
00381               0.00   -11800.00
00382             -20.00   -11800.00
00383            -100.00   -12200.00
00384            -160.00   -12200.00
00385            -120.00   -12200.00
00386            -120.00   -12400.00
00387            -140.00   -12600.00
00388             -80.00   -12600.00
00389               0.00   -12600.00
00390               0.00   -12800.00
00391               0.00   -13000.00
00392             -20.00   -13000.00
00393            -100.00   -13200.00
00394            -140.00   -13200.00
00395            -140.00   -13200.00
00396            -100.00   -13200.00
00397             -80.00   -13400.00
00398             -20.00   -13400.00
00399               0.00   -13400.00
00400             -20.00   -13400.00
00401             -80.00   -13600.00
00402             -60.00   -13800.00
00403            -100.00   -13600.00
00404            -100.00   -13800.00
00405             -80.00   -13600.00
00406             -60.00   -13600.00
00407             -80.00   -13800.00
00408             -80.00   -13800.00
00409             -20.00   -13800.00
00410             -60.00   -13600.00
00411             -40.00   -13800.00
00412             -20.00   -13600.00
00413             -60.00   -13800.00
00414            -100.00   -13600.00
00415             -80.00   -13800.00
00416             -60.00   -13600.00
00417             -60.00   -13600.00
00418             -40.00   -13600.00
00419             -20.00   -13600.00
00420             -20.00   -13400.00
00421             -60.00   -13400.00
00422             -60.00   -13400.00
00423             -40.00   -13200.00
00424             -60.00   -13200.00
00425             -40.00   -13200.00
00426             -20.00   -13200.00
00427             -60.00   -13200.00
00428             -40.00   -13000.00
00429             -20.00   -12800.00
00430             -20.00   -12800.00
00431             -20.00   -12600.00
00432             -20.00   -12600.00
00433             -40.00   -12600.00
00434             -40.00   -12200.00
00435             -60.00   -12200.00
00436             -20.00   -12200.00
00437               0.00   -11800.00
00438             -20.00   -11800.00
00439               0.00   -11800.00
00440             -20.00   -11600.00
00441             -40.00   -11400.00
00442             -20.00   -11200.00
00443             -20.00   -11200.00
00444               0.00   -11000.00
00445               0.00   -10800.00
00446               0.00   -10600.00
00447             -20.00   -10600.00
00448             -20.00   -10200.00
00449               0.00   -10200.00
00450               0.00   -10000.00
00451               0.00    -9800.00
00452               0.00    -9600.00
00453               0.00    -9400.00
00454             -20.00    -9200.00
00455               0.00    -9200.00
00456               0.00    -8800.00
00457              20.00    -8600.00
00458              20.00    -8600.00
00459              20.00    -8200.00
00460               0.00    -8000.00
00461               0.00    -7800.00
00462               0.00    -7600.00
00463               0.00    -7400.00
00464              20.00    -7200.00
00465              20.00    -7000.00
00466              20.00    -6800.00
00467               0.00    -6400.00
00468               0.00    -6200.00
00469              20.00    -6000.00
00470              20.00    -5800.00
00471              20.00    -5600.00
00472              20.00    -5400.00
00473              40.00    -5200.00
00474              20.00    -5000.00
00475               0.00    -4600.00
00476              20.00    -4400.00
00477              60.00    -4200.00
00478              20.00    -3800.00
00479              40.00    -3600.00
00480              20.00    -3400.00
00481               0.00    -3000.00
00482              20.00    -2800.00
00483              20.00    -2600.00
00484              40.00    -2600.00
00485              60.00    -2000.00
00486              60.00    -1800.00
00487              40.00    -1600.00
00488              20.00    -1400.00
00489              60.00    -1000.00
00490              60.00     -800.00
00491              60.00     -600.00
00492              60.00     -200.00
00493              60.00      200.00
00494              60.00      200.00
00495              80.00      400.00
00496             180.00      600.00
00497             220.00     1000.00
00498             220.00     1000.00
00499             160.00     1400.00
00500             140.00     1400.00
00501             180.00     1800.00
00502             540.00     2200.00
00503            1340.00     2600.00
00504             960.00     2800.00
00505            -380.00     2800.00
00506           -1140.00     3000.00
00507           -1020.00     3400.00
00508            -880.00     3800.00
00509             220.00     4000.00
00510             740.00     4000.00
00511             320.00     4600.00
00512             460.00     4800.00
00513            -120.00     4400.00
00514             140.00     5800.00
00515             240.00     5200.00
00516             -20.00     5600.00
00517             380.00     6200.00
00518             100.00     5800.00
00519             -20.00     6600.00
00520             -80.00     6400.00
00521             120.00     7000.00
00522             160.00     7200.00
00523              20.00     7000.00
00524             220.00     7800.00
00525              80.00     7600.00
00526             120.00     8200.00
00527              40.00     8200.00
00528             160.00     8400.00
00529              80.00     8600.00
00530              80.00     8400.00
00531             140.00     9200.00
00532              40.00     9200.00
00533              80.00     9400.00
00534              60.00     9400.00
00535             200.00     9800.00
00536              80.00    10000.00
00537             140.00    10000.00
00538              80.00    10200.00
00539              80.00    10400.00
00540              60.00    10600.00
00541              80.00    10600.00
00542              80.00    11000.00
00543              20.00    11000.00
00544              60.00    11400.00
00545              80.00    11400.00
00546             100.00    11600.00
00547              80.00    11800.00
00548              80.00    12000.00
00549              60.00    11800.00
00550              60.00    12200.00
00551              80.00    12200.00
00552             100.00    12400.00
00553              60.00    12600.00
00554              60.00    12600.00
00555              60.00    12600.00
00556              80.00    12800.00
00557              80.00    13000.00
00558             100.00    13000.00
00559              80.00    13200.00
00560              60.00    13200.00
00561              60.00    13200.00
00562              60.00    13200.00
00563              60.00    13400.00
00564              80.00    13400.00
00565              80.00    13400.00
00566              80.00    13400.00
00567              60.00    13600.00
00568              60.00    13800.00
00569              20.00    13800.00
00570              60.00    13800.00
00571              80.00    13800.00
00572              80.00    13800.00
00573              60.00    13800.00
00574              40.00    13800.00
00575              60.00    13800.00
00576              60.00    13800.00
00577              60.00    13800.00
00578              80.00    13800.00
00579              60.00    13800.00
00580              20.00    13800.00
00581              60.00    13800.00
00582              60.00    13800.00
00583              20.00    13800.00
00584              60.00    13800.00
00585              60.00    13800.00
00586              60.00    13600.00
00587              40.00    13600.00
00588              80.00    13400.00
00589              60.00    13400.00
00590              20.00    13400.00
00591              40.00    13400.00
00592              60.00    13400.00
00593              40.00    13200.00
00594              20.00    13200.00
00595              60.00    13000.00
00596              20.00    13000.00
00597              20.00    13000.00
00598              20.00    13000.00
00599              60.00    12600.00
00600              20.00    12600.00
00601              20.00    12400.00
00602              20.00    12200.00
00603               0.00    12200.00
00604              20.00    12200.00
00605              20.00    12200.00
00606              20.00    11800.00
00607               0.00    11600.00
00608               0.00    11600.00
00609               0.00    11400.00
00610               0.00    11400.00
00611              20.00    11000.00
00612               0.00    11000.00
00613               0.00    10600.00
00614             -20.00    10600.00
00615               0.00    10200.00
00616               0.00    10200.00
00617               0.00    10000.00
00618               0.00     9800.00
00619               0.00     9800.00
00620             -20.00     9400.00
00621             -20.00     9400.00
00622             -20.00     9200.00
00623             -20.00     9000.00
00624             -20.00     8600.00
00625               0.00     8400.00
00626             -20.00     8200.00
00627             -20.00     8200.00
00628             -40.00     7800.00
00629             -20.00     7600.00
00630             -20.00     7400.00
00631             -20.00     7200.00
00632             -20.00     6800.00
00633             -20.00     6800.00
00634             -40.00     6600.00
00635             -20.00     6200.00
00636             -20.00     6000.00
00637             -20.00     5800.00
00638             -20.00     5600.00
00639             -40.00     5400.00
00640             -20.00     5000.00
00641             -60.00     5000.00
00642             -40.00     4600.00
00643             -60.00     4400.00
00644             -60.00     4200.00
00645             -20.00     4000.00
00646             -40.00     3800.00
00647             -60.00     3400.00
00648             -40.00     3200.00
00649             -60.00     3000.00
00650             -60.00     2600.00
00651             -60.00     2400.00
00652             -60.00     2200.00
00653             -40.00     2000.00
00654             -40.00     1600.00
00655             -40.00     1400.00
00656             -60.00     1000.00
00657             -60.00      800.00
00658             -40.00      600.00
00659             -60.00      200.00
00660             -60.00      200.00
00661             -60.00     -200.00
00662               0.00     -400.00
00663              80.00     -600.00
00664             140.00     -800.00
00665             100.00    -1200.00
00666              20.00    -1400.00
00667               0.00    -1600.00
00668              20.00    -1800.00
00669             100.00    -2000.00
00670             580.00    -2200.00
00671            1060.00    -2800.00
00672             380.00    -3000.00
00673            -700.00    -3000.00
00674           -1040.00    -3600.00
00675            -800.00    -3600.00
00676            -780.00    -3600.00
00677            -260.00    -4000.00
00678             420.00    -4600.00
00679             160.00    -4400.00
00680             300.00    -5000.00
00681             -20.00    -5400.00
00682             -80.00    -5000.00
00683             220.00    -5800.00
00684             -60.00    -5400.00
00685              40.00    -6200.00
00686               0.00    -6200.00
00687            -140.00    -6200.00
00688            -240.00    -7000.00
00689             -80.00    -6600.00
00690               0.00    -7400.00
00691            -180.00    -7200.00
00692             -20.00    -7600.00
00693               0.00    -7800.00
00694             -80.00    -7800.00
00695            -100.00    -8600.00
00696               0.00    -8200.00
00697             -20.00    -8600.00
00698            -120.00    -9000.00
00699            -100.00    -9000.00
00700             -80.00    -9400.00
00701            -100.00    -9400.00
00702            -100.00    -9400.00
00703             -20.00    -9800.00
00704             -80.00   -10000.00
00705            -100.00   -10200.00
00706             -20.00   -10400.00
00707             -40.00   -10600.00
00708            -100.00   -10800.00
00709             -80.00   -10800.00
00710             -60.00   -11000.00
00711            -100.00   -11400.00
00712            -100.00   -11400.00
00713             -20.00   -11400.00
00714             -60.00   -11600.00
00715            -100.00   -11800.00
00716             -60.00   -11800.00
00717             -80.00   -12200.00
00718            -100.00   -12200.00
00719             -60.00   -12200.00
00720             -20.00   -12400.00
00721            -100.00   -12600.00
00722            -100.00   -12600.00
00723             -60.00   -12600.00
00724             -60.00   -12800.00
00725             -80.00   -13000.00
00726             -40.00   -13000.00
00727             -40.00   -13000.00
00728             -80.00   -13200.00
00729             -80.00   -13200.00
00730             -80.00   -13200.00
00731             -80.00   -13400.00
00732             -80.00   -13400.00
00733             -20.00   -13400.00
00734             -60.00   -13400.00
00735             -80.00   -13600.00
00736             -60.00   -13600.00
00737             -80.00   -13600.00
00738             -80.00   -13800.00
00739             -80.00   -13800.00
00740             -60.00   -13800.00
00741             -80.00   -13800.00
00742             -80.00   -13600.00
00743             -60.00   -13800.00
00744             -60.00   -13600.00
00745             -80.00   -13800.00
00746             -20.00   -13800.00
00747             -20.00   -13800.00
00748             -80.00   -13600.00
00749             -60.00   -13800.00
00750             -80.00   -13800.00
00751             -60.00   -13600.00
00752             -60.00   -13600.00
00753             -20.00   -13400.00
00754             -60.00   -13400.00
00755             -80.00   -13400.00
00756             -60.00   -13400.00
00757             -20.00   -13400.00
00758             -40.00   -13400.00
00759             -20.00   -13200.00
00760             -20.00   -13200.00
00761             -20.00   -13200.00
00762             -60.00   -13000.00
00763             -60.00   -12800.00
00764             -20.00   -13000.00
00765             -20.00   -12600.00
00766             -20.00   -12600.00
00767             -20.00   -12400.00
00768             -20.00   -12600.00
00769             -20.00   -12200.00
00770             -20.00   -12200.00
00771             -20.00   -12200.00
00772             -20.00   -12000.00
00773             -20.00   -11800.00
00774             -20.00   -11600.00
00775             -20.00   -11400.00
00776             -20.00   -11400.00
00777               0.00   -11200.00
00778               0.00   -11000.00
00779               0.00   -10800.00
00780               0.00   -10600.00
00781             -20.00   -10600.00
00782               0.00   -10400.00
00783             -20.00   -10200.00
00784               0.00   -10000.00
00785               0.00   -10000.00
00786               0.00    -9800.00
00787               0.00    -9400.00
00788               0.00    -9400.00
00789               0.00    -9200.00
00790               0.00    -9000.00
00791               0.00    -8600.00
00792               0.00    -8600.00
00793              20.00    -8400.00
00794               0.00    -8200.00
00795               0.00    -8000.00
00796               0.00    -7600.00
00797               0.00    -7400.00
00798              20.00    -7200.00
00799               0.00    -7000.00
00800              20.00    -6800.00
00801               0.00    -6600.00
00802               0.00    -6200.00
00803               0.00    -6200.00
00804               0.00    -6000.00
00805              20.00    -5400.00
00806              20.00    -5400.00
00807              20.00    -5200.00
00808              20.00    -5000.00
00809               0.00    -4800.00
00810               0.00    -4600.00
00811              20.00    -4200.00
00812              20.00    -3800.00
00813              20.00    -3800.00
00814              20.00    -3400.00
00815              20.00    -3200.00
00816              20.00    -3000.00
00817              20.00    -2800.00
00818              40.00    -2600.00
00819              40.00    -2200.00
00820              20.00    -2000.00
00821              60.00    -1800.00
00822              20.00    -1400.00
00823              60.00    -1200.00
00824              20.00     -800.00
00825              60.00     -600.00
00826              60.00     -400.00
00827              60.00     -200.00
00828              60.00      200.00
00829              80.00      400.00
00830             160.00      600.00
00831             240.00     1000.00
00832             240.00     1000.00
00833             180.00     1200.00
00834             140.00     1400.00
00835             140.00     1800.00
00836             320.00     2000.00
00837            1060.00     2600.00
00838            1280.00     2800.00
00839             120.00     3000.00
00840           -1020.00     3000.00
00841           -1100.00     3200.00
00842            -940.00     3800.00
00843            -300.00     4000.00
00844             800.00     4000.00
00845             400.00     4200.00
00846             420.00     4800.00
00847              80.00     4400.00
00848            -100.00     5400.00
00849             340.00     5600.00
00850             -20.00     5200.00
00851             300.00     6000.00
00852             260.00     5800.00
00853             -20.00     6600.00
00854             -60.00     6600.00
00855               0.00     6600.00
00856             220.00     7400.00
00857               0.00     6600.00
00858             180.00     7600.00
00859             140.00     7600.00
00860             100.00     7800.00
00861              80.00     8200.00
00862             120.00     8200.00
00863             160.00     8600.00
00864              20.00     8400.00
00865             160.00     9000.00
00866              40.00     9200.00
00867              80.00     9200.00
00868               0.00     9400.00
00869             160.00     9600.00
00870             140.00     9800.00
00871              80.00    10000.00
00872              80.00    10200.00
00873              80.00    10200.00
00874              80.00    10600.00
00875              60.00    10600.00
00876             100.00    11000.00
00877              20.00    11000.00
00878              60.00    11000.00
00879              80.00    11400.00
00880             100.00    11400.00
00881              80.00    11600.00
00882              80.00    11800.00
00883              60.00    12000.00
00884              60.00    12000.00
00885              80.00    12200.00
00886             100.00    12400.00
00887              80.00    12400.00
00888              60.00    12400.00
00889              60.00    12600.00
00890              60.00    12800.00
00891              80.00    13000.00
00892             100.00    12800.00
00893             100.00    13200.00
00894              60.00    13200.00
00895              40.00    13200.00
00896              60.00    13400.00
00897              60.00    13400.00
00898              80.00    13400.00
00899             100.00    13600.00
00900              80.00    13600.00
00901              60.00    13600.00
00902              60.00    13800.00
00903              60.00    13800.00
00904              60.00    13800.00
00905              60.00    13800.00
00906              80.00    13800.00
00907              60.00    13800.00
00908              60.00    13800.00
00909              60.00    14000.00
00910              80.00    14000.00
00911              40.00    13800.00
00912              60.00    14000.00
00913              80.00    13800.00
00914              60.00    14000.00
00915              20.00    13800.00
00916              20.00    13800.00
00917              60.00    13800.00
00918              40.00    13800.00
00919              60.00    13800.00
00920              80.00    13800.00
00921              60.00    13600.00
00922              60.00    13600.00
00923              40.00    13400.00
00924              20.00    13400.00
00925              60.00    13400.00
00926              60.00    13400.00
00927              60.00    13200.00
00928              20.00    13000.00
00929              20.00    13200.00
00930              20.00    13000.00
00931              20.00    13000.00
00932              20.00    12600.00
00933              20.00    12800.00
00934              20.00    12600.00
00935               0.00    12400.00
00936               0.00    12400.00
00937              20.00    12200.00
00938               0.00    12200.00
00939               0.00    12200.00
00940              20.00    11800.00
00941               0.00    11600.00
00942               0.00    11600.00
00943               0.00    11400.00
00944               0.00    11400.00
00945               0.00    11000.00
00946               0.00    11000.00
00947               0.00    10800.00
00948             -20.00    10600.00
00949             -20.00    10400.00
00950             -20.00    10200.00
00951               0.00    10200.00
00952               0.00    10000.00
00953               0.00     9800.00
00954               0.00     9600.00
00955             -20.00     9400.00
00956             -20.00     9200.00
00957             -20.00     9000.00
00958             -20.00     8800.00
00959               0.00     8600.00
00960             -20.00     8400.00
00961             -20.00     8200.00
00962             -20.00     8200.00
00963             -20.00     7600.00
00964             -20.00     7600.00
00965             -20.00     7200.00
00966             -20.00     7200.00
00967             -20.00     6800.00
00968             -20.00     6600.00
00969             -60.00     6600.00
00970             -20.00     6200.00
00971             -20.00     6000.00
00972             -20.00     5800.00
00973             -20.00     5400.00
00974             -60.00     5600.00
00975             -20.00     5000.00
00976             -40.00     4600.00
00977             -20.00     4400.00
00978             -20.00     4400.00
00979             -20.00     4200.00
00980             -20.00     3800.00
00981             -60.00     3400.00
00982             -60.00     3200.00
00983             -20.00     3000.00
00984             -40.00     2800.00
00985             -60.00     2600.00
00986             -60.00     2200.00
00987             -40.00     2000.00
00988             -40.00     1800.00
00989             -20.00     1400.00
00990             -60.00     1200.00
00991             -60.00      800.00
00992             -20.00      800.00
00993             -20.00      400.00
00994             -40.00      200.00
00995             -60.00        0.00
00996             -20.00     -200.00
00997              60.00     -600.00
00998             120.00     -800.00
00999             120.00    -1200.00
01000              60.00    -1200.00
01001               0.00    -1600.00
01002               0.00    -1600.00
01003              40.00    -2000.00
01004             340.00    -2200.00
01005             980.00    -2600.00
01006             740.00    -3000.00
01007            -340.00    -3000.00
01008           -1040.00    -3400.00
01009            -900.00    -3600.00
01010            -780.00    -3600.00
01011            -560.00    -3800.00
01012             320.00    -4400.00
01013             240.00    -4600.00
01014             240.00    -4600.00
01015             160.00    -5400.00
01016            -180.00    -5200.00
01017             180.00    -5400.00
01018              40.00    -5800.00
01019             -20.00    -5800.00
01020              40.00    -6600.00
01021            -100.00    -6200.00
01022            -180.00    -6800.00
01023            -160.00    -6800.00
01024              20.00    -6800.00
01025            -160.00    -7400.00
01026            -100.00    -7200.00
01027              60.00    -7800.00
01028             -80.00    -7600.00
01029            -100.00    -8600.00
01030             -60.00    -8400.00
01031              20.00    -8400.00
01032            -100.00    -9000.00
01033            -100.00    -9000.00
01034             -80.00    -9200.00
01035            -100.00    -9200.00
01036            -100.00    -9800.00
01037             -60.00    -9800.00
01038             -20.00    -9800.00
01039            -100.00   -10200.00
01040             -60.00   -10200.00
01041             -40.00   -10400.00
01042             -80.00   -10600.00
01043            -100.00   -11000.00
01044             -60.00   -10800.00
01045            -100.00   -11200.00
01046            -100.00   -11400.00
01047             -60.00   -11400.00
01048             -60.00   -11400.00
01049            -100.00   -11800.00
01050             -60.00   -11800.00
01051             -60.00   -11800.00
01052            -100.00   -12000.00
01053             -80.00   -12200.00
01054             -20.00   -12200.00
01055             -80.00   -12400.00
01056            -100.00   -12600.00
01057             -80.00   -12600.00
01058             -60.00   -12600.00
01059             -80.00   -12600.00
01060             -40.00   -13000.00
01061             -20.00   -13000.00
01062             -80.00   -13000.00
01063            -100.00   -13200.00
01064             -80.00   -13400.00
01065             -80.00   -13400.00
01066             -80.00   -13400.00
01067             -20.00   -13400.00
01068             -60.00   -13600.00
01069             -80.00   -13400.00
01070             -80.00   -13600.00
01071             -80.00   -13800.00
01072            -100.00   -13800.00
01073             -60.00   -13800.00
01074             -40.00   -13600.00
01075             -60.00   -13600.00
01076             -80.00   -13800.00
01077             -80.00   -13800.00
01078             -80.00   -13600.00
01079             -80.00   -13600.00
01080             -60.00   -13800.00
01081             -20.00   -13800.00
01082             -60.00   -13600.00
01083             -80.00   -13800.00
01084             -60.00   -13600.00
01085             -60.00   -13600.00
01086             -80.00   -13600.00
01087             -60.00   -13400.00
01088             -20.00   -13400.00
01089             -60.00   -13400.00
01090             -60.00   -13400.00
01091             -40.00   -13400.00
01092             -60.00   -13400.00
01093             -40.00   -13200.00
01094             -20.00   -13000.00
01095             -20.00   -13200.00
01096             -40.00   -13000.00
01097             -60.00   -13000.00
01098             -20.00   -13000.00
01099             -40.00   -12600.00
01100             -20.00   -12600.00
01101             -20.00   -12600.00
01102             -20.00   -12400.00
01103             -20.00   -12200.00
01104             -20.00   -12200.00
01105             -40.00   -12000.00
01106             -20.00   -12000.00
01107             -20.00   -11800.00
01108               0.00   -11800.00
01109               0.00   -11600.00
01110             -20.00   -11400.00
01111             -20.00   -11200.00
01112             -20.00   -11000.00
01113               0.00   -11000.00
01114               0.00   -10800.00
01115             -20.00   -10800.00
01116               0.00   -10600.00
01117             -20.00   -10200.00
01118               0.00   -10000.00
01119               0.00   -10000.00
01120               0.00    -9800.00
01121               0.00    -9600.00
01122               0.00    -9400.00
01123               0.00    -9200.00
01124               0.00    -9000.00
01125               0.00    -8800.00
01126              20.00    -8600.00
01127               0.00    -8400.00
01128              20.00    -8400.00
01129               0.00    -8200.00
01130               0.00    -7800.00
01131               0.00    -7600.00
01132               0.00    -7400.00
01133               0.00    -7200.00
01134               0.00    -6800.00
01135               0.00    -6800.00
01136               0.00    -6400.00
01137               0.00    -6200.00
01138              20.00    -6000.00
01139               0.00    -5800.00
01140              20.00    -5400.00
01141              20.00    -5200.00
01142              20.00    -5000.00
01143              20.00    -4800.00
01144               0.00    -4600.00
01145              20.00    -4200.00
01146              40.00    -4200.00
01147              40.00    -3800.00
01148              20.00    -3600.00
01149               0.00    -3400.00
01150              20.00    -3000.00
01151              20.00    -2800.00
01152              20.00    -2600.00
01153              40.00    -2400.00
01154              40.00    -2000.00
01155              20.00    -1800.00
01156              60.00    -1400.00
01157              60.00    -1200.00
01158              60.00    -1000.00
01159              60.00     -600.00
01160              60.00     -600.00
01161              60.00     -200.00
01162              60.00        0.00
01163              80.00      200.00
01164             140.00      600.00
01165             220.00      600.00
01166             240.00     1000.00
01167             220.00     1200.00
01168             160.00     1400.00
01169             140.00     1600.00
01170             220.00     2000.00
01171             740.00     2200.00
01172            1400.00     2600.00
01173             620.00     2800.00
01174            -720.00     3000.00
01175           -1200.00     3000.00
01176            -960.00     3600.00
01177            -660.00     3800.00
01178             580.00     4200.00
01179             620.00     4000.00
01180             380.00     4600.00
01181             300.00     4600.00
01182            -180.00     4600.00
01183             280.00     5800.00
01184              80.00     5000.00
01185              80.00     5800.00
01186             380.00     6000.00
01187               0.00     6200.00
01188             -40.00     6600.00
01189             -80.00     6200.00
01190             220.00     7400.00
01191              60.00     7000.00
01192              80.00     7200.00
01193             180.00     7800.00
01194              60.00     7800.00
01195             100.00     8200.00
01196              60.00     8000.00
01197             160.00     8600.00
01198              20.00     8400.00
01199             120.00     8600.00
01200              60.00     9000.00
01201              60.00     9200.00
01202              60.00     9400.00
01203             100.00     9600.00
01204             160.00     9800.00
01205              60.00     9800.00
01206             100.00    10200.00
01207              60.00    10400.00
01208              80.00    10600.00
01209              60.00    10600.00
01210             100.00    10800.00
01211              60.00    10800.00
01212              20.00    11200.00
01213              60.00    11400.00
01214              80.00    11600.00
01215             100.00    11600.00
01216              80.00    11800.00
01217              80.00    12000.00
01218              40.00    12000.00
01219              60.00    12000.00
01220             100.00    12400.00
01221              80.00    12400.00
01222              60.00    12600.00
01223              80.00    12600.00
01224              60.00    12600.00
01225              80.00    12800.00
01226             100.00    13000.00
01227             100.00    13000.00
01228              60.00    13200.00
01229              40.00    13400.00
01230              60.00    13200.00
01231              60.00    13400.00
01232              60.00    13400.00
01233             100.00    13600.00
01234             100.00    13600.00
01235              60.00    13800.00
01236              40.00    13600.00
01237              60.00    13800.00
01238              60.00    13800.00
01239              60.00    13800.00
01240              80.00    13800.00
01241              60.00    14000.00
01242              20.00    13800.00
01243              60.00    13800.00
01244              80.00    13800.00
01245              60.00    13800.00
01246              60.00    14000.00
01247              80.00    13800.00
01248              60.00    14000.00
01249              20.00    13800.00
01250              60.00    13800.00
01251              40.00    13800.00
01252              60.00    13800.00
01253              60.00    13600.00
01254              60.00    13800.00
01255              40.00    13800.00
01256              20.00    13600.00
01257              60.00    13600.00
01258              20.00    13400.00
01259              20.00    13400.00
01260              40.00    13400.00
01261              20.00    13200.00
01262              20.00    13200.00
01263              20.00    13200.00
01264              20.00    13000.00
01265              20.00    13000.00
01266              20.00    13000.00
01267              20.00    12600.00
01268              20.00    12600.00
01269               0.00    12600.00
01270               0.00    12400.00
01271               0.00    12200.00
01272               0.00    12200.00
01273              20.00    12200.00
01274              20.00    12000.00
01275               0.00    11800.00
01276               0.00    11600.00
01277               0.00    11400.00
01278               0.00    11400.00
01279               0.00    11000.00
01280               0.00    11000.00
01281               0.00    11000.00
01282               0.00    10800.00
01283               0.00    10600.00
01284             -20.00    10200.00
01285               0.00    10200.00
01286               0.00    10000.00
01287               0.00     9800.00
01288               0.00     9600.00
01289             -20.00     9400.00
01290             -20.00     9400.00
01291               0.00     9200.00
01292             -20.00     9000.00
01293             -20.00     8600.00
01294               0.00     8400.00
01295             -20.00     8200.00
01296             -20.00     8200.00
01297             -20.00     7800.00
01298             -20.00     7600.00
01299             -20.00     7400.00
01300             -20.00     7000.00
01301             -20.00     7000.00
01302             -20.00     6800.00
01303             -40.00     6600.00
01304             -20.00     6200.00
01305             -20.00     6000.00
01306             -20.00     5800.00
01307             -20.00     5600.00
01308             -40.00     5400.00
01309             -20.00     5000.00
01310             -40.00     5000.00
01311             -60.00     4600.00
01312             -20.00     4400.00
01313             -20.00     4200.00
01314             -20.00     3800.00
01315             -60.00     3600.00
01316             -40.00     3400.00
01317             -60.00     3000.00
01318             -40.00     3000.00
01319             -60.00     2600.00
01320             -60.00     2400.00
01321             -20.00     2000.00
01322             -60.00     1800.00
01323             -80.00     1600.00
01324             -60.00     1200.00
01325             -60.00     1000.00
01326             -60.00      800.00
01327             -60.00      600.00
01328             -60.00      200.00
01329             -80.00        0.00
01330             -60.00     -200.00
01331               0.00     -400.00
01332             100.00     -600.00
01333             140.00    -1000.00
01334              80.00    -1400.00
01335              20.00    -1400.00
01336               0.00    -1600.00
01337              20.00    -1800.00
01338             160.00    -2200.00
01339             780.00    -2400.00
01340             960.00    -3000.00
01341              60.00    -3000.00
01342            -900.00    -3400.00
01343            -980.00    -3600.00
01344            -780.00    -3600.00
01345            -740.00    -3800.00
01346              60.00    -4200.00
01347             380.00    -4600.00
01348             160.00    -4400.00
01349             300.00    -5000.00
01350            -120.00    -5200.00
01351              60.00    -5200.00
01352             140.00    -5800.00
01353             -60.00    -5600.00
01354              80.00    -6400.00
01355             -60.00    -6000.00
01356            -160.00    -6600.00
01357            -240.00    -7000.00
01358             -20.00    -6600.00
01359             -60.00    -7400.00
01360            -160.00    -7200.00
01361              20.00    -7800.00
01362               0.00    -7600.00
01363             -80.00    -8200.00
01364            -100.00    -8600.00
01365              20.00    -8200.00
01366             -60.00    -9000.00
01367            -100.00    -9000.00
01368             -80.00    -9000.00
01369             -80.00    -9200.00
01370            -100.00    -9400.00
01371             -80.00    -9800.00
01372               0.00    -9800.00
01373            -100.00   -10000.00
01374             -80.00   -10200.00
01375             -20.00   -10600.00
01376             -60.00   -10800.00
01377            -100.00   -10800.00
01378             -80.00   -11000.00
01379             -80.00   -11200.00
01380            -140.00   -11400.00
01381            -100.00   -11400.00
01382             -20.00   -11600.00
01383             -80.00   -11600.00
01384             -80.00   -11800.00
01385             -80.00   -11800.00
01386             -80.00   -12200.00
01387            -100.00   -12200.00
01388             -60.00   -12200.00
01389             -60.00   -12200.00
01390            -100.00   -12600.00
01391            -100.00   -12600.00
01392             -60.00   -12600.00
01393             -80.00   -12600.00
01394             -60.00   -13000.00
01395             -60.00   -13200.00
01396             -60.00   -13000.00
01397            -100.00   -13200.00
01398             -80.00   -13200.00
01399             -80.00   -13400.00
01400            -100.00   -13600.00
01401             -60.00   -13600.00
01402             -20.00   -13400.00
01403             -80.00   -13600.00
01404             -80.00   -13600.00
01405             -60.00   -13800.00
01406             -80.00   -13800.00
01407             -80.00   -13600.00
01408             -60.00   -13800.00
01409             -60.00   -13800.00
01410            -100.00   -13800.00
01411             -80.00   -13800.00
01412             -60.00   -13600.00
01413             -80.00   -13800.00
01414             -60.00   -13800.00
01415             -40.00   -13800.00
01416             -20.00   -13600.00
01417             -60.00   -13800.00
01418             -60.00   -13600.00
01419             -40.00   -13600.00
01420             -40.00   -13800.00
01421             -40.00   -13600.00
01422             -20.00   -13400.00
01423             -60.00   -13800.00
01424             -60.00   -13400.00
01425             -60.00   -13400.00
01426             -20.00   -13400.00
01427             -60.00   -13400.00
01428             -20.00   -13200.00
01429             -20.00   -13200.00
01430             -20.00   -13000.00
01431             -60.00   -13000.00
01432             -20.00   -12800.00
01433             -20.00   -12800.00
01434             -20.00   -12600.00
01435             -20.00   -12600.00
01436             -20.00   -12400.00
01437               0.00   -12400.00
01438             -40.00   -12400.00
01439             -20.00   -12200.00
01440             -20.00   -12200.00
01441             -20.00   -11800.00
01442               0.00   -11800.00
01443               0.00   -11600.00
01444             -40.00   -11600.00
01445             -20.00   -11400.00
01446             -20.00   -11200.00
01447               0.00   -11000.00
01448              20.00   -10800.00
01449             -20.00   -10800.00
01450             -20.00   -10600.00
01451             -20.00   -10200.00
01452             -20.00   -10200.00
01453               0.00   -10000.00
01454               0.00    -9800.00
01455               0.00    -9800.00
01456             -20.00    -9400.00
01457             -20.00    -9200.00
01458             -20.00    -9200.00
01459               0.00    -8800.00
01460               0.00    -8600.00
01461               0.00    -8600.00
01462             -20.00    -8400.00
01463               0.00    -8200.00
01464               0.00    -7800.00
01465               0.00    -7600.00
01466              20.00    -7400.00
01467              20.00    -7200.00
01468               0.00    -7000.00
01469               0.00    -6600.00
01470               0.00    -6600.00
01471               0.00    -6200.00
01472              20.00    -6200.00
01473              20.00    -6000.00
01474              20.00    -5600.00
01475              20.00    -5400.00
01476               0.00    -5400.00
01477               0.00    -4800.00
01478               0.00    -4800.00
01479              20.00    -4400.00
01480              40.00    -4200.00
01481              40.00    -3800.00
01482              60.00    -3600.00
01483              20.00    -3400.00
01484               0.00    -3200.00
01485              20.00    -2800.00
01486              60.00    -2600.00
01487              60.00    -2400.00
01488              40.00    -2200.00
01489              60.00    -2000.00
01490              40.00    -1800.00
01491              20.00    -1400.00
01492              60.00    -1200.00
01493              60.00     -800.00
01494              60.00     -600.00
01495              60.00     -400.00
01496              60.00        0.00
01497              60.00      200.00
01498             100.00      600.00
01499             200.00      600.00
01500             240.00     1000.00
01501             220.00     1000.00
01502             180.00     1400.00
01503             160.00     1600.00
01504             160.00     1800.00
01505             480.00     2000.00
01506            1280.00     2600.00
01507            1060.00     2800.00
01508            -260.00     3000.00
01509           -1180.00     3000.00
01510           -1040.00     3400.00
01511            -900.00     3800.00
01512             120.00     4000.00
01513             800.00     4000.00
01514             320.00     4400.00
01515             460.00     4800.00
01516            -100.00     4400.00
01517              80.00     5800.00
01518             260.00     5400.00
01519             -60.00     5600.00
01520             380.00     6000.00
01521             100.00     5800.00
01522             -40.00     6600.00
01523            -100.00     6200.00
01524              80.00     7000.00
01525             160.00     7000.00
01526               0.00     7000.00
01527             220.00     7600.00
01528              60.00     7400.00
01529             100.00     7800.00
01530              60.00     7800.00
01531             160.00     8400.00
01532              80.00     8600.00
01533              60.00     8400.00
01534             100.00     9200.00
01535              60.00     9000.00
01536              80.00     9400.00
01537              20.00     9400.00
01538             180.00     9800.00
01539              60.00     9800.00
01540             100.00    10000.00
01541              80.00    10400.00
01542              80.00    10200.00
01543              60.00    10600.00
01544             100.00    10600.00
01545              80.00    11000.00
01546              20.00    11000.00
01547              60.00    11200.00
01548             100.00    11400.00
01549             100.00    11400.00
01550              80.00    11800.00
01551              80.00    12000.00
01552              60.00    12000.00
01553              60.00    12200.00
01554              80.00    12200.00
01555             100.00    12400.00
01556              60.00    12400.00
01557              60.00    12600.00
01558              60.00    12600.00
01559              80.00    12600.00
01560             100.00    12800.00
01561             120.00    13000.00
01562              80.00    13200.00
01563              60.00    13000.00
01564              60.00    13200.00
01565              60.00    13400.00
01566              60.00    13400.00
01567              80.00    13600.00
01568             100.00    13600.00
01569              80.00    13800.00
01570              60.00    13600.00
01571              60.00    13800.00
01572              60.00    13800.00
01573              60.00    13600.00
01574              80.00    13800.00
01575              60.00    13800.00
01576              60.00    14000.00
01577              40.00    13800.00
01578              80.00    14000.00
01579              60.00    14000.00
01580              60.00    13800.00
01581              80.00    13800.00
01582              60.00    13800.00
01583              60.00    13800.00
01584              20.00    13800.00
01585              40.00    13800.00
01586              60.00    13800.00
01587              40.00    13800.00
01588              60.00    13800.00
01589              60.00    13600.00
01590              20.00    13600.00
01591              40.00    13600.00
01592              20.00    13400.00
01593              20.00    13400.00
01594              20.00    13400.00
01595              20.00    13200.00
01596              20.00    13200.00
01597               0.00    13200.00
01598              20.00    13000.00
01599              20.00    13000.00
01600              20.00    13000.00
01601              20.00    12600.00
01602              40.00    12600.00
01603               0.00    12400.00
01604               0.00    12400.00
01605               0.00    12400.00
01606               0.00    12200.00
01607              20.00    12000.00
01608               0.00    11800.00
01609               0.00    11800.00
01610               0.00    11600.00
01611               0.00    11600.00
01612               0.00    11400.00
01613              20.00    11400.00
01614               0.00    11000.00
01615               0.00    11000.00
01616               0.00    10800.00
01617               0.00    10600.00
01618               0.00    10400.00
01619               0.00    10200.00
01620               0.00    10000.00
01621               0.00     9800.00
01622               0.00     9800.00
01623             -20.00     9400.00
01624               0.00     9400.00
01625               0.00     9200.00
01626               0.00     9000.00
01627               0.00     8800.00
01628               0.00     8400.00
01629             -20.00     8400.00
01630             -20.00     8200.00
01631             -20.00     7800.00
01632             -20.00     7800.00
01633               0.00     7400.00
01634               0.00     7200.00
01635               0.00     7000.00
01636             -20.00     6800.00
01637             -60.00     6600.00
01638             -20.00     6200.00
01639             -40.00     6200.00
01640             -20.00     5800.00
01641               0.00     5800.00
01642             -20.00     5400.00
01643             -60.00     5200.00
01644             -60.00     5000.00
01645             -60.00     4800.00
01646             -60.00     4400.00
01647             -20.00     4200.00
01648             -20.00     4200.00
01649             -20.00     3600.00
01650             -80.00     3600.00
01651             -80.00     3200.00
01652             -60.00     3000.00
01653             -80.00     2600.00
01654             -60.00     2400.00
01655             -60.00     2200.00
01656             -60.00     1800.00
01657             -60.00     1600.00
01658             -60.00     1400.00
01659             -60.00     1000.00
01660             -80.00     1000.00
01661             -80.00      600.00
01662             -60.00      400.00
01663             -60.00      200.00
01664             -60.00     -200.00
01665             -20.00     -400.00
01666              80.00     -600.00
01667             140.00    -1000.00
01668             100.00     -800.00
01669              20.00    -1400.00
01670               0.00    -1600.00
01671               0.00    -1800.00
01672             100.00    -2000.00
01673             540.00    -2200.00
01674            1040.00    -2800.00
01675             420.00    -3000.00
01676            -640.00    -3400.00
01677           -1040.00    -3400.00
01678            -820.00    -3400.00
01679            -780.00    -3600.00
01680            -320.00    -3800.00
01681             440.00    -4600.00
01682             160.00    -4400.00
01683             300.00    -4800.00
01684               0.00    -5400.00
01685            -100.00    -5000.00
01686             220.00    -5600.00
01687             -20.00    -5600.00
01688              20.00    -6200.00
01689               0.00    -6200.00
01690            -120.00    -6200.00
01691            -200.00    -7000.00
01692             -80.00    -6600.00
01693               0.00    -7200.00
01694            -180.00    -7400.00
01695             -20.00    -7600.00
01696              20.00    -7800.00
01697             -80.00    -7800.00
01698            -100.00    -8400.00
01699               0.00    -8200.00
01700               0.00    -8600.00
01701            -100.00    -9000.00
01702             -80.00    -9000.00
01703             -80.00    -9400.00
01704            -100.00    -9400.00
01705            -100.00    -9800.00
01706             -20.00    -9800.00
01707             -60.00   -10000.00
01708            -100.00   -10200.00
01709             -20.00   -10400.00
01710             -40.00   -10600.00
01711            -100.00   -10800.00
01712            -100.00   -10800.00
01713             -80.00   -11000.00
01714            -100.00   -11400.00
01715            -100.00   -11400.00
01716             -20.00   -11400.00
01717             -60.00   -11600.00
01718            -100.00   -11800.00
01719            -100.00   -11800.00
01720             -80.00   -12000.00
01721             -80.00   -12200.00
01722             -80.00   -12200.00
01723             -60.00   -12400.00
01724            -100.00   -12400.00
01725            -120.00   -12600.00
01726             -60.00   -12600.00
01727             -60.00   -12600.00
01728             -80.00   -12800.00
01729             -20.00   -13000.00
01730             -60.00   -13200.00
01731            -100.00   -13200.00
01732            -100.00   -13200.00
01733             -80.00   -13400.00
01734             -80.00   -13400.00
01735             -60.00   -13400.00
01736             -20.00   -13400.00
01737             -60.00   -13400.00
01738            -100.00   -13600.00
01739             -80.00   -13600.00
01740             -60.00   -13600.00
01741             -60.00   -13800.00
01742             -60.00   -13800.00
01743             -20.00   -13800.00
01744             -60.00   -13600.00
01745            -100.00   -13800.00
01746             -60.00   -13800.00
01747             -60.00   -13600.00
01748             -60.00   -13600.00
01749             -20.00   -13800.00
01750             -20.00   -13800.00
01751             -60.00   -13800.00
01752             -60.00   -13600.00
01753             -60.00   -13800.00
01754             -60.00   -13600.00
01755             -40.00   -13600.00
01756             -20.00   -13600.00
01757             -20.00   -13400.00
01758             -40.00   -13400.00
01759             -60.00   -13400.00
01760             -60.00   -13400.00
01761             -20.00   -13200.00
01762             -20.00   -13400.00
01763               0.00   -13200.00
01764             -20.00   -13000.00
01765             -20.00   -13000.00
01766             -20.00   -12800.00
01767             -20.00   -12800.00
01768             -20.00   -12600.00
01769             -20.00   -12600.00
01770               0.00   -12400.00
01771             -20.00   -12400.00
01772             -60.00   -12200.00
01773             -20.00   -12200.00
01774             -20.00   -12000.00
01775               0.00   -11800.00
01776               0.00   -11800.00
01777             -20.00   -11600.00
01778               0.00   -11600.00
01779             -20.00   -11400.00
01780             -20.00   -11200.00
01781             -20.00   -11000.00
01782             -20.00   -11000.00
01783               0.00   -10800.00
01784             -20.00   -10600.00
01785             -20.00   -10600.00
01786             -20.00   -10200.00
01787               0.00   -10000.00
01788               0.00    -9800.00
01789               0.00    -9800.00
01790               0.00    -9400.00
01791             -20.00    -9400.00
01792             -20.00    -9200.00
01793             -20.00    -9000.00
01794               0.00    -8800.00
01795               0.00    -8600.00
01796              20.00    -8400.00
01797               0.00    -8200.00
01798               0.00    -7800.00
01799               0.00    -7800.00
01800               0.00    -7400.00
01801               0.00    -7400.00
01802               0.00    -7000.00
01803              20.00    -6800.00
01804               0.00    -6600.00
01805               0.00    -6400.00
01806               0.00    -6200.00
01807              20.00    -6000.00
01808               0.00    -5800.00
01809              60.00    -5400.00
01810              20.00    -5200.00
01811              20.00    -5000.00
01812              20.00    -4600.00
01813              20.00    -4600.00
01814              20.00    -4200.00
01815              40.00    -4000.00
01816              60.00    -3800.00
01817              20.00    -3400.00
01818               0.00    -3200.00
01819              20.00    -3000.00
01820              60.00    -2800.00
01821              60.00    -2600.00
01822              60.00    -2200.00
01823              60.00    -2000.00
01824              60.00    -1800.00
01825              60.00    -1400.00
01826              40.00    -1200.00
01827              60.00     -800.00
01828              60.00     -600.00
01829              60.00     -400.00
01830              60.00        0.00
01831              60.00        0.00
01832              80.00      400.00
01833             160.00      600.00
01834             240.00      800.00
01835             240.00     1000.00
01836             220.00     1200.00
01837             160.00     1400.00
01838             160.00     1800.00
01839             300.00     2000.00
01840            1020.00     2600.00
01841            1320.00     2800.00
01842             220.00     2800.00
01843            -980.00     3000.00
01844           -1120.00     3400.00
01845            -960.00     3600.00
01846            -400.00     3800.00
01847             780.00     4000.00
01848             420.00     4200.00
01849             400.00     5000.00
01850             140.00     4400.00
01851            -120.00     5200.00
01852             340.00     5800.00
01853             -20.00     5200.00
01854             240.00     6000.00
01855             260.00     5800.00
01856             -20.00     6400.00
01857             -60.00     6600.00
01858             -20.00     6600.00
01859             220.00     7400.00
01860               0.00     6800.00
01861             160.00     7400.00
01862             140.00     7600.00
01863              80.00     7600.00
01864              80.00     8000.00
01865             100.00     8200.00
01866             160.00     8600.00
01867              20.00     8400.00
01868             140.00     9000.00
01869              20.00     9200.00
01870              80.00     9200.00
01871              20.00     9400.00
01872             160.00     9800.00
01873             160.00     9800.00
01874              80.00    10000.00
01875             100.00    10200.00
01876              60.00    10400.00
01877              80.00    10400.00
01878              80.00    10600.00
01879             120.00    11000.00
01880              40.00    11000.00
01881              60.00    11400.00
01882              80.00    11400.00
01883             100.00    11400.00
01884              80.00    11600.00
01885             100.00    11800.00
01886              60.00    12000.00
01887              60.00    12200.00
01888              80.00    12200.00
01889             100.00    12400.00
01890              80.00    12400.00
01891              60.00    12400.00
01892              80.00    12800.00
01893              60.00    12800.00
01894              80.00    13000.00
01895             100.00    13000.00
01896             100.00    13000.00
01897              60.00    13200.00
01898              60.00    13200.00
01899              60.00    13200.00
01900              60.00    13400.00
01901              80.00    13400.00
01902             100.00    13600.00
01903              80.00    13400.00
01904              80.00    13600.00
01905              60.00    13800.00
01906              80.00    13800.00
01907              60.00    13800.00
01908              60.00    13800.00
01909              80.00    13800.00
01910              60.00    13800.00
01911              20.00    13800.00
01912              60.00    13800.00
01913              60.00    13800.00
01914              60.00    14000.00
01915              60.00    13800.00
01916              60.00    14000.00
01917              60.00    13800.00
01918              20.00    13800.00
01919              40.00    13800.00
01920              20.00    13800.00
01921              60.00    13800.00
01922              60.00    13800.00
01923              60.00    13600.00
01924              20.00    13600.00
01925              20.00    13800.00
01926              60.00    13400.00
01927              40.00    13400.00
01928              40.00    13600.00
01929              40.00    13200.00
01930              20.00    13200.00
01931              20.00    13200.00
01932              20.00    13200.00
01933              20.00    13000.00
01934              20.00    13000.00
01935              20.00    12600.00
01936              20.00    12600.00
01937               0.00    12600.00
01938               0.00    12400.00
01939               0.00    12200.00
01940              20.00    12200.00
01941              20.00    12200.00
01942              20.00    12000.00
01943              20.00    12000.00
01944               0.00    11600.00
01945               0.00    11600.00
01946               0.00    11600.00
01947               0.00    11200.00
01948               0.00    11200.00
01949              20.00    11000.00
01950              20.00    10800.00
01951               0.00    10600.00
01952             -20.00    10600.00
01953               0.00    10400.00
01954               0.00    10000.00
01955              20.00     9800.00
01956               0.00     9800.00
01957               0.00     9800.00
01958             -20.00     9400.00
01959             -20.00     9200.00
01960               0.00     9000.00
01961               0.00     8600.00
01962               0.00     8600.00
01963               0.00     8400.00
01964             -20.00     8200.00
01965             -60.00     8000.00
01966             -40.00     7800.00
01967               0.00     7400.00
01968               0.00     7400.00
01969               0.00     7000.00
01970             -20.00     7000.00
01971             -20.00     6600.00
01972             -40.00     6600.00
01973             -20.00     6200.00
01974             -20.00     6000.00
01975             -20.00     5800.00
01976             -40.00     5400.00
01977             -60.00     5200.00
01978             -60.00     4800.00
01979             -40.00     5000.00
01980             -60.00     4600.00
01981             -20.00     4200.00
01982             -20.00     4200.00
01983             -60.00     3800.00
01984             -60.00     3600.00
01985             -60.00     3400.00
01986             -60.00     3000.00
01987             -60.00     2800.00
01988             -60.00     2600.00
01989             -60.00     2400.00
01990             -40.00     1800.00
01991             -60.00     1800.00
01992             -60.00     1400.00
01993             -60.00     1200.00
01994             -60.00     1000.00
01995             -60.00      800.00
01996             -60.00      400.00
01997             -60.00      400.00
01998             -60.00     -200.00
01999             -40.00     -200.00
02000              20.00     -600.00
02001             100.00     -600.00
02002             140.00    -1000.00
02003              60.00    -1200.00
02004              20.00    -1600.00
02005               0.00    -1800.00
02006              60.00    -1800.00
02007             300.00    -2200.00
02008             960.00    -2600.00
02009             780.00    -3000.00
02010            -280.00    -3000.00
02011           -1020.00    -3400.00
02012            -900.00    -3600.00
02013            -780.00    -3600.00
02014            -620.00    -3600.00
02015             300.00    -4400.00
02016             260.00    -4600.00
02017             240.00    -4400.00
02018             180.00    -5400.00
02019            -180.00    -5000.00
02020             160.00    -5400.00
02021              60.00    -5800.00
02022             -20.00    -5800.00
02023              60.00    -6600.00
02024            -100.00    -6000.00
02025            -180.00    -6800.00
02026            -180.00    -6800.00
02027              20.00    -7000.00
02028            -140.00    -7400.00
02029            -100.00    -7400.00
02030              60.00    -7800.00
02031             -80.00    -7600.00
02032            -100.00    -8400.00
02033             -60.00    -8400.00
02034              20.00    -8400.00
02035             -80.00    -8800.00
02036            -100.00    -9000.00
02037             -60.00    -9200.00
02038             -80.00    -9200.00
02039            -100.00    -9600.00
02040             -40.00    -9800.00
02041             -20.00    -9800.00
02042            -100.00   -10200.00
02043             -60.00   -10400.00
02044             -20.00   -10600.00
02045            -100.00   -10800.00
02046            -100.00   -11000.00
02047             -60.00   -11000.00
02048            -100.00   -11200.00
02049            -140.00   -11400.00
02050             -60.00   -11400.00
02051             -60.00   -11600.00
02052            -100.00   -11800.00
02053             -80.00   -11800.00
02054             -60.00   -12000.00
02055            -100.00   -12200.00
02056             -80.00   -12200.00
02057             -60.00   -12400.00
02058             -80.00   -12400.00
02059            -100.00   -12600.00
02060             -80.00   -12600.00
02061             -80.00   -12600.00
02062             -80.00   -13000.00
02063             -60.00   -13000.00
02064             -40.00   -13000.00
02065             -80.00   -13200.00
02066            -100.00   -13200.00
02067             -80.00   -13400.00
02068             -80.00   -13400.00
02069             -80.00   -13400.00
02070             -60.00   -13400.00
02071             -60.00   -13400.00
02072             -80.00   -13400.00
02073             -80.00   -13600.00
02074             -40.00   -13800.00
02075             -80.00   -13600.00
02076             -80.00   -13800.00
02077             -60.00   -13600.00
02078             -60.00   -13800.00
02079             -80.00   -13600.00
02080             -60.00   -13600.00
02081             -60.00   -13800.00
02082             -60.00   -13600.00
02083             -60.00   -14000.00
02084             -20.00   -13800.00
02085             -60.00   -13800.00
02086             -60.00   -13600.00
02087             -60.00   -13800.00
02088             -40.00   -13800.00
02089             -60.00   -13600.00
02090             -40.00   -13400.00
02091             -20.00   -13400.00
02092             -60.00   -13600.00
02093             -40.00   -13400.00
02094             -60.00   -13400.00
02095             -20.00   -13400.00
02096             -20.00   -13200.00
02097               0.00   -13200.00
02098             -20.00   -13200.00
02099             -20.00   -13000.00
02100             -60.00   -13000.00
02101             -20.00   -13000.00
02102             -20.00   -12800.00
02103             -20.00   -12600.00
02104               0.00   -12600.00
02105             -40.00   -12400.00
02106             -20.00   -12400.00
02107             -40.00   -12200.00
02108             -20.00   -12000.00
02109             -20.00   -11800.00
02110             -20.00   -11800.00
02111             -20.00   -11800.00
02112             -20.00   -11600.00
02113             -20.00   -11400.00
02114             -20.00   -11400.00
02115             -20.00   -11000.00
02116             -20.00   -11000.00
02117               0.00   -10800.00
02118             -20.00   -10600.00
02119               0.00   -10600.00
02120             -20.00   -10200.00
02121             -20.00   -10200.00
02122               0.00   -10000.00
02123               0.00    -9800.00
02124             -20.00    -9600.00
02125               0.00    -9400.00
02126               0.00    -9200.00
02127             -20.00    -9000.00
02128               0.00    -9000.00
02129               0.00    -8600.00
02130               0.00    -8400.00
02131               0.00    -8200.00
02132              20.00    -8000.00
02133               0.00    -7800.00
02134              20.00    -7600.00
02135               0.00    -7200.00
02136              20.00    -7000.00
02137              20.00    -6800.00
02138               0.00    -6800.00
02139               0.00    -6600.00
02140               0.00    -6200.00
02141               0.00    -6000.00
02142              40.00    -5800.00
02143              60.00    -5600.00
02144              40.00    -5400.00
02145               0.00    -5000.00
02146              20.00    -4600.00
02147              20.00    -4600.00
02148              20.00    -4200.00
02149              60.00    -4000.00
02150              20.00    -3800.00
02151              40.00    -3400.00
02152              40.00    -3400.00
02153              40.00    -3000.00
02154              40.00    -2800.00
02155              60.00    -2600.00
02156              60.00    -2200.00
02157              40.00    -2000.00
02158              60.00    -1800.00
02159              40.00    -1400.00
02160              60.00    -1400.00
02161              60.00     -800.00
02162              60.00     -600.00
02163              60.00     -600.00
02164              80.00     -400.00
02165              60.00      200.00
02166              80.00      200.00
02167             140.00      400.00
02168             220.00      800.00
02169             240.00     1000.00
02170             220.00     1200.00
02171             160.00     1400.00
02172             140.00     1800.00
02173             220.00     2000.00
02174             660.00     2200.00
02175            1420.00     2600.00
02176             700.00     3000.00
02177            -660.00     3000.00
02178           -1200.00     3000.00
02179            -980.00     3600.00
02180            -740.00     3800.00
02181             500.00     4200.00
02182             640.00     4000.00
02183             340.00     4600.00
02184             320.00     4600.00
02185            -180.00     4600.00
02186             260.00     5800.00
02187             100.00     5000.00
02188              60.00     5800.00
02189             400.00     5800.00
02190               0.00     6000.00
02191             -20.00     6600.00
02192             -80.00     6200.00
02193             180.00     7200.00
02194              80.00     7000.00
02195              80.00     7200.00
02196             220.00     7600.00
02197              60.00     7800.00
02198             100.00     8200.00
02199              60.00     8000.00
02200             180.00     8600.00
02201              40.00     8600.00
02202             100.00     8600.00
02203              80.00     9000.00
02204              60.00     9400.00
02205              40.00     9400.00
02206             100.00     9600.00
02207             180.00    10000.00
02208              60.00    10000.00
02209             140.00    10200.00
02210              60.00    10200.00
02211              80.00    10600.00
02212              80.00    10600.00
02213             120.00    10800.00
02214              80.00    11000.00
02215              60.00    11000.00
02216              80.00    11400.00
02217             100.00    11400.00
02218              80.00    11800.00
02219             100.00    11800.00
02220              80.00    12000.00
02221              60.00    12200.00
02222              80.00    12200.00
02223             100.00    12200.00
02224              80.00    12400.00
02225              60.00    12600.00
02226              60.00    12600.00
02227              80.00    12800.00
02228              80.00    12800.00
02229             100.00    13000.00
02230             120.00    13000.00
02231              80.00    13200.00
02232              60.00    13200.00
02233              80.00    13200.00
02234              60.00    13400.00
02235              60.00    13400.00
02236              80.00    13400.00
02237             100.00    13400.00
02238              80.00    13400.00
02239              40.00    13600.00
02240              60.00    13800.00
02241              20.00    13800.00
02242              60.00    13800.00
02243              80.00    13800.00
02244              60.00    13800.00
02245              60.00    13800.00
02246              40.00    13800.00
02247              60.00    13800.00
02248              60.00    14000.00
02249              60.00    14000.00
02250              60.00    14000.00
02251              60.00    13800.00
02252              40.00    13800.00
02253              20.00    13800.00
02254              20.00    13800.00
02255              60.00    13800.00
02256              60.00    13800.00
02257              60.00    13800.00
02258              20.00    13600.00
02259              40.00    13600.00
02260              40.00    13600.00
02261              20.00    13400.00
02262              60.00    13400.00
02263              60.00    13400.00
02264              60.00    13200.00
02265              20.00    13200.00
02266              20.00    13200.00
02267              20.00    13000.00
02268              20.00    13000.00
02269              20.00    13000.00
02270              60.00    12600.00
02271              20.00    12600.00
02272              20.00    12400.00
02273              20.00    12400.00
02274              20.00    12200.00
02275              20.00    12200.00
02276              40.00    12000.00
02277               0.00    11800.00
02278               0.00    11800.00
02279               0.00    11600.00
02280              20.00    11600.00
02281               0.00    11400.00
02282               0.00    11000.00
02283              20.00    11000.00
02284              20.00    10800.00
02285               0.00    10600.00
02286               0.00    10400.00
02287               0.00    10200.00
02288               0.00    10200.00
02289               0.00    10000.00
02290               0.00     9800.00
02291               0.00     9800.00
02292             -20.00     9400.00
02293             -20.00     9400.00
02294             -20.00     9200.00
02295             -20.00     9000.00
02296               0.00     8600.00
02297               0.00     8600.00
02298               0.00     8200.00
02299             -20.00     8200.00
02300             -20.00     7800.00
02301             -20.00     7600.00
02302             -20.00     7400.00
02303               0.00     7000.00
02304             -20.00     7000.00
02305             -20.00     6600.00
02306             -20.00     6600.00
02307             -40.00     6200.00
02308             -20.00     6000.00
02309             -20.00     5800.00
02310             -20.00     5600.00
02311             -40.00     5400.00
02312             -60.00     5200.00
02313             -60.00     4800.00
02314             -60.00     4600.00
02315             -40.00     4400.00
02316             -20.00     4200.00
02317             -40.00     3800.00
02318             -60.00     3600.00
02319             -60.00     3400.00
02320             -60.00     3000.00
02321             -60.00     3000.00
02322             -60.00     2600.00
02323             -60.00     2400.00
02324             -20.00     2200.00
02325             -60.00     2000.00
02326             -60.00     1600.00
02327             -60.00     1200.00
02328             -60.00     1000.00
02329             -60.00      800.00
02330             -40.00      600.00
02331             -60.00      400.00
02332             -60.00      200.00
02333             -60.00     -200.00
02334               0.00     -400.00
02335             100.00     -800.00
02336             100.00     -800.00
02337              80.00    -1000.00
02338              20.00    -1400.00
02339               0.00    -1600.00
02340              20.00    -1800.00
02341             160.00    -2200.00
02342             740.00    -2200.00
02343            1020.00    -2800.00
02344             120.00    -3000.00
02345            -860.00    -3400.00
02346            -980.00    -3400.00
02347            -780.00    -3400.00
02348            -760.00    -3600.00
02349               0.00    -4200.00
02350             400.00    -4600.00
02351             160.00    -4400.00
02352             300.00    -5000.00
02353            -100.00    -5200.00
02354              20.00    -5000.00
02355             160.00    -5800.00
02356             -60.00    -5800.00
02357              80.00    -6400.00
02358             -40.00    -6200.00
02359            -160.00    -6600.00
02360            -240.00    -7000.00
02361             -20.00    -6600.00
02362             -20.00    -7400.00
02363            -160.00    -7200.00
02364              20.00    -7600.00
02365             -20.00    -7800.00
02366            -100.00    -8200.00
02367            -100.00    -8400.00
02368              20.00    -8200.00
02369             -60.00    -9000.00
02370            -140.00    -9000.00
02371             -80.00    -9200.00
02372             -80.00    -9400.00
02373            -100.00    -9400.00
02374             -80.00    -9600.00
02375             -20.00    -9800.00
02376            -100.00   -10000.00
02377            -100.00   -10200.00
02378             -20.00   -10600.00
02379             -80.00   -10800.00
02380            -100.00   -10800.00
02381             -80.00   -10800.00
02382             -80.00   -11000.00
02383            -140.00   -11200.00
02384            -100.00   -11400.00
02385             -60.00   -11600.00
02386             -80.00   -11800.00
02387            -100.00   -11800.00
02388             -60.00   -12000.00
02389             -80.00   -12000.00
02390            -100.00   -12200.00
02391             -60.00   -12200.00
02392             -60.00   -12200.00
02393            -100.00   -12600.00
02394            -100.00   -12600.00
02395             -60.00   -12600.00
02396             -80.00   -12800.00
02397             -80.00   -13000.00
02398             -20.00   -13000.00
02399             -60.00   -13200.00
02400            -100.00   -13200.00
02401             -80.00   -13200.00
02402             -80.00   -13200.00
02403             -80.00   -13400.00
02404             -60.00   -13400.00
02405             -40.00   -13400.00
02406             -60.00   -13600.00
02407             -80.00   -13600.00
02408             -60.00   -13400.00
02409             -60.00   -13800.00
02410             -60.00   -13600.00
02411             -60.00   -13600.00
02412             -20.00   -13800.00
02413             -60.00   -13800.00
02414             -80.00   -13600.00
02415             -60.00   -13800.00
02416             -80.00   -13800.00
02417             -60.00   -13800.00
02418             -20.00   -13600.00
02419             -40.00   -13800.00
02420             -60.00   -13600.00
02421             -60.00   -13600.00
02422             -60.00   -13800.00
02423             -60.00   -13600.00
02424             -40.00   -13600.00
02425             -20.00   -13400.00
02426             -40.00   -13400.00
02427             -60.00   -13400.00
02428             -60.00   -13400.00
02429             -40.00   -13400.00
02430             -20.00   -13200.00
02431             -20.00   -13200.00
02432             -20.00   -13000.00
02433             -60.00   -13200.00
02434             -60.00   -13000.00
02435             -20.00   -13000.00
02436             -40.00   -12800.00
02437             -20.00   -12600.00
02438             -20.00   -12600.00
02439             -20.00   -12600.00
02440             -20.00   -12400.00
02441             -20.00   -12200.00
02442             -20.00   -12200.00
02443             -20.00   -11800.00
02444             -20.00   -12000.00
02445             -20.00   -11800.00
02446             -20.00   -11600.00
02447             -40.00   -11400.00
02448             -20.00   -11200.00
02449             -20.00   -11200.00
02450               0.00   -11000.00
02451               0.00   -10800.00
02452               0.00   -10800.00
02453             -20.00   -10600.00
02454               0.00   -10400.00
02455             -20.00   -10200.00
02456               0.00   -10000.00
02457             -20.00    -9800.00
02458               0.00    -9600.00
02459               0.00    -9600.00
02460               0.00    -9200.00
02461             -20.00    -9200.00
02462               0.00    -9000.00
02463               0.00    -8800.00
02464               0.00    -8600.00
02465               0.00    -8200.00
02466               0.00    -8200.00
02467               0.00    -7800.00
02468               0.00    -7600.00
02469              20.00    -7400.00
02470               0.00    -7200.00
02471              20.00    -7000.00
02472              20.00    -6600.00
02473               0.00    -6600.00
02474               0.00    -6400.00
02475              20.00    -6000.00
02476              40.00    -5800.00
02477              20.00    -5600.00
02478              20.00    -5400.00
02479              20.00    -5000.00
02480              20.00    -4800.00
02481               0.00    -4600.00
02482              20.00    -4400.00
02483              60.00    -4200.00
02484              20.00    -3800.00
02485              20.00    -3600.00
02486              20.00    -3400.00
02487              20.00    -3200.00
02488              60.00    -2800.00
02489              60.00    -2600.00
02490              40.00    -2400.00
02491              20.00    -2200.00
02492              60.00    -2000.00
02493              20.00    -1400.00
02494              60.00    -1400.00
02495              20.00     -800.00
02496              20.00    -1000.00
02497              20.00     -600.00
02498              80.00     -400.00
02499              60.00     -200.00
02500              60.00      200.00
02501              80.00      400.00
02502             160.00      600.00
02503             240.00     1000.00
02504             220.00     1000.00
02505             160.00     1200.00
02506             160.00     1600.00
02507             160.00     1800.00
02508             400.00     2200.00
02509            1240.00     2600.00
02510            1120.00     2800.00
02511            -220.00     3000.00
02512           -1140.00     3200.00
02513           -1060.00     3400.00
02514            -920.00     3800.00
02515               0.00     4200.00
02516             780.00     4200.00
02517             320.00     4400.00
02518             460.00     5000.00
02519             -60.00     4400.00
02520              40.00     5800.00
02521             300.00     5400.00
02522             -60.00     5400.00
02523             360.00     6200.00
02524             160.00     5800.00
02525             -20.00     6600.00
02526             -80.00     6400.00
02527              80.00     6800.00
02528             180.00     7000.00
02529               0.00     6800.00
02530             220.00     7800.00
02531              80.00     7600.00
02532             100.00     8000.00
02533              60.00     8200.00
02534             160.00     8400.00
02535             100.00     8600.00
02536              60.00     8400.00
02537             140.00     9000.00
02538              20.00     9200.00
02539              80.00     9400.00
02540              40.00     9400.00
02541             220.00     9800.00
02542              80.00    10000.00
02543             100.00    10000.00
02544              80.00    10200.00
02545              80.00    10400.00
02546              80.00    10600.00
02547             100.00    10800.00
02548             100.00    11000.00
02549              20.00    11000.00
02550              60.00    11400.00
02551              80.00    11400.00
02552             120.00    11600.00
02553              80.00    11600.00
02554             100.00    12000.00
02555              60.00    12000.00
02556              60.00    12200.00
02557              80.00    12200.00
02558             100.00    12400.00
02559              80.00    12400.00
02560              60.00    12400.00
02561              60.00    12800.00
02562              60.00    12800.00
02563              80.00    12600.00
02564             100.00    13000.00
02565              80.00    13000.00
02566              60.00    13000.00
02567              60.00    13200.00
02568              60.00    13400.00
02569              40.00    13400.00
02570              60.00    13400.00
02571              80.00    13400.00
02572              80.00    13600.00
02573              60.00    13400.00
02574              60.00    13600.00
02575              60.00    13600.00
02576              60.00    13600.00
02577              80.00    13800.00
02578              80.00    13800.00
02579              60.00    13800.00
02580              20.00    13800.00
02581              60.00    13800.00
02582              60.00    13800.00
02583              40.00    13800.00
02584              60.00    14000.00
02585              60.00    13800.00
02586              60.00    13800.00
02587              40.00    13800.00
02588              40.00    13800.00
02589              20.00    13800.00
02590              40.00    13800.00
02591              60.00    13800.00
02592              60.00    13600.00
02593              40.00    13600.00
02594              40.00    13400.00
02595              20.00    13400.00
02596              60.00    13600.00
02597              60.00    13400.00
02598              60.00    13400.00
02599              20.00    13200.00
02600              20.00    13200.00
02601               0.00    13200.00
02602              20.00    13000.00
02603              40.00    13000.00
02604              60.00    13000.00
02605              20.00    12600.00
02606              20.00    12600.00
02607               0.00    12400.00
02608               0.00    12400.00
02609              20.00    12200.00
02610              20.00    12200.00
02611              20.00    11800.00
02612              20.00    12000.00
02613               0.00    11800.00
02614               0.00    11400.00
02615              20.00    11400.00
02616               0.00    11000.00
02617               0.00    11000.00
02618              20.00    11000.00
02619               0.00    10800.00
02620               0.00    10600.00
02621             -20.00    10600.00
02622               0.00    10200.00
02623               0.00    10000.00
02624               0.00    10000.00
02625               0.00     9800.00
02626               0.00     9400.00
02627             -20.00     9400.00
02628             -20.00     9000.00
02629             -20.00     9000.00
02630             -20.00     8600.00
02631             -20.00     8600.00
02632             -20.00     8200.00
02633             -20.00     8200.00
02634             -60.00     7800.00
02635             -20.00     7600.00
02636             -20.00     7600.00
02637             -20.00     7000.00
02638             -20.00     7000.00
02639             -20.00     6800.00
02640             -60.00     6600.00
02641             -20.00     6200.00
02642             -60.00     6000.00
02643             -20.00     6000.00
02644             -20.00     5800.00
02645             -20.00     5400.00
02646             -40.00     5200.00
02647             -40.00     5000.00
02648             -40.00     4600.00
02649             -60.00     4400.00
02650             -60.00     4200.00
02651             -40.00     3800.00
02652             -40.00     3600.00
02653             -60.00     3600.00
02654             -80.00     3400.00
02655             -40.00     3000.00
02656             -60.00     2800.00
02657             -20.00     2200.00
02658             -60.00     2200.00
02659             -40.00     2000.00
02660             -60.00     1600.00
02661             -80.00     1400.00
02662             -60.00     1200.00
02663             -60.00     1000.00
02664             -60.00      600.00
02665             -60.00      400.00
02666             -60.00      200.00
02667             -20.00     -200.00
02668             -20.00     -400.00
02669              80.00     -600.00
02670             120.00     -800.00
02671             120.00    -1000.00
02672              20.00    -1200.00
02673               0.00    -1400.00
02674               0.00    -1800.00
02675              80.00    -2000.00
02676             480.00    -2200.00
02677            1040.00    -2800.00
02678             540.00    -3000.00
02679            -580.00    -3400.00
02680           -1040.00    -3400.00
02681            -820.00    -3600.00
02682            -800.00    -3600.00
02683            -380.00    -3800.00
02684             420.00    -4600.00
02685             180.00    -4400.00
02686             300.00    -4600.00
02687              60.00    -5400.00
02688            -100.00    -5000.00
02689             220.00    -5800.00
02690               0.00    -5400.00
02691              20.00    -6200.00
02692              20.00    -6200.00
02693            -120.00    -6200.00
02694            -240.00    -7000.00
02695            -100.00    -6600.00
02696              20.00    -7000.00
02697            -160.00    -7400.00
02698             -40.00    -7600.00
02699              20.00    -8000.00
02700            -100.00    -7800.00
02701            -100.00    -8600.00
02702             -20.00    -8400.00
02703               0.00    -8600.00
02704            -100.00    -9000.00
02705            -100.00    -9000.00
02706             -80.00    -9400.00
02707            -100.00    -9400.00
02708            -100.00    -9800.00
02709             -40.00    -9800.00
02710             -80.00   -10000.00
02711            -120.00   -10200.00
02712             -60.00   -10400.00
02713             -60.00   -10600.00
02714            -100.00   -10800.00
02715             -80.00   -10800.00
02716             -60.00   -11000.00
02717            -100.00   -11400.00
02718            -100.00   -11400.00
02719             -40.00   -11400.00
02720             -80.00   -11600.00
02721            -100.00   -11800.00
02722             -60.00   -11800.00
02723             -80.00   -11800.00
02724            -100.00   -12200.00
02725             -80.00   -12400.00
02726             -40.00   -12400.00
02727             -80.00   -12600.00
02728            -100.00   -12600.00
02729             -80.00   -12800.00
02730             -80.00   -12800.00
02731             -60.00   -13000.00
02732             -20.00   -13000.00
02733             -60.00   -13200.00
02734             -80.00   -13200.00
02735            -100.00   -13200.00
02736             -60.00   -13400.00
02737             -60.00   -13200.00
02738             -80.00   -13400.00
02739             -40.00   -13400.00
02740             -60.00   -13400.00
02741             -80.00   -13600.00
02742             -80.00   -13600.00
02743             -60.00   -13600.00
02744             -80.00   -13800.00
02745             -80.00   -13600.00
02746             -20.00   -13800.00
02747             -60.00   -13600.00
02748            -100.00   -14000.00
02749             -80.00   -13600.00
02750             -60.00   -13800.00
02751             -60.00   -13800.00
02752             -20.00   -13800.00
02753             -20.00   -13600.00
02754             -60.00   -13600.00
02755             -60.00   -13600.00
02756             -60.00   -13800.00
02757             -20.00   -13600.00
02758             -40.00   -13600.00
02759             -20.00   -13400.00
02760             -60.00   -13400.00
02761             -60.00   -13400.00
02762             -80.00   -13400.00
02763             -20.00   -13400.00
02764             -60.00   -13400.00
02765             -20.00   -13200.00
02766             -20.00   -13200.00
02767             -20.00   -13200.00
02768             -60.00   -13000.00
02769             -40.00   -13000.00
02770             -20.00   -12800.00
02771             -20.00   -12800.00
02772             -20.00   -12600.00
02773             -20.00   -12600.00
02774             -40.00   -12400.00
02775             -40.00   -12200.00
02776             -20.00   -12200.00
02777             -20.00   -12200.00
02778             -20.00   -12000.00
02779             -20.00   -11800.00
02780             -20.00   -11600.00
02781             -20.00   -11600.00
02782             -40.00   -11400.00
02783             -20.00   -11200.00
02784               0.00   -11000.00
02785             -20.00   -11000.00
02786               0.00   -10800.00
02787               0.00   -10600.00
02788             -20.00   -10600.00
02789             -20.00   -10200.00
02790             -20.00   -10000.00
02791               0.00    -9800.00
02792               0.00    -9800.00
02793               0.00    -9400.00
02794               0.00    -9400.00
02795               0.00    -9200.00
02796               0.00    -9000.00
02797               0.00    -8800.00
02798               0.00    -8600.00
02799              20.00    -8200.00
02800               0.00    -8200.00
02801               0.00    -8000.00
02802               0.00    -7800.00
02803               0.00    -7400.00
02804               0.00    -7200.00
02805              20.00    -7000.00
02806              20.00    -6800.00
02807              20.00    -6600.00
02808               0.00    -6200.00
02809              20.00    -6200.00
02810              20.00    -6000.00
02811              20.00    -5800.00
02812              20.00    -5400.00
02813              20.00    -5400.00
02814              20.00    -5000.00
02815              20.00    -4600.00
02816              20.00    -4400.00
02817              20.00    -4200.00
02818              60.00    -3800.00
02819              60.00    -3800.00
02820              60.00    -3400.00
02821              20.00    -3200.00
02822              20.00    -3000.00
02823              20.00    -2800.00
02824              20.00    -2600.00
02825              60.00    -2200.00
02826              20.00    -2000.00
02827              60.00    -1800.00
02828              20.00    -1400.00
02829              40.00    -1400.00
02830              60.00     -800.00
02831              60.00     -800.00
02832              60.00     -400.00
02833              60.00     -200.00
02834              60.00      200.00
02835              80.00      400.00
02836             140.00      600.00
02837             220.00      800.00
02838             240.00     1200.00
02839             180.00     1200.00
02840             160.00     1400.00
02841             140.00     1800.00
02842             260.00     2000.00
02843             960.00     2400.00
02844            1340.00     2800.00
02845             320.00     3000.00
02846            -960.00     3000.00
02847           -1140.00     3000.00
02848            -960.00     3600.00
02849            -480.00     3800.00
02850             760.00     3800.00
02851             480.00     3800.00
02852             400.00     4800.00
02853             160.00     4600.00
02854            -160.00     5200.00
02855             340.00     5800.00
02856               0.00     5000.00
02857             220.00     6000.00
02858             300.00     5800.00
02859             -20.00     6600.00
02860             -60.00     6600.00
02861             -60.00     6400.00
02862             240.00     7400.00
02863               0.00     6800.00
02864             160.00     7400.00
02865             140.00     7600.00
02866              80.00     7800.00
02867              80.00     8200.00
02868              80.00     8200.00
02869             160.00     8600.00
02870              20.00     8600.00
02871             140.00     9000.00
02872              40.00     9200.00
02873              80.00     9200.00
02874              20.00     9400.00
02875             140.00     9600.00
02876             140.00     9800.00
02877              60.00    10000.00
02878             100.00    10200.00
02879              60.00    10400.00
02880              80.00    10600.00
02881              80.00    10600.00
02882             120.00    11000.00
02883              20.00    11000.00
02884              60.00    11000.00
02885              80.00    11400.00
02886             100.00    11600.00
02887              80.00    11600.00
02888              80.00    11600.00
02889              60.00    11800.00
02890              20.00    12000.00
02891              80.00    12200.00
02892             100.00    12400.00
02893              80.00    12400.00
02894              60.00    12400.00
02895              60.00    12600.00
02896              60.00    12600.00
02897              80.00    12600.00
02898             100.00    13000.00
02899             100.00    13000.00
02900              60.00    13000.00
02901              60.00    13000.00
02902              60.00    13400.00
02903              40.00    13400.00
02904              60.00    13400.00
02905              80.00    13400.00
02906             100.00    13600.00
02907              60.00    13600.00
02908              60.00    13600.00
02909              60.00    13800.00
02910              60.00    13800.00
02911              80.00    13800.00
02912              80.00    13800.00
02913              60.00    13800.00
02914              40.00    13800.00
02915              60.00    13800.00
02916              60.00    13800.00
02917              60.00    13800.00
02918              60.00    13800.00
02919              80.00    13800.00
02920              60.00    13800.00
02921              20.00    13800.00
02922              20.00    13800.00
02923              60.00    13800.00
02924              20.00    13800.00
02925              60.00    13800.00
02926              80.00    13600.00
02927              40.00    13800.00
02928              60.00    13600.00
02929              20.00    13400.00
02930              60.00    13400.00
02931              60.00    13400.00
02932              60.00    13200.00
02933              40.00    13400.00
02934              60.00    13200.00
02935               0.00    13000.00
02936              20.00    13000.00
02937              60.00    13000.00
02938              20.00    13000.00
02939              60.00    12800.00
02940              20.00    12600.00
02941               0.00    12400.00
02942               0.00    12400.00
02943               0.00    12200.00
02944              20.00    12200.00
02945              20.00    12000.00
02946              20.00    11800.00
02947               0.00    11800.00
02948               0.00    11800.00
02949               0.00    11600.00
02950               0.00    11200.00
02951              20.00    11000.00
02952              20.00    10800.00
02953               0.00    10800.00
02954               0.00    10600.00
02955             -20.00    10600.00
02956             -20.00    10200.00
02957               0.00    10000.00
02958               0.00     9800.00
02959               0.00     9800.00
02960             -20.00     9400.00
02961             -20.00     9400.00
02962             -20.00     9200.00
02963             -20.00     9000.00
02964               0.00     8800.00
02965             -20.00     8600.00
02966               0.00     8400.00
02967             -20.00     8200.00
02968             -20.00     8000.00
02969             -20.00     7800.00
02970             -20.00     7600.00
02971             -20.00     7400.00
02972             -20.00     7000.00
02973             -20.00     6800.00
02974             -40.00     6600.00
02975             -40.00     6400.00
02976             -20.00     6200.00
02977             -40.00     6000.00
02978             -20.00     5800.00
02979             -20.00     5400.00
02980             -60.00     5200.00
02981             -20.00     5200.00
02982             -40.00     4800.00
02983             -60.00     4600.00
02984             -40.00     4200.00
02985             -20.00     4000.00
02986             -40.00     3800.00
02987             -60.00     3600.00
02988             -60.00     3400.00
02989             -60.00     3000.00
02990             -80.00     2800.00
02991             -40.00     2600.00
02992             -60.00     2200.00
02993             -60.00     2000.00
02994             -60.00     1800.00
02995             -60.00     1600.00
02996             -40.00     1200.00
02997             -40.00     1200.00
02998             -60.00      600.00
02999             -60.00      400.00
03000             -60.00      200.00
03001             -60.00     -200.00
03002             -20.00     -400.00
03003              20.00     -600.00
03004             140.00     -600.00
03005             140.00    -1000.00
03006              60.00    -1200.00
03007              20.00    -1400.00
03008               0.00    -1600.00
03009              40.00    -1800.00
03010             280.00    -2200.00
03011             940.00    -2600.00
03012             840.00    -3000.00
03013            -220.00    -3000.00
03014            -980.00    -3400.00
03015            -940.00    -3400.00
03016            -760.00    -3600.00
03017            -660.00    -3600.00
03018             240.00    -4400.00
03019             300.00    -4600.00
03020             220.00    -4400.00
03021             200.00    -5200.00
03022            -180.00    -5000.00
03023             140.00    -5400.00
03024              60.00    -5800.00
03025             -60.00    -5800.00
03026              80.00    -6400.00
03027            -100.00    -6000.00
03028            -180.00    -6800.00
03029            -220.00    -6800.00
03030              20.00    -7000.00
03031            -100.00    -7400.00
03032            -120.00    -7200.00
03033              60.00    -7800.00
03034             -60.00    -7800.00
03035            -100.00    -8400.00
03036             -80.00    -8400.00
03037               0.00    -8400.00
03038             -80.00    -9000.00
03039            -100.00    -9000.00
03040             -80.00    -9200.00
03041             -80.00    -9400.00
03042            -100.00    -9800.00
03043             -60.00    -9800.00
03044             -20.00    -9800.00
03045            -100.00   -10200.00
03046             -60.00   -10200.00
03047             -20.00   -10400.00
03048             -80.00   -10800.00
03049            -100.00   -11000.00
03050             -60.00   -11000.00
03051             -80.00   -11000.00
03052            -120.00   -11400.00
03053             -80.00   -11400.00
03054             -40.00   -11600.00
03055            -100.00   -11800.00
03056             -80.00   -11800.00
03057             -60.00   -12000.00
03058            -100.00   -12200.00
03059             -80.00   -12200.00
03060             -60.00   -12200.00
03061             -40.00   -12400.00
03062            -100.00   -12600.00
03063             -80.00   -12600.00
03064             -60.00   -12600.00
03065             -80.00   -13000.00
03066             -60.00   -13000.00
03067             -20.00   -13000.00
03068             -80.00   -13200.00
03069            -100.00   -13200.00
03070             -80.00   -13200.00
03071             -80.00   -13400.00
03072             -80.00   -13400.00
03073             -40.00   -13400.00
03074             -40.00   -13400.00
03075             -80.00   -13600.00
03076             -80.00   -13600.00
03077             -60.00   -13800.00
03078             -80.00   -13800.00
03079             -80.00   -13600.00
03080             -60.00   -13800.00
03081             -60.00   -13800.00
03082             -80.00   -13600.00
03083             -80.00   -13800.00
03084             -60.00   -13600.00
03085             -80.00   -14000.00
03086             -60.00   -14000.00
03087             -20.00   -13800.00
03088             -60.00   -13600.00
03089             -80.00   -13800.00
03090             -60.00   -13600.00
03091             -60.00   -13600.00
03092             -60.00   -13800.00
03093             -40.00   -13400.00
03094             -20.00   -13400.00
03095             -60.00   -13400.00
03096             -60.00   -13400.00
03097             -60.00   -13400.00
03098             -60.00   -13400.00
03099             -40.00   -13200.00
03100             -20.00   -13200.00
03101             -20.00   -13200.00
03102             -60.00   -13200.00
03103             -60.00   -13000.00
03104             -20.00   -13000.00
03105             -20.00   -12800.00
03106             -20.00   -12600.00
03107             -20.00   -12600.00
03108             -20.00   -12600.00
03109             -60.00   -12400.00
03110             -40.00   -12200.00
03111             -20.00   -12200.00
03112             -20.00   -12000.00
03113             -20.00   -11800.00
03114               0.00   -11800.00
03115             -20.00   -11600.00
03116             -20.00   -11400.00
03117             -20.00   -11400.00
03118               0.00   -11200.00
03119               0.00   -11000.00
03120               0.00   -10800.00
03121               0.00   -10800.00
03122               0.00   -10600.00
03123             -20.00   -10200.00
03124               0.00   -10200.00
03125               0.00   -10000.00
03126               0.00    -9800.00
03127               0.00    -9800.00
03128               0.00    -9400.00
03129               0.00    -9200.00
03130               0.00    -9000.00
03131               0.00    -9000.00
03132               0.00    -8600.00
03133               0.00    -8600.00
03134              20.00    -8200.00
03135               0.00    -8200.00
03136               0.00    -7800.00
03137              20.00    -7400.00
03138              20.00    -7400.00
03139              20.00    -7200.00
03140               0.00    -6800.00
03141              20.00    -6800.00
03142              20.00    -6400.00
03143               0.00    -6200.00
03144              20.00    -6000.00
03145               0.00    -5800.00
03146              20.00    -5600.00
03147              20.00    -5400.00
03148              20.00    -5200.00
03149               0.00    -4600.00
03150               0.00    -4800.00
03151              20.00    -4200.00
03152              20.00    -4200.00
03153              20.00    -3800.00
03154              20.00    -3600.00
03155              20.00    -3400.00
03156              20.00    -3000.00
03157              20.00    -2800.00
03158              40.00    -2600.00
03159              60.00    -2400.00
03160              60.00    -2000.00
03161              60.00    -2000.00
03162              60.00    -1600.00
03163              40.00    -1400.00
03164              40.00     -800.00
03165              60.00     -800.00
03166              60.00     -600.00
03167              60.00     -200.00
03168              60.00      200.00
03169              60.00      200.00
03170             100.00      600.00
03171             220.00      600.00
03172             220.00     1000.00
03173             220.00     1000.00
03174             160.00     1400.00
03175             140.00     1600.00
03176             220.00     2000.00
03177             640.00     2200.00
03178            1380.00     2600.00
03179             800.00     2800.00
03180            -580.00     2800.00
03181           -1200.00     3200.00
03182            -980.00     3400.00
03183            -800.00     3800.00
03184             420.00     3800.00
03185             660.00     4000.00
03186             320.00     4600.00
03187             380.00     4600.00
03188            -160.00     4600.00
03189             220.00     5800.00
03190             160.00     5000.00
03191              20.00     5800.00
03192             400.00     6000.00
03193              60.00     6000.00
03194             -20.00     6600.00
03195            -100.00     6200.00
03196             160.00     7000.00
03197             100.00     7000.00
03198              60.00     7000.00
03199             220.00     7800.00
03200              60.00     7600.00
03201             140.00     8200.00
03202              60.00     8000.00
03203             160.00     8600.00
03204              60.00     8400.00
03205             100.00     8600.00
03206              80.00     9000.00
03207              60.00     9200.00
03208              60.00     9400.00
03209              80.00     9400.00
03210             180.00     9800.00
03211              60.00     9800.00
03212             100.00    10200.00
03213              80.00    10400.00
03214              80.00    10400.00
03215              60.00    10600.00
03216             100.00    10800.00
03217              60.00    11000.00
03218              20.00    11000.00
03219              80.00    11400.00
03220             100.00    11600.00
03221              80.00    11600.00
03222              80.00    11800.00
03223              80.00    12000.00
03224              20.00    12000.00
03225              60.00    12200.00
03226             100.00    12200.00
03227              60.00    12200.00
03228              60.00    12400.00
03229              60.00    12600.00
03230              60.00    12600.00
03231              80.00    12600.00
03232             100.00    13000.00
03233             100.00    13000.00
03234              60.00    13000.00
03235              60.00    13200.00
03236              60.00    13400.00
03237              60.00    13400.00
03238              40.00    13200.00
03239              80.00    13400.00
03240              80.00    13600.00
03241              80.00    13400.00
03242              60.00    13600.00
03243              60.00    13600.00
03244              60.00    13600.00
03245              60.00    13800.00
03246              60.00    13800.00
03247              60.00    13800.00
03248              20.00    13800.00
03249              60.00    13800.00
03250              60.00    13800.00
03251              60.00    13800.00
03252              60.00    13800.00
03253              80.00    13800.00
03254              60.00    13800.00
03255              40.00    13800.00
03256              60.00    13800.00
03257              60.00    13800.00
03258              60.00    13800.00
03259              60.00    13600.00
03260              60.00    13800.00
03261              60.00    13600.00
03262              20.00    13400.00
03263              60.00    13600.00
03264              20.00    13400.00
03265              20.00    13400.00
03266              60.00    13400.00
03267              60.00    13400.00
03268              40.00    13200.00
03269              20.00    13000.00
03270              20.00    13000.00
03271              20.00    12800.00
03272              20.00    13000.00
03273              60.00    12600.00
03274              20.00    12600.00
03275               0.00    12400.00
03276              20.00    12400.00
03277               0.00    12400.00
03278               0.00    12200.00
03279              20.00    12000.00
03280               0.00    11800.00
03281               0.00    11800.00
03282               0.00    11600.00
03283               0.00    11400.00
03284               0.00    11200.00
03285               0.00    11200.00
03286               0.00    11000.00
03287               0.00    10800.00
03288               0.00    10600.00
03289             -20.00    10600.00
03290               0.00    10400.00
03291             -20.00    10200.00
03292               0.00    10000.00
03293               0.00    10000.00
03294               0.00     9600.00
03295             -20.00     9400.00
03296             -20.00     9200.00
03297               0.00     9000.00
03298             -20.00     8600.00
03299             -20.00     8600.00
03300               0.00     8400.00
03301             -20.00     8200.00
03302             -20.00     8000.00
03303             -20.00     7800.00
03304             -20.00     7600.00
03305             -20.00     7400.00
03306             -20.00     7000.00
03307             -20.00     7000.00
03308             -20.00     6600.00
03309             -20.00     6400.00
03310             -20.00     6200.00
03311             -20.00     6000.00
03312             -60.00     5800.00
03313             -20.00     5600.00
03314             -20.00     5400.00
03315             -40.00     5000.00
03316             -40.00     5000.00
03317             -60.00     4600.00
03318             -20.00     4400.00
03319             -20.00     4200.00
03320             -20.00     3800.00
03321             -20.00     3600.00
03322             -60.00     3400.00
03323             -60.00     3200.00
03324             -60.00     3000.00
03325             -20.00     2600.00
03326             -20.00     2400.00
03327             -20.00     2000.00
03328             -60.00     1800.00
03329             -60.00     1600.00
03330             -60.00     1400.00
03331             -60.00     1200.00
03332             -40.00      800.00
03333             -20.00      600.00
03334             -60.00      400.00
03335             -80.00      200.00
03336             -60.00     -200.00
03337               0.00     -400.00
03338             100.00     -600.00
03339             140.00    -1000.00
03340              80.00    -1200.00
03341               0.00    -1400.00
03342               0.00    -1400.00
03343              20.00    -1800.00
03344             160.00    -2000.00
03345             700.00    -2400.00
03346            1020.00    -2800.00
03347             200.00    -3000.00
03348            -820.00    -3400.00
03349           -1020.00    -3600.00
03350            -800.00    -3600.00
03351            -780.00    -3600.00
03352             -80.00    -4200.00
03353             400.00    -4600.00
03354             160.00    -4200.00
03355             300.00    -5000.00
03356            -100.00    -5200.00
03357               0.00    -5000.00
03358             180.00    -5800.00
03359             -60.00    -5600.00
03360              60.00    -6200.00
03361             -60.00    -6000.00
03362            -160.00    -6200.00
03363            -240.00    -7000.00
03364             -20.00    -6600.00
03365             -20.00    -7400.00
03366            -180.00    -7400.00
03367               0.00    -7600.00
03368             -20.00    -7800.00
03369            -100.00    -8000.00
03370             -80.00    -8600.00
03371              20.00    -8200.00
03372             -20.00    -9000.00
03373            -140.00    -9000.00
03374            -100.00    -9000.00
03375             -80.00    -9400.00
03376            -100.00    -9400.00
03377             -80.00    -9800.00
03378             -20.00    -9800.00
03379            -100.00   -10200.00
03380            -100.00   -10200.00
03381             -40.00   -10600.00
03382             -60.00   -10600.00
03383            -100.00   -10800.00
03384             -60.00   -10800.00
03385             -60.00   -11200.00
03386            -100.00   -11400.00
03387            -100.00   -11400.00
03388             -60.00   -11400.00
03389             -80.00   -11800.00
03390            -100.00   -11800.00
03391             -60.00   -11800.00
03392             -80.00   -12200.00
03393            -100.00   -12200.00
03394             -60.00   -12200.00
03395             -60.00   -12400.00
03396            -100.00   -12600.00
03397             -80.00   -12600.00
03398             -60.00   -12800.00
03399             -80.00   -13000.00
03400             -80.00   -13000.00
03401             -60.00   -13200.00
03402             -60.00   -13000.00
03403             -80.00   -13200.00
03404             -80.00   -13200.00
03405             -80.00   -13200.00
03406             -80.00   -13400.00
03407             -60.00   -13400.00
03408             -60.00   -13400.00
03409             -60.00   -13600.00
03410             -80.00   -13600.00
03411             -80.00   -13800.00
03412             -60.00   -14000.00
03413             -60.00   -13600.00
03414             -80.00   -13800.00
03415             -60.00   -13800.00
03416             -80.00   -14000.00
03417             -80.00   -13800.00
03418             -60.00   -13800.00
03419             -60.00   -14000.00
03420             -80.00   -13800.00
03421             -40.00   -13800.00
03422             -60.00   -13600.00
03423             -80.00   -13800.00
03424             -60.00   -13800.00
03425             -60.00   -13800.00
03426             -60.00   -13600.00
03427             -60.00   -13600.00
03428             -20.00   -13600.00
03429             -60.00   -13400.00
03430             -60.00   -13400.00
03431             -40.00   -13400.00
03432             -60.00   -13400.00
03433             -20.00   -13400.00
03434             -20.00   -13200.00
03435             -20.00   -13200.00
03436             -40.00   -13000.00
03437             -40.00   -13000.00
03438             -20.00   -13000.00
03439             -20.00   -12800.00
03440             -40.00   -12600.00
03441               0.00   -12600.00
03442             -20.00   -12400.00
03443             -60.00   -12400.00
03444             -60.00   -12200.00
03445             -20.00   -12200.00
03446             -20.00   -12000.00
03447               0.00   -11800.00
03448               0.00   -11800.00
03449             -20.00   -11600.00
03450             -20.00   -11400.00
03451             -20.00   -11400.00
03452             -20.00   -11200.00
03453               0.00   -11000.00
03454               0.00   -10800.00
03455               0.00   -10800.00
03456               0.00   -10600.00
03457             -20.00   -10600.00
03458               0.00   -10200.00
03459               0.00   -10000.00
03460              20.00    -9800.00
03461               0.00    -9800.00
03462              20.00    -9400.00
03463               0.00    -9400.00
03464               0.00    -9200.00
03465               0.00    -9000.00
03466               0.00    -8600.00
03467               0.00    -8600.00
03468              20.00    -8400.00
03469              20.00    -8200.00
03470               0.00    -8000.00
03471               0.00    -7800.00
03472              20.00    -7400.00
03473              20.00    -7200.00
03474              20.00    -7000.00
03475              20.00    -6800.00
03476               0.00    -6600.00
03477               0.00    -6400.00
03478               0.00    -6200.00
03479               0.00    -6000.00
03480               0.00    -5800.00
03481              20.00    -5400.00
03482              20.00    -5200.00
03483               0.00    -5000.00
03484              20.00    -4600.00
03485              20.00    -4600.00
03486              60.00    -4200.00
03487              20.00    -3800.00
03488              20.00    -3800.00
03489              20.00    -3400.00
03490              20.00    -3200.00
03491              20.00    -3000.00
03492              60.00    -2600.00
03493              40.00    -2600.00
03494              60.00    -2200.00
03495              60.00    -1800.00
03496              20.00    -1800.00
03497              40.00    -1400.00
03498              20.00    -1000.00
03499              60.00     -800.00
03500              60.00     -600.00
03501              60.00     -200.00
03502              60.00     -200.00
03503              60.00      200.00
03504              80.00      400.00
03505             160.00      600.00
03506             240.00      800.00
03507             260.00     1000.00
03508             180.00     1400.00
03509             160.00     1400.00
03510             160.00     1600.00
03511             400.00     2200.00
03512            1200.00     2600.00
03513            1180.00     2800.00
03514            -100.00     3000.00
03515           -1120.00     3000.00
03516           -1060.00     3400.00
03517            -940.00     3800.00
03518             -80.00     3800.00
03519             820.00     4000.00
03520             340.00     4200.00
03521             480.00     5000.00
03522               0.00     4400.00
03523               0.00     5600.00
03524             320.00     5400.00
03525             -60.00     5600.00
03526             320.00     6000.00
03527             180.00     5800.00
03528             -20.00     6600.00
03529             -80.00     6200.00
03530              60.00     6600.00
03531             180.00     7200.00
03532               0.00     6800.00
03533             220.00     7600.00
03534             100.00     7400.00
03535             100.00     7800.00
03536              60.00     8000.00
03537             140.00     8200.00
03538             100.00     8600.00
03539              20.00     8400.00
03540             140.00     9000.00
03541              20.00     9200.00
03542              60.00     9400.00
03543              20.00     9400.00
03544             180.00     9800.00
03545             100.00     9800.00
03546             100.00    10000.00
03547              80.00    10200.00
03548              60.00    10200.00
03549              60.00    10600.00
03550              80.00    10600.00
03551             120.00    11000.00
03552               0.00    11000.00
03553              60.00    11200.00
03554             100.00    11600.00
03555             100.00    11400.00
03556              80.00    11600.00
03557              80.00    11800.00
03558              60.00    12000.00
03559              60.00    12200.00
03560              80.00    12200.00
03561             100.00    12400.00
03562              60.00    12400.00
03563              40.00    12400.00
03564              60.00    12600.00
03565              80.00    12800.00
03566              80.00    13000.00
03567             100.00    13200.00
03568              80.00    13000.00
03569              60.00    13200.00
03570              60.00    13200.00
03571              60.00    13200.00
03572              60.00    13400.00
03573              60.00    13400.00
03574              80.00    13400.00
03575              80.00    13400.00
03576              60.00    13800.00
03577              60.00    13600.00
03578              80.00    13800.00
03579              60.00    13800.00
03580              60.00    13800.00
03581              80.00    13800.00
03582              60.00    13800.00
03583              60.00    13800.00
03584              60.00    14000.00
03585              60.00    13800.00
03586              60.00    13800.00
03587              80.00    13800.00
03588              80.00    13800.00
03589              60.00    13800.00
03590              60.00    13800.00
03591              20.00    13800.00
03592              20.00    13800.00
03593              60.00    13800.00
03594              80.00    13800.00
03595              60.00    13800.00
03596              40.00    13400.00
03597              20.00    13600.00
03598              60.00    13400.00
03599              60.00    13400.00
03600              60.00    13200.00
03601              20.00    13200.00
03602              40.00    13400.00
03603              20.00    13000.00
03604              20.00    13000.00
03605              20.00    13000.00
03606              20.00    12800.00
03607              60.00    12600.00
03608              60.00    12600.00
03609              20.00    12600.00
03610               0.00    12400.00
03611               0.00    12400.00
03612               0.00    12200.00
03613              20.00    12000.00
03614              40.00    11800.00
03615              20.00    11800.00
03616              20.00    11600.00
03617               0.00    11400.00
03618               0.00    11400.00
03619               0.00    11200.00
03620              20.00    11000.00
03621               0.00    11000.00
03622             -20.00    10800.00
03623             -20.00    10600.00
03624             -20.00    10400.00
03625               0.00    10400.00
03626               0.00    10200.00
03627               0.00    10000.00
03628               0.00     9800.00
03629               0.00     9400.00
03630             -20.00     9400.00
03631             -20.00     9000.00
03632             -20.00     9000.00
03633             -20.00     8600.00
03634               0.00     8400.00
03635               0.00     8400.00
03636             -20.00     8200.00
03637             -20.00     7800.00
03638             -20.00     7800.00
03639             -20.00     7400.00
03640             -20.00     7200.00
03641             -20.00     7000.00
03642             -20.00     6800.00
03643             -20.00     6600.00
03644             -20.00     6200.00
03645             -20.00     6200.00
03646             -20.00     5800.00
03647             -20.00     5800.00
03648             -20.00     5400.00
03649             -60.00     5200.00
03650             -40.00     5000.00
03651             -60.00     4600.00
03652             -40.00     4400.00
03653             -20.00     4200.00
03654             -20.00     4200.00
03655             -40.00     3600.00
03656             -40.00     3400.00
03657             -80.00     3000.00
03658             -60.00     3000.00
03659             -60.00     2800.00
03660             -40.00     2400.00
03661             -60.00     2200.00
03662             -40.00     1800.00
03663             -60.00     1800.00
03664             -60.00     1400.00
03665             -20.00     1200.00
03666             -40.00     1000.00
03667             -40.00      800.00
03668             -60.00      400.00
03669             -80.00      200.00
03670             -60.00        0.00
03671             -20.00     -400.00
03672              60.00     -600.00
03673             120.00     -800.00
03674             120.00    -1000.00
03675              20.00    -1400.00
03676               0.00    -1400.00
03677               0.00    -1800.00
03678              60.00    -2000.00
03679             460.00    -2200.00
03680            1040.00    -2800.00
03681             580.00    -3000.00
03682            -520.00    -3200.00
03683           -1060.00    -3400.00
03684            -880.00    -3600.00
03685            -820.00    -3600.00
03686            -460.00    -4000.00
03687             400.00    -4400.00
03688             200.00    -4400.00
03689             320.00    -4600.00
03690             140.00    -5400.00
03691            -100.00    -5000.00
03692             240.00    -5600.00
03693               0.00    -5800.00
03694             -20.00    -6200.00
03695             -20.00    -6400.00
03696            -180.00    -6200.00
03697            -300.00    -7000.00
03698            -180.00    -6600.00
03699              20.00    -7000.00
03700            -100.00    -7400.00
03701              20.00    -7400.00
03702             120.00    -7800.00
03703             -60.00    -7800.00
03704            -100.00    -8600.00
03705             -80.00    -8400.00
03706             -60.00    -8600.00
03707            -160.00    -9000.00
03708            -120.00    -9000.00
03709             -40.00    -9200.00
03710             -60.00    -9400.00
03711             -60.00    -9800.00
03712              20.00    -9800.00
03713             -20.00   -10000.00
03714            -100.00   -10200.00
03715             -80.00   -10200.00
03716             -80.00   -10600.00
03717            -140.00   -10800.00
03718            -120.00   -10800.00
03719             -80.00   -11000.00
03720             -80.00   -11200.00
03721             -60.00   -11400.00
03722              20.00   -11400.00
03723               0.00   -11600.00
03724             -80.00   -11800.00
03725            -100.00   -11800.00
03726            -100.00   -11800.00
03727            -160.00   -12200.00
03728            -120.00   -12200.00
03729             -80.00   -12400.00
03730             -80.00   -12400.00
03731             -80.00   -12600.00
03732             -20.00   -12600.00
03733             -20.00   -12600.00
03734             -60.00   -13000.00
03735             -60.00   -13000.00
03736             -80.00   -13200.00
03737            -140.00   -13000.00
03738            -160.00   -13200.00
03739             -80.00   -13200.00
03740             -60.00   -13400.00
03741             -40.00   -13400.00
03742               0.00   -13600.00
03743             -20.00   -13400.00
03744            -100.00   -13600.00
03745            -100.00   -13800.00
03746            -100.00   -13400.00
03747            -100.00   -13800.00
03748             -80.00   -13600.00
03749             -60.00   -13600.00
03750             -40.00   -13600.00
03751             -60.00   -13800.00
03752             -20.00   -13600.00
03753             -60.00   -13800.00
03754             -80.00   -13600.00
03755             -60.00   -13800.00
03756             -60.00   -13800.00
03757            -100.00   -13600.00
03758             -80.00   -13800.00
03759             -80.00   -13600.00
03760             -60.00   -13600.00
03761             -20.00   -13600.00
03762             -20.00   -13600.00
03763             -20.00   -13600.00
03764             -60.00   -13400.00
03765             -60.00   -13400.00
03766             -60.00   -13400.00
03767             -60.00   -13400.00
03768             -40.00   -13200.00
03769             -20.00   -13200.00
03770             -20.00   -13200.00
03771             -20.00   -13000.00
03772             -20.00   -13000.00
03773             -20.00   -12800.00
03774             -20.00   -12600.00
03775             -20.00   -12600.00
03776             -20.00   -12600.00
03777             -40.00   -12400.00
03778             -20.00   -12200.00
03779             -20.00   -12200.00
03780             -20.00   -12000.00
03781               0.00   -11800.00
03782               0.00   -11800.00
03783               0.00   -11800.00
03784             -20.00   -11600.00
03785             -20.00   -11400.00
03786             -20.00   -11200.00
03787             -20.00   -11000.00
03788               0.00   -11000.00
03789               0.00   -10800.00
03790               0.00   -10600.00
03791               0.00   -10600.00
03792             -20.00   -10200.00
03793               0.00   -10200.00
03794               0.00   -10000.00
03795               0.00    -9800.00
03796               0.00    -9600.00
03797               0.00    -9400.00
03798               0.00    -9200.00
03799               0.00    -9000.00
03800              20.00    -8800.00
03801               0.00    -8600.00
03802             -20.00    -8400.00
03803               0.00    -8200.00
03804             -20.00    -8000.00
03805             -20.00    -7800.00
03806               0.00    -7400.00
03807              20.00    -7200.00
03808               0.00    -7000.00
03809               0.00    -6800.00
03810              20.00    -6800.00
03811               0.00    -6200.00
03812               0.00    -6200.00
03813               0.00    -6000.00
03814              20.00    -5600.00
03815              20.00    -5400.00
03816              20.00    -5200.00
03817              20.00    -5000.00
03818               0.00    -4800.00
03819              20.00    -4600.00
03820              20.00    -4400.00
03821              40.00    -3800.00
03822              20.00    -3800.00
03823              20.00    -3400.00
03824              20.00    -3400.00
03825              20.00    -3000.00
03826              20.00    -2800.00
03827              60.00    -2600.00
03828              60.00    -2400.00
03829              60.00    -2000.00
03830              60.00    -1800.00
03831              60.00    -1400.00
03832              40.00    -1200.00
03833              20.00    -1000.00
03834              60.00     -600.00
03835              40.00     -600.00
03836              80.00     -400.00
03837              60.00        0.00
03838              80.00      200.00
03839             140.00      600.00
03840             240.00      600.00
03841             240.00     1000.00
03842             180.00     1200.00
03843             160.00     1400.00
03844             160.00     1800.00
03845             260.00     2000.00
03846             900.00     2400.00
03847            1360.00     2800.00
03848             400.00     2800.00
03849            -880.00     3000.00
03850           -1160.00     3000.00
03851            -960.00     3600.00
03852            -540.00     3800.00
03853             720.00     4000.00
03854             500.00     4200.00
03855             400.00     4600.00
03856             220.00     4400.00
03857            -160.00     5000.00
03858             340.00     5800.00
03859              20.00     5000.00
03860             180.00     6000.00
03861             320.00     5800.00
03862             -20.00     6200.00
03863             -40.00     6600.00
03864             -20.00     6200.00
03865             220.00     7200.00
03866              20.00     6800.00
03867             140.00     7400.00
03868             160.00     7600.00
03869              60.00     7600.00
03870              80.00     8000.00
03871              80.00     8000.00
03872             180.00     8600.00
03873               0.00     8400.00
03874             120.00     8600.00
03875              60.00     9200.00
03876              60.00     9200.00
03877              20.00     9400.00
03878             100.00     9400.00
03879             160.00     9800.00
03880              60.00     9800.00
03881             100.00    10200.00
03882              60.00    10200.00
03883              80.00    10600.00
03884              60.00    10600.00
03885             100.00    11000.00
03886              40.00    11000.00
03887              60.00    11200.00
03888              80.00    11400.00
03889             100.00    11400.00
03890              80.00    11600.00
03891              80.00    11800.00
03892              80.00    12000.00
03893              60.00    12000.00
03894              80.00    12200.00
03895             120.00    12200.00
03896              80.00    12400.00
03897              40.00    12400.00
03898              60.00    12600.00
03899              80.00    12800.00
03900              80.00    12600.00
03901             100.00    13000.00
03902             100.00    13000.00
03903              60.00    13200.00
03904              60.00    13200.00
03905              80.00    13400.00
03906              40.00    13400.00
03907              60.00    13400.00
03908              80.00    13400.00
03909             100.00    13600.00
03910              60.00    13600.00
03911              60.00    13800.00
03912              60.00    13800.00
03913              60.00    13800.00
03914              60.00    13800.00
03915              80.00    13800.00
03916              60.00    13800.00
03917              40.00    13800.00
03918              60.00    13800.00
03919              60.00    13800.00
03920              60.00    13800.00
03921              60.00    14000.00
03922              80.00    14000.00
03923              60.00    13800.00
03924              40.00    13800.00
03925              60.00    13800.00
03926              20.00    13800.00
03927              20.00    13800.00
03928              60.00    13800.00
03929              60.00    13800.00
03930              20.00    13600.00
03931              20.00    13600.00
03932              20.00    13400.00
03933              20.00    13400.00
03934              20.00    13400.00
03935              40.00    13400.00
03936              20.00    13200.00
03937              20.00    13200.00
03938              20.00    13200.00
03939               0.00    13000.00
03940              20.00    13000.00
03941              20.00    13000.00
03942              40.00    12600.00
03943              20.00    12600.00
03944               0.00    12400.00
03945              20.00    12400.00
03946              20.00    12200.00
03947              20.00    12200.00
03948              20.00    12000.00
03949              20.00    11800.00
03950               0.00    11600.00
03951               0.00    11600.00
03952             -20.00    11400.00
03953               0.00    11400.00
03954               0.00    11000.00
03955              20.00    11000.00
03956               0.00    10800.00
03957               0.00    10600.00
03958             -20.00    10400.00
03959               0.00    10400.00
03960               0.00    10200.00
03961              20.00    10000.00
03962               0.00     9800.00
03963               0.00     9800.00
03964             -20.00     9400.00
03965             -20.00     9200.00
03966             -20.00     9200.00
03967               0.00     8800.00
03968               0.00     8600.00
03969             -20.00     8400.00
03970               0.00     8200.00
03971             -20.00     8200.00
03972             -20.00     7800.00
03973             -20.00     7600.00
03974               0.00     7400.00
03975             -20.00     7000.00
03976             -20.00     7000.00
03977             -20.00     6600.00
03978             -20.00     6400.00
03979             -20.00     6200.00
03980             -20.00     6000.00
03981             -20.00     5800.00
03982             -20.00     5600.00
03983             -40.00     5200.00
03984             -40.00     5000.00
03985             -20.00     4800.00
03986             -60.00     4600.00
03987             -40.00     4200.00
03988             -20.00     4000.00
03989             -40.00     3800.00
03990             -60.00     3600.00
03991             -60.00     3400.00
03992             -60.00     3200.00
03993             -60.00     3000.00
03994             -60.00     2600.00
03995             -60.00     2200.00
03996             -60.00     2000.00
03997             -60.00     1800.00
03998             -60.00     1400.00
03999             -60.00     1200.00
04000             -60.00     1000.00
04001             -60.00      800.00
04002             -60.00      400.00
04003             -60.00      200.00
04004             -60.00     -200.00
04005             -20.00     -400.00
04006               0.00     -400.00
04007             100.00     -800.00
04008             140.00     -800.00
04009              80.00    -1200.00
04010              20.00    -1400.00
04011               0.00    -1800.00
04012              20.00    -1800.00
04013             240.00    -2000.00
04014             880.00    -2400.00
04015             880.00    -3000.00
04016            -160.00    -3200.00
04017            -980.00    -3400.00
04018            -940.00    -3600.00
04019            -780.00    -3600.00
04020            -680.00    -3600.00
04021             180.00    -4400.00
04022             320.00    -4600.00
04023             220.00    -4400.00
04024             240.00    -5200.00
04025            -160.00    -5000.00
04026             140.00    -5400.00
04027              80.00    -5800.00
04028             -40.00    -5800.00
04029              80.00    -6400.00
04030             -80.00    -6000.00
04031            -180.00    -6800.00
04032            -220.00    -6800.00
04033               0.00    -6800.00
04034            -100.00    -7400.00
04035            -140.00    -7200.00
04036              60.00    -7800.00
04037             -60.00    -7600.00
04038             -80.00    -8200.00
04039             -80.00    -8400.00
04040              20.00    -8400.00
04041             -80.00    -8800.00
04042            -100.00    -9000.00
04043             -80.00    -9200.00
04044             -80.00    -9400.00
04045            -100.00    -9600.00
04046             -60.00    -9800.00
04047             -20.00    -9800.00
04048            -100.00   -10200.00
04049             -60.00   -10200.00
04050             -20.00   -10600.00
04051             -60.00   -10800.00
04052            -100.00   -11000.00
04053             -60.00   -11000.00
04054             -80.00   -11200.00
04055            -120.00   -11200.00
04056             -80.00   -11400.00
04057             -40.00   -11400.00
04058             -80.00   -11600.00
04059             -80.00   -11800.00
04060             -60.00   -12000.00
04061            -100.00   -12200.00
04062             -80.00   -12400.00
04063             -60.00   -12200.00
04064             -80.00   -12400.00
04065            -120.00   -12600.00
04066             -80.00   -12600.00
04067             -60.00   -12600.00
04068             -80.00   -13000.00
04069             -60.00   -12800.00
04070             -20.00   -13000.00
04071             -80.00   -13000.00
04072            -100.00   -13400.00
04073             -80.00   -13200.00
04074             -80.00   -13400.00
04075            -100.00   -13400.00
04076             -60.00   -13400.00
04077             -20.00   -13400.00
04078             -80.00   -13600.00
04079             -80.00   -13600.00
04080             -60.00   -13600.00
04081             -80.00   -13800.00
04082             -80.00   -13800.00
04083             -80.00   -13600.00
04084             -60.00   -13800.00
04085            -100.00   -13600.00
04086             -60.00   -13800.00
04087             -60.00   -13800.00
04088             -80.00   -13800.00
04089             -60.00   -14000.00
04090             -20.00   -13600.00
04091             -60.00   -13800.00
04092             -60.00   -13800.00
04093             -80.00   -13600.00
04094             -60.00   -13800.00
04095             -60.00   -13600.00
04096             -40.00   -13600.00
04097             -60.00   -13600.00
04098             -60.00   -13400.00
04099             -60.00   -13400.00
04100             -60.00   -13400.00
04101             -20.00   -13400.00
04102             -20.00   -13200.00
04103             -20.00   -13200.00
04104             -20.00   -13000.00
04105             -60.00   -13200.00
04106             -60.00   -13000.00
04107             -20.00   -13000.00
04108             -20.00   -12800.00
04109             -20.00   -12600.00
04110             -20.00   -12600.00
04111             -20.00   -12600.00
04112             -20.00   -12200.00
04113             -40.00   -12200.00
04114             -20.00   -12200.00
04115             -20.00   -12000.00
04116               0.00   -11800.00
04117               0.00   -11800.00
04118             -20.00   -11600.00
04119             -20.00   -11400.00
04120             -20.00   -11400.00
04121               0.00   -11400.00
04122               0.00   -11000.00
04123               0.00   -10800.00
04124             -20.00   -10600.00
04125             -20.00   -10600.00
04126             -20.00   -10400.00
04127             -20.00   -10200.00
04128               0.00   -10000.00
04129               0.00    -9800.00
04130               0.00    -9600.00
04131               0.00    -9600.00
04132             -20.00    -9200.00
04133             -20.00    -9000.00
04134               0.00    -9000.00
04135               0.00    -8600.00
04136              20.00    -8400.00
04137               0.00    -8200.00
04138               0.00    -8200.00
04139               0.00    -7800.00
04140               0.00    -7600.00
04141               0.00    -7200.00
04142              20.00    -7200.00
04143              20.00    -7000.00
04144              20.00    -6800.00
04145               0.00    -6600.00
04146               0.00    -6200.00
04147               0.00    -6000.00
04148              20.00    -5800.00
04149              20.00    -5600.00
04150              20.00    -5400.00
04151              20.00    -5000.00
04152              20.00    -5000.00
04153               0.00    -4600.00
04154              20.00    -4400.00
04155              20.00    -4000.00
04156              60.00    -3800.00
04157              40.00    -3600.00
04158              20.00    -3200.00
04159              20.00    -3000.00
04160              20.00    -3000.00
04161              20.00    -2600.00
04162              60.00    -2400.00
04163              60.00    -2000.00
04164              60.00    -1800.00
04165              60.00    -1600.00
04166              60.00    -1400.00
04167              60.00     -800.00
04168              60.00     -800.00
04169              60.00     -600.00
04170              80.00     -200.00
04171              60.00        0.00
04172              60.00      200.00
04173             100.00      400.00
04174             220.00      600.00
04175             240.00     1000.00
04176             220.00     1200.00
04177             180.00     1400.00
04178             160.00     1600.00
04179             220.00     1800.00
04180             580.00     2200.00
04181            1360.00     2600.00
04182             880.00     2800.00
04183            -480.00     3000.00
04184           -1180.00     3000.00
04185            -980.00     3400.00
04186            -820.00     3800.00
04187             320.00     4000.00
04188             720.00     4200.00
04189             320.00     4400.00
04190             400.00     4600.00
04191            -160.00     4400.00
04192             180.00     5800.00
04193             220.00     5200.00
04194               0.00     5800.00
04195             400.00     6000.00
04196              60.00     5800.00
04197             -20.00     6800.00
04198            -100.00     6200.00
04199             160.00     7000.00
04200             100.00     7000.00
04201              20.00     7000.00
04202             220.00     7800.00
04203              60.00     7600.00
04204             100.00     8200.00
04205              60.00     7800.00
04206             180.00     8400.00
04207              60.00     8600.00
04208              80.00     8400.00
04209              80.00     9000.00
04210              60.00     9000.00
04211              60.00     9400.00
04212              60.00     9400.00
04213             180.00     9800.00
04214              60.00    10000.00
04215             100.00    10200.00
04216              60.00    10400.00
04217              80.00    10200.00
04218              60.00    10600.00
04219             100.00    10800.00
04220              80.00    11000.00
04221              40.00    11000.00
04222              60.00    11400.00
04223             100.00    11400.00
04224             100.00    11600.00
04225              80.00    11600.00
04226             100.00    12000.00
04227              40.00    12000.00
04228              80.00    12000.00
04229             120.00    12200.00
04230              80.00    12200.00
04231              60.00    12400.00
04232              60.00    12600.00
04233              80.00    12800.00
04234              80.00    12800.00
04235             100.00    13000.00
04236             100.00    13000.00
04237              80.00    13200.00
04238              60.00    13200.00
04239              60.00    13200.00
04240              60.00    13400.00
04241              60.00    13400.00
04242              80.00    13400.00
04243             100.00    13400.00
04244              80.00    13800.00
04245              60.00    13600.00
04246              60.00    13600.00
04247              60.00    13800.00
04248              60.00    13800.00
04249              80.00    13800.00
04250              80.00    13800.00
04251              60.00    13800.00
04252              40.00    13800.00
04253              60.00    14000.00
04254              40.00    13800.00
04255              60.00    13800.00
04256              80.00    13800.00
04257              60.00    13800.00
04258              60.00    13800.00
04259              20.00    13800.00
04260              20.00    13800.00
04261              20.00    13800.00
04262              60.00    13800.00
04263              60.00    13800.00
04264              60.00    13400.00
04265              20.00    13600.00
04266              20.00    13400.00
04267              20.00    13400.00
04268              20.00    13400.00
04269              60.00    13200.00
04270              60.00    13400.00
04271              20.00    13200.00
04272              20.00    13000.00
04273              20.00    13000.00
04274              20.00    13000.00
04275              20.00    12800.00
04276              20.00    12600.00
04277              40.00    12600.00
04278               0.00    12400.00
04279               0.00    12400.00
04280               0.00    12200.00
04281               0.00    12200.00
04282               0.00    12000.00
04283              20.00    11800.00
04284               0.00    12000.00
04285               0.00    11600.00
04286               0.00    11400.00
04287               0.00    11400.00
04288               0.00    11000.00
04289               0.00    11000.00
04290              20.00    10800.00
04291               0.00    10800.00
04292             -20.00    10600.00
04293               0.00    10400.00
04294               0.00    10200.00
04295               0.00    10000.00
04296               0.00    10000.00
04297               0.00     9600.00
04298             -20.00     9400.00
04299               0.00     9200.00
04300               0.00     9400.00
04301               0.00     8800.00
04302               0.00     8600.00
04303             -20.00     8400.00
04304             -20.00     8200.00
04305             -20.00     8200.00
04306             -20.00     8000.00
04307             -20.00     7600.00
04308             -20.00     7400.00
04309             -20.00     7000.00
04310             -20.00     7000.00
04311             -20.00     6800.00
04312             -20.00     6600.00
04313             -20.00     6200.00
04314             -20.00     6200.00
04315             -20.00     5800.00
04316             -20.00     5600.00
04317             -20.00     5200.00
04318             -60.00     5200.00
04319             -40.00     5000.00
04320             -60.00     4600.00
04321             -20.00     4200.00
04322             -20.00     4200.00
04323             -20.00     4000.00
04324             -60.00     3600.00
04325             -60.00     3400.00
04326             -60.00     3000.00
04327             -60.00     3000.00
04328             -60.00     2600.00
04329             -60.00     2200.00
04330             -40.00     2200.00
04331             -60.00     1800.00
04332             -80.00     1400.00
04333             -80.00     1400.00
04334             -60.00     1200.00
04335             -60.00     1000.00
04336             -60.00      600.00
04337             -60.00      200.00
04338             -60.00      200.00
04339             -60.00        0.00
04340               0.00     -400.00
04341              80.00     -600.00
04342             120.00     -800.00
04343              80.00    -1200.00
04344              20.00    -1400.00
04345               0.00    -1400.00
04346              20.00    -1800.00
04347             140.00    -2000.00
04348             640.00    -2200.00
04349            1040.00    -2800.00
04350             260.00    -3000.00
04351            -740.00    -3200.00
04352           -1020.00    -3600.00
04353            -780.00    -3600.00
04354            -780.00    -3600.00
04355            -160.00    -4000.00
04356             420.00    -4600.00
04357             160.00    -4200.00
04358             300.00    -5000.00
04359             -60.00    -5400.00
04360             -20.00    -5000.00
04361             200.00    -5800.00
04362             -60.00    -5800.00
04363              80.00    -6200.00
04364             -20.00    -6200.00
04365            -140.00    -6600.00
04366            -240.00    -7000.00
04367             -60.00    -6600.00
04368             -20.00    -7400.00
04369            -160.00    -7200.00
04370               0.00    -7600.00
04371               0.00    -7800.00
04372            -100.00    -7800.00
04373            -100.00    -8600.00
04374               0.00    -8400.00
04375             -20.00    -8600.00
04376            -100.00    -9000.00
04377             -80.00    -9000.00
04378             -60.00    -9200.00
04379            -100.00    -9400.00
04380             -80.00    -9800.00
04381               0.00    -9800.00
04382             -80.00   -10200.00
04383            -100.00   -10200.00
04384             -20.00   -10400.00
04385             -60.00   -10800.00
04386            -120.00   -10800.00
04387             -80.00   -11000.00
04388             -80.00   -11000.00
04389            -140.00   -11400.00
04390            -100.00   -11400.00
04391             -20.00   -11400.00
04392            -100.00   -11600.00
04393            -100.00   -11800.00
04394             -60.00   -11800.00
04395             -80.00   -12000.00
04396            -100.00   -12200.00
04397             -60.00   -12200.00
04398             -20.00   -12400.00
04399            -100.00   -12600.00
04400            -100.00   -12600.00
04401             -80.00   -12600.00
04402             -80.00   -13000.00
04403             -60.00   -13000.00
04404             -60.00   -13000.00
04405             -60.00   -13200.00
04406            -100.00   -13200.00
04407            -100.00   -13400.00
04408            -100.00   -13400.00
04409             -80.00   -13400.00
04410             -60.00   -13400.00
04411             -60.00   -13400.00
04412             -80.00   -13600.00
04413            -100.00   -13600.00
04414             -60.00   -13600.00
04415             -60.00   -13600.00
04416             -80.00   -13800.00
04417             -60.00   -13800.00
04418             -60.00   -13600.00
04419             -80.00   -13600.00
04420             -80.00   -13800.00
04421             -60.00   -13600.00
04422             -80.00   -13800.00
04423             -80.00   -13600.00
04424             -40.00   -13600.00
04425             -20.00   -13800.00
04426             -60.00   -13800.00
04427             -60.00   -13600.00
04428             -60.00   -13800.00
04429             -60.00   -13600.00
04430             -60.00   -13600.00
04431             -20.00   -13400.00
04432             -20.00   -13400.00
04433             -60.00   -13400.00
04434             -40.00   -13400.00
04435             -60.00   -13400.00
04436             -20.00   -13200.00
04437             -20.00   -13200.00
04438             -20.00   -13200.00
04439             -20.00   -13200.00
04440             -60.00   -13000.00
04441             -20.00   -12800.00
04442             -40.00   -12800.00
04443             -20.00   -12600.00
04444             -20.00   -12600.00
04445             -20.00   -12600.00
04446             -20.00   -12400.00
04447             -20.00   -12200.00
04448             -20.00   -12000.00
04449             -20.00   -12000.00
04450             -20.00   -11800.00
04451               0.00   -11800.00
04452             -20.00   -11600.00
04453             -20.00   -11400.00
04454             -20.00   -11400.00
04455             -20.00   -11000.00
04456             -20.00   -11000.00
04457             -20.00   -10800.00
04458             -20.00   -10800.00
04459               0.00   -10600.00
04460             -20.00   -10600.00
04461             -20.00   -10200.00
04462             -20.00   -10200.00
04463               0.00    -9800.00
04464               0.00    -9800.00
04465               0.00    -9400.00
04466               0.00    -9200.00
04467               0.00    -9200.00
04468               0.00    -9000.00
04469               0.00    -8800.00
04470               0.00    -8600.00
04471               0.00    -8400.00
04472               0.00    -8200.00
04473               0.00    -8000.00
04474               0.00    -7600.00
04475               0.00    -7400.00
04476               0.00    -7200.00
04477              20.00    -7000.00
04478              20.00    -6800.00
04479              20.00    -6600.00
04480               0.00    -6400.00
04481               0.00    -6000.00
04482              20.00    -5800.00
04483              20.00    -5600.00
04484              20.00    -5400.00
04485              20.00    -5200.00
04486              20.00    -4800.00
04487               0.00    -4600.00
04488              20.00    -4600.00
04489              40.00    -4200.00
04490              60.00    -3800.00
04491              40.00    -3600.00
04492              60.00    -3400.00
04493              20.00    -3400.00
04494              20.00    -2800.00
04495              60.00    -2600.00
04496              60.00    -2600.00
04497              60.00    -2200.00
04498              60.00    -1800.00
04499              60.00    -1800.00
04500              60.00    -1400.00
04501              60.00    -1200.00
04502              60.00     -800.00
04503              60.00     -600.00
04504              60.00     -400.00
04505              60.00     -200.00
04506              80.00      200.00
04507              80.00      400.00
04508             180.00      600.00
04509             240.00      800.00
04510             240.00     1000.00
04511             160.00     1400.00
04512             160.00     1600.00
04513             160.00     1800.00
04514             380.00     2200.00
04515            1180.00     2600.00
04516            1220.00     2800.00
04517               0.00     3000.00
04518           -1100.00     3000.00
04519           -1080.00     3200.00
04520            -940.00     3800.00
04521            -180.00     4000.00
04522             800.00     3800.00
04523             360.00     4200.00
04524             440.00     5000.00
04525              20.00     4200.00
04526             -60.00     5400.00
04527             320.00     5400.00
04528             -60.00     5200.00
04529             300.00     6000.00
04530             220.00     5800.00
04531             -20.00     6600.00
04532             -80.00     6400.00
04533              20.00     6800.00
04534             200.00     7200.00
04535               0.00     6800.00
04536             200.00     7600.00
04537             100.00     7600.00
04538              80.00     7800.00
04539              60.00     8000.00
04540             140.00     8200.00
04541             140.00     8600.00
04542              20.00     8400.00
04543             140.00     9000.00
04544               0.00     9000.00
04545              80.00     9400.00
04546              20.00     9400.00
04547             180.00     9800.00
04548             100.00     9800.00
04549              80.00    10000.00
04550             100.00    10400.00
04551              80.00    10200.00
04552              80.00    10600.00
04553              80.00    10800.00
04554             100.00    11000.00
04555              20.00    11000.00
04556              60.00    11400.00
04557              80.00    11400.00
04558             120.00    11400.00
04559              80.00    11800.00
04560             100.00    12000.00
04561              60.00    12000.00
04562              60.00    12000.00
04563              80.00    12200.00
04564             100.00    12400.00
04565              80.00    12400.00
04566              60.00    12400.00
04567              60.00    12600.00
04568              60.00    12800.00
04569              80.00    13000.00
04570             100.00    12800.00
04571              80.00    13200.00
04572              60.00    13200.00
04573              60.00    13200.00
04574              60.00    13400.00
04575              60.00    13400.00
04576              60.00    13400.00
04577              80.00    13400.00
04578              80.00    13600.00
04579              60.00    13400.00
04580              60.00    13600.00
04581              60.00    13800.00
04582              60.00    13600.00
04583              80.00    13800.00
04584              60.00    13800.00
04585              60.00    13800.00
04586              20.00    13800.00
04587              60.00    13800.00
04588              60.00    13800.00
04589              40.00    13800.00
04590              60.00    13800.00
04591              60.00    14000.00
04592              60.00    13800.00
04593              20.00    13800.00
04594              20.00    13800.00
04595              20.00    13800.00
04596              40.00    13800.00
04597              60.00    13800.00
04598              60.00    13800.00
04599              40.00    13800.00
04600              20.00    13800.00
04601              40.00    13600.00
04602              20.00    13400.00
04603              40.00    13400.00
04604              60.00    13200.00
04605              20.00    13200.00
04606              20.00    13000.00
04607              20.00    13000.00
04608               0.00    13000.00
04609              20.00    13000.00
04610              20.00    12800.00
04611              60.00    12600.00
04612              20.00    12600.00
04613               0.00    12600.00
04614               0.00    12400.00
04615              20.00    12200.00
04616              20.00    12200.00
04617              20.00    12000.00
04618              20.00    11800.00
04619               0.00    11800.00
04620               0.00    11400.00
04621               0.00    11400.00
04622               0.00    11200.00
04623               0.00    11000.00
04624              20.00    11000.00
04625               0.00    10800.00
04626               0.00    10600.00
04627               0.00    10600.00
04628               0.00    10200.00
04629               0.00    10200.00
04630              20.00    10000.00
04631               0.00     9800.00
04632               0.00     9600.00
04633             -20.00     9400.00
04634             -20.00     9200.00
04635             -20.00     9000.00
04636               0.00     8600.00
04637               0.00     8600.00
04638               0.00     8400.00
04639             -20.00     8200.00
04640             -20.00     8000.00
04641             -20.00     7800.00
04642             -20.00     7400.00
04643             -20.00     7400.00
04644               0.00     7000.00
04645             -20.00     6800.00
04646             -20.00     6800.00
04647             -20.00     6200.00
04648             -20.00     6200.00
04649             -40.00     5800.00
04650             -20.00     5800.00
04651             -60.00     5400.00
04652             -60.00     5200.00
04653             -60.00     5000.00
04654             -60.00     4600.00
04655             -60.00     4400.00
04656             -40.00     4400.00
04657             -40.00     4000.00
04658             -60.00     3800.00
04659             -60.00     3600.00
04660             -60.00     3400.00
04661             -80.00     3000.00
04662             -60.00     2800.00
04663             -60.00     2600.00
04664             -60.00     2200.00
04665             -60.00     1800.00
04666             -60.00     1800.00
04667             -60.00     1400.00
04668             -60.00     1200.00
04669             -60.00     1000.00
04670             -60.00      600.00
04671             -60.00      400.00
04672             -80.00      200.00
04673             -60.00        0.00
04674             -20.00     -200.00
04675              60.00     -400.00
04676             140.00     -600.00
04677             100.00    -1000.00
04678              40.00    -1200.00
04679               0.00    -1400.00
04680               0.00    -1800.00
04681              60.00    -2000.00
04682             400.00    -2200.00
04683            1040.00    -2600.00
04684             640.00    -3000.00
04685            -460.00    -3000.00
04686           -1040.00    -3400.00
04687            -860.00    -3600.00
04688            -800.00    -3800.00
04689            -480.00    -3800.00
04690             400.00    -4600.00
04691             220.00    -4600.00
04692             260.00    -4400.00
04693             140.00    -5400.00
04694            -160.00    -5000.00
04695             220.00    -5600.00
04696               0.00    -5600.00
04697               0.00    -6000.00
04698              60.00    -6200.00
04699            -100.00    -6000.00
04700            -220.00    -6800.00
04701            -140.00    -6800.00
04702              20.00    -7000.00
04703            -160.00    -7400.00
04704             -80.00    -7600.00
04705              40.00    -7800.00
04706             -80.00    -7600.00
04707            -100.00    -8400.00
04708             -20.00    -8200.00
04709              20.00    -8400.00
04710            -100.00    -9000.00
04711            -100.00    -9000.00
04712             -80.00    -9400.00
04713            -100.00    -9400.00
04714            -100.00    -9800.00
04715             -40.00    -9800.00
04716             -60.00   -10000.00
04717            -140.00   -10200.00
04718             -60.00   -10400.00
04719             -60.00   -10600.00
04720            -100.00   -10600.00
04721            -100.00   -11000.00
04722             -60.00   -11000.00
04723            -100.00   -11200.00
04724            -120.00   -11400.00
04725             -60.00   -11400.00
04726             -60.00   -11600.00
04727            -100.00   -11800.00
04728             -80.00   -11800.00
04729             -80.00   -12000.00
04730            -100.00   -12200.00
04731             -80.00   -12400.00
04732             -60.00   -12200.00
04733            -100.00   -12600.00
04734            -120.00   -12600.00
04735             -80.00   -12600.00
04736             -60.00   -12800.00
04737            -100.00   -13000.00
04738             -60.00   -13000.00
04739             -60.00   -13000.00
04740            -100.00   -13200.00
04741             -80.00   -13400.00
04742             -80.00   -13200.00
04743             -80.00   -13200.00
04744             -80.00   -13400.00
04745             -40.00   -13400.00
04746             -60.00   -13600.00
04747             -80.00   -13600.00
04748             -80.00   -13600.00
04749             -60.00   -13600.00
04750             -80.00   -13600.00
04751             -80.00   -13600.00
04752             -60.00   -13600.00
04753             -60.00   -13800.00
04754             -80.00   -13800.00
04755             -80.00   -13800.00
04756             -60.00   -13600.00
04757             -60.00   -13800.00
04758             -60.00   -13800.00
04759             -20.00   -14000.00
04760             -60.00   -13800.00
04761             -60.00   -13600.00
04762             -60.00   -13800.00
04763             -60.00   -13800.00
04764             -60.00   -13600.00
04765             -20.00   -13400.00
04766             -20.00   -13400.00
04767             -60.00   -13400.00
04768             -60.00   -13400.00
04769             -20.00   -13400.00
04770             -20.00   -13400.00
04771             -20.00   -13200.00
04772             -20.00   -13200.00
04773             -20.00   -13200.00
04774             -40.00   -13000.00
04775             -40.00   -13000.00
04776             -20.00   -12600.00
04777             -20.00   -12600.00
04778             -20.00   -12600.00
04779             -20.00   -12600.00
04780             -20.00   -12400.00
04781             -60.00   -12200.00
04782             -20.00   -12200.00
04783             -20.00   -12000.00
04784             -20.00   -12000.00
04785             -20.00   -11800.00
04786             -20.00   -11800.00
04787             -20.00   -11600.00
04788             -20.00   -11400.00
04789             -20.00   -11400.00
04790               0.00   -11000.00
04791             -20.00   -11000.00
04792               0.00   -11000.00
04793               0.00   -10600.00
04794             -20.00   -10600.00
04795             -20.00   -10200.00
04796             -20.00   -10000.00
04797               0.00   -10000.00
04798               0.00    -9800.00
04799               0.00    -9600.00
04800             -20.00    -9400.00
04801             -20.00    -9200.00
04802             -20.00    -9200.00
04803               0.00    -8800.00
04804               0.00    -8600.00
04805               0.00    -8400.00
04806               0.00    -8200.00
04807               0.00    -8000.00
04808               0.00    -7800.00
04809               0.00    -7600.00
04810               0.00    -7200.00
04811               0.00    -7000.00
04812              20.00    -6800.00
04813               0.00    -6600.00
04814               0.00    -6600.00
04815               0.00    -6200.00
04816              20.00    -6000.00
04817              20.00    -5800.00
04818              20.00    -5600.00
04819              20.00    -5200.00
04820              20.00    -5000.00
04821              20.00    -4800.00
04822              20.00    -4600.00
04823              20.00    -4200.00
04824              40.00    -3800.00
04825              20.00    -3800.00
04826              40.00    -3600.00
04827              60.00    -3200.00
04828               0.00    -3000.00
04829              20.00    -2800.00
04830              60.00    -2600.00
04831              60.00    -2200.00
04832              60.00    -2000.00
04833              40.00    -1800.00
04834              20.00    -1400.00
04835              60.00    -1400.00
04836              60.00     -800.00
04837              60.00     -600.00
04838              60.00     -400.00
04839              60.00        0.00
04840              60.00      200.00
04841              80.00      400.00
04842             140.00      600.00
04843             220.00      800.00
04844             240.00     1000.00
04845             180.00     1200.00
04846             160.00     1400.00
04847             140.00     1800.00
04848             240.00     2000.00
04849             820.00     2200.00
04850            1380.00     2600.00
04851             500.00     2800.00
04852            -820.00     3200.00
04853           -1180.00     3000.00
04854            -960.00     3600.00
04855            -640.00     4000.00
04856             640.00     3800.00
04857             540.00     4200.00
04858             380.00     4600.00
04859             260.00     4600.00
04860            -180.00     4800.00
04861             300.00     5600.00
04862              60.00     5200.00
04863             140.00     5800.00
04864             340.00     5800.00
04865               0.00     6200.00
04866             -20.00     6600.00
04867             -80.00     6200.00
04868             220.00     7400.00
04869              20.00     6800.00
04870             120.00     7400.00
04871             160.00     7600.00
04872              80.00     7600.00
04873             100.00     8200.00
04874              60.00     7800.00
04875             180.00     8600.00
04876               0.00     8400.00
04877             140.00     8800.00
04878              60.00     9000.00
04879              80.00     9200.00
04880              60.00     9400.00
04881             140.00     9600.00
04882             160.00     9800.00
04883              60.00     9800.00
04884             100.00    10200.00
04885              80.00    10200.00
04886              80.00    10600.00
04887              80.00    10600.00
04888             100.00    10800.00
04889              60.00    11000.00
04890              60.00    11200.00
04891              80.00    11400.00
04892             100.00    11400.00
04893              80.00    11600.00
04894             100.00    11600.00
04895              80.00    12000.00
04896              60.00    12000.00
04897              80.00    12200.00
04898             100.00    12200.00
04899              80.00    12400.00
04900              60.00    12400.00
04901              60.00    12600.00
04902              60.00    12600.00
04903              80.00    12800.00
04904             100.00    13000.00
04905             100.00    13200.00
04906              60.00    13200.00
04907              60.00    13200.00
04908              80.00    13400.00
04909              60.00    13400.00
04910              80.00    13400.00
04911              80.00    13400.00
04912              80.00    13600.00
04913              60.00    13400.00
04914              60.00    13800.00
04915              80.00    13800.00
04916              60.00    13600.00
04917              60.00    13800.00
04918              80.00    13800.00
04919              40.00    13800.00
04920              20.00    13800.00
04921              60.00    13800.00
04922              60.00    13800.00
04923              60.00    13800.00
04924              60.00    13800.00
04925              60.00    13800.00
04926              60.00    13800.00
04927              40.00    13800.00
04928              40.00    13800.00
04929              20.00    13800.00
04930              60.00    13800.00
04931              60.00    13800.00
04932              60.00    13800.00
04933              20.00    13600.00
04934              20.00    13400.00
04935              20.00    13400.00
04936              60.00    13400.00
04937              60.00    13400.00
04938              60.00    13400.00
04939              60.00    13200.00
04940              20.00    13200.00
04941              20.00    13200.00
04942              20.00    13000.00
04943              20.00    13000.00
04944              20.00    12800.00
04945              40.00    12600.00
04946              40.00    12600.00
04947               0.00    12600.00
04948              20.00    12400.00
04949               0.00    12200.00
04950              40.00    12200.00
04951               0.00    12200.00
04952              20.00    12000.00
04953               0.00    11800.00
04954               0.00    11600.00
04955               0.00    11400.00
04956               0.00    11400.00
04957               0.00    11200.00
04958               0.00    11000.00
04959               0.00    11000.00
04960               0.00    10600.00
04961               0.00    10600.00
04962             -20.00    10200.00
04963               0.00    10200.00
04964               0.00    10000.00
04965               0.00     9800.00
04966               0.00     9600.00
04967             -20.00     9400.00
04968             -20.00     9200.00
04969               0.00     9000.00
04970             -20.00     8800.00
04971               0.00     8600.00
04972             -20.00     8400.00
04973               0.00     8200.00
04974             -20.00     8000.00
04975             -40.00     7800.00
04976             -20.00     7600.00
04977             -20.00     7400.00
04978             -20.00     7000.00
04979             -20.00     6800.00
04980             -20.00     6600.00
04981             -60.00     6600.00
04982             -20.00     6200.00
04983             -20.00     5800.00
04984             -20.00     5800.00
04985             -40.00     5600.00
04986             -60.00     5400.00
04987             -40.00     5000.00
04988             -60.00     4800.00
04989             -20.00     4600.00
04990             -60.00     4400.00
04991             -20.00     4200.00
04992             -60.00     3800.00
04993             -60.00     3600.00
04994             -80.00     3400.00
04995             -80.00     3200.00
04996             -60.00     2800.00
04997             -40.00     2600.00
04998             -60.00     2200.00
04999             -60.00     2000.00
05000             -60.00     1800.00
