Unit:(mV)
                     CH1         CH2
Frequency              ? 299.024 kHz
00001             620.00    -2000.00
00002             920.00    -2400.00
00003             180.00    -2600.00
00004            -700.00    -2800.00
00005            -900.00    -3000.00
00006            -880.00    -3000.00
00007            -480.00    -3000.00
00008             400.00    -3600.00
00009              60.00    -3600.00
00010              60.00    -3600.00
00011             240.00    -4400.00
00012            -160.00    -4000.00
00013             140.00    -4600.00
00014              20.00    -4800.00
00015             -80.00    -4800.00
00016             180.00    -5400.00
00017             -60.00    -5000.00
00018            -220.00    -5800.00
00019            -160.00    -5800.00
00020             -20.00    -5800.00
00021             -40.00    -6200.00
00022            -100.00    -6200.00
00023              20.00    -6600.00
00024            -100.00    -6400.00
00025             -80.00    -6800.00
00026             -20.00    -7000.00
00027             -20.00    -6800.00
00028             -80.00    -7600.00
00029             -80.00    -7400.00
00030             -20.00    -7600.00
00031            -100.00    -7800.00
00032            -100.00    -8000.00
00033             -60.00    -8200.00
00034             -20.00    -8200.00
00035            -100.00    -8600.00
00036             -80.00    -8600.00
00037             -20.00    -8600.00
00038             -80.00    -9000.00
00039             -80.00    -9200.00
00040             -80.00    -9000.00
00041            -100.00    -9400.00
00042            -100.00    -9400.00
00043             -60.00    -9400.00
00044             -60.00    -9600.00
00045             -80.00    -9800.00
00046             -80.00   -10000.00
00047             -80.00    -9800.00
00048            -100.00   -10200.00
00049             -80.00   -10200.00
00050             -20.00   -10400.00
00051             -60.00   -10600.00
00052             -80.00   -10600.00
00053             -80.00   -10600.00
00054             -80.00   -10600.00
00055             -80.00   -10600.00
00056             -20.00   -11000.00
00057             -20.00   -10800.00
00058             -60.00   -11000.00
00059             -80.00   -11000.00
00060             -80.00   -11000.00
00061             -60.00   -11000.00
00062             -80.00   -11400.00
00063             -20.00   -11200.00
00064             -20.00   -11400.00
00065             -60.00   -11400.00
00066             -60.00   -11400.00
00067             -60.00   -11400.00
00068             -80.00   -11400.00
00069             -60.00   -11400.00
00070             -40.00   -11400.00
00071             -60.00   -11600.00
00072             -80.00   -11600.00
00073             -80.00   -11600.00
00074             -60.00   -11600.00
00075             -60.00   -11400.00
00076             -60.00   -11600.00
00077             -20.00   -11400.00
00078             -20.00   -11400.00
00079             -60.00   -11600.00
00080             -60.00   -11600.00
00081             -80.00   -11400.00
00082             -60.00   -11400.00
00083             -60.00   -11400.00
00084             -40.00   -11400.00
00085             -60.00   -11400.00
00086             -60.00   -11200.00
00087             -60.00   -11200.00
00088             -60.00   -11200.00
00089             -20.00   -11000.00
00090             -20.00   -11000.00
00091             -20.00   -11000.00
00092             -20.00   -11000.00
00093             -60.00   -11000.00
00094             -20.00   -10800.00
00095             -20.00   -10600.00
00096             -20.00   -10600.00
00097             -20.00   -10600.00
00098             -20.00   -10600.00
00099             -20.00   -10600.00
00100             -60.00   -10200.00
00101             -20.00   -10200.00
00102             -20.00   -10200.00
00103             -20.00   -10000.00
00104               0.00    -9800.00
00105             -20.00    -9600.00
00106             -20.00    -9600.00
00107             -20.00    -9400.00
00108             -20.00    -9400.00
00109             -20.00    -9200.00
00110             -20.00    -9000.00
00111             -20.00    -9000.00
00112             -20.00    -8600.00
00113             -20.00    -8600.00
00114             -20.00    -8600.00
00115             -20.00    -8600.00
00116               0.00    -8200.00
00117               0.00    -8000.00
00118               0.00    -8000.00
00119               0.00    -7800.00
00120               0.00    -7600.00
00121               0.00    -7400.00
00122               0.00    -7200.00
00123               0.00    -7000.00
00124              20.00    -7000.00
00125               0.00    -6800.00
00126               0.00    -6600.00
00127               0.00    -6400.00
00128               0.00    -6200.00
00129              20.00    -6000.00
00130              20.00    -5800.00
00131              20.00    -5600.00
00132               0.00    -5400.00
00133               0.00    -5200.00
00134               0.00    -5000.00
00135               0.00    -5000.00
00136              20.00    -4600.00
00137              20.00    -4600.00
00138               0.00    -4400.00
00139               0.00    -4200.00
00140              20.00    -3800.00
00141              20.00    -3600.00
00142              20.00    -3400.00
00143              20.00    -3200.00
00144              20.00    -3000.00
00145              20.00    -2800.00
00146              20.00    -2600.00
00147              20.00    -2400.00
00148              20.00    -2200.00
00149              60.00    -2000.00
00150              20.00    -1800.00
00151              40.00    -1800.00
00152              20.00    -1400.00
00153              20.00    -1200.00
00154              20.00    -1000.00
00155              40.00     -600.00
00156              60.00     -400.00
00157              60.00     -200.00
00158              60.00     -200.00
00159              60.00      200.00
00160              80.00      400.00
00161             160.00      600.00
00162             220.00      600.00
00163             160.00      800.00
00164             140.00     1200.00
00165             140.00     1200.00
00166             140.00     1400.00
00167             340.00     1800.00
00168            1040.00     2000.00
00169            1020.00     2200.00
00170             -80.00     2600.00
00171            -980.00     2600.00
00172           -1140.00     2600.00
00173            -740.00     3200.00
00174             660.00     3200.00
00175             460.00     3400.00
00176              40.00     3800.00
00177             420.00     3600.00
00178            -100.00     3800.00
00179             100.00     4800.00
00180             160.00     4200.00
00181               0.00     4600.00
00182             500.00     5000.00
00183             -20.00     4600.00
00184             -80.00     5600.00
00185              80.00     5200.00
00186               0.00     5800.00
00187             160.00     6000.00
00188              60.00     5800.00
00189             220.00     6600.00
00190              20.00     6000.00
00191              80.00     6600.00
00192             160.00     6800.00
00193              60.00     6800.00
00194             100.00     7400.00
00195              60.00     7000.00
00196             160.00     7600.00
00197              20.00     7400.00
00198              60.00     7800.00
00199             100.00     8000.00
00200             140.00     8200.00
00201             100.00     8400.00
00202              60.00     8200.00
00203             140.00     8600.00
00204              40.00     8600.00
00205             100.00     8800.00
00206             100.00     9000.00
00207             100.00     9000.00
00208              60.00     9400.00
00209              80.00     9200.00
00210              80.00     9400.00
00211             100.00     9600.00
00212             100.00     9800.00
00213              80.00     9800.00
00214              60.00    10000.00
00215              60.00     9800.00
00216             100.00    10200.00
00217             100.00    10200.00
00218              60.00    10400.00
00219              60.00    10600.00
00220              60.00    10400.00
00221              80.00    10600.00
00222              80.00    10800.00
00223              80.00    10800.00
00224              80.00    10800.00
00225              60.00    11000.00
00226              60.00    11000.00
00227              60.00    11000.00
00228              60.00    11200.00
00229              80.00    11000.00
00230              80.00    11400.00
00231              80.00    11200.00
00232              60.00    11400.00
00233              60.00    11400.00
00234              60.00    11400.00
00235              60.00    11400.00
00236              80.00    11400.00
00237              60.00    11400.00
00238              60.00    11600.00
00239              60.00    11600.00
00240              60.00    11600.00
00241              60.00    11400.00
00242              60.00    11600.00
00243              80.00    11400.00
00244              60.00    11600.00
00245              60.00    11600.00
00246              60.00    11400.00
00247              20.00    11400.00
00248              60.00    11400.00
00249              60.00    11400.00
00250              80.00    11400.00
00251              60.00    11400.00
00252              60.00    11200.00
00253              40.00    11400.00
00254              40.00    11200.00
00255              60.00    11200.00
00256              60.00    11000.00
00257              60.00    11000.00
00258              60.00    11000.00
00259              60.00    10800.00
00260              20.00    10800.00
00261              20.00    10800.00
00262              40.00    10600.00
00263              40.00    10600.00
00264              60.00    10600.00
00265              20.00    10600.00
00266              20.00    10200.00
00267              20.00    10200.00
00268              20.00    10200.00
00269              20.00    10000.00
00270              20.00    10000.00
00271              20.00     9800.00
00272              20.00     9800.00
00273              20.00     9600.00
00274               0.00     9400.00
00275              20.00     9400.00
00276              20.00     9400.00
00277              20.00     9000.00
00278               0.00     9000.00
00279               0.00     8800.00
00280               0.00     8600.00
00281               0.00     8400.00
00282               0.00     8400.00
00283               0.00     8200.00
00284               0.00     8000.00
00285               0.00     7800.00
00286               0.00     7600.00
00287               0.00     7600.00
00288               0.00     7400.00
00289               0.00     7000.00
00290               0.00     6800.00
00291               0.00     6800.00
00292               0.00     6600.00
00293             -20.00     6600.00
00294             -20.00     6200.00
00295               0.00     6200.00
00296               0.00     6000.00
00297             -20.00     5800.00
00298             -20.00     5600.00
00299             -20.00     5400.00
00300             -20.00     5200.00
00301             -20.00     5000.00
00302               0.00     4800.00
00303             -20.00     4600.00
00304             -20.00     4400.00
00305             -20.00     4200.00
00306             -20.00     4200.00
00307             -20.00     3800.00
00308             -20.00     3600.00
00309             -20.00     3600.00
00310             -20.00     3200.00
00311             -40.00     3000.00
00312             -60.00     2800.00
00313             -20.00     2600.00
00314             -20.00     2400.00
00315             -20.00     2000.00
00316             -20.00     2000.00
00317             -20.00     1800.00
00318             -20.00     1600.00
00319             -20.00     1400.00
00320             -20.00     1200.00
00321             -60.00     1000.00
00322             -20.00      800.00
00323             -20.00      400.00
00324             -40.00      200.00
00325             -20.00      200.00
00326             -40.00     -200.00
00327             -20.00     -400.00
00328              60.00     -400.00
00329             100.00     -800.00
00330              80.00    -1000.00
00331              20.00    -1200.00
00332              20.00    -1200.00
00333              20.00    -1400.00
00334              60.00    -1800.00
00335             380.00    -1800.00
00336             940.00    -2200.00
00337             560.00    -2600.00
00338            -380.00    -2600.00
00339            -880.00    -3000.00
00340            -880.00    -3000.00
00341            -800.00    -2800.00
00342             120.00    -3400.00
00343             320.00    -4000.00
00344            -100.00    -3400.00
00345             260.00    -4200.00
00346             -20.00    -4400.00
00347             -60.00    -4200.00
00348             160.00    -5000.00
00349            -140.00    -4600.00
00350             100.00    -5200.00
00351              80.00    -5000.00
00352            -180.00    -5200.00
00353            -180.00    -5800.00
00354             -80.00    -5400.00
00355              20.00    -6000.00
00356            -140.00    -6200.00
00357             -20.00    -6200.00
00358             -20.00    -6600.00
00359            -100.00    -6600.00
00360             -20.00    -7000.00
00361             -20.00    -6800.00
00362             -20.00    -7200.00
00363            -100.00    -7400.00
00364             -60.00    -7200.00
00365             -20.00    -7800.00
00366            -140.00    -7800.00
00367             -80.00    -8200.00
00368               0.00    -8200.00
00369             -60.00    -8400.00
00370             -80.00    -8600.00
00371             -20.00    -8400.00
00372             -60.00    -9000.00
00373             -80.00    -9000.00
00374             -60.00    -9200.00
00375             -80.00    -9200.00
00376            -100.00    -9400.00
00377             -80.00    -9400.00
00378             -20.00    -9400.00
00379             -80.00    -9800.00
00380             -80.00    -9800.00
00381             -60.00   -10000.00
00382             -80.00   -10000.00
00383             -80.00   -10200.00
00384             -60.00   -10200.00
00385             -40.00   -10600.00
00386             -80.00   -10400.00
00387             -80.00   -10600.00
00388             -80.00   -10600.00
00389             -80.00   -10800.00
00390             -60.00   -10800.00
00391             -20.00   -10600.00
00392             -60.00   -11000.00
00393             -80.00   -11000.00
00394             -80.00   -11000.00
00395             -80.00   -11400.00
00396             -80.00   -11400.00
00397             -60.00   -11200.00
00398             -20.00   -11400.00
00399             -60.00   -11400.00
00400             -80.00   -11400.00
00401             -60.00   -11400.00
00402             -80.00   -11400.00
00403             -60.00   -11400.00
00404             -60.00   -11400.00
00405             -40.00   -11400.00
00406             -80.00   -11600.00
00407             -80.00   -11400.00
00408             -60.00   -11600.00
00409             -80.00   -11600.00
00410             -60.00   -11600.00
00411             -60.00   -11400.00
00412             -60.00   -11600.00
00413             -80.00   -11400.00
00414             -60.00   -11600.00
00415             -60.00   -11400.00
00416             -60.00   -11600.00
00417             -60.00   -11400.00
00418             -20.00   -11400.00
00419             -60.00   -11400.00
00420             -60.00   -11400.00
00421             -60.00   -11400.00
00422             -40.00   -11400.00
00423             -20.00   -11200.00
00424             -20.00   -11000.00
00425             -40.00   -11000.00
00426             -20.00   -11000.00
00427             -60.00   -10800.00
00428             -40.00   -10800.00
00429             -60.00   -10800.00
00430             -40.00   -10600.00
00431             -20.00   -10600.00
00432             -20.00   -10600.00
00433             -60.00   -10400.00
00434             -60.00   -10400.00
00435             -20.00   -10000.00
00436             -20.00   -10000.00
00437             -20.00   -10000.00
00438             -20.00    -9800.00
00439             -20.00    -9800.00
00440             -20.00    -9800.00
00441             -20.00    -9400.00
00442             -20.00    -9400.00
00443             -20.00    -9200.00
00444               0.00    -9200.00
00445               0.00    -9200.00
00446               0.00    -9000.00
00447             -20.00    -8600.00
00448               0.00    -8600.00
00449               0.00    -8400.00
00450               0.00    -8200.00
00451               0.00    -8200.00
00452               0.00    -7800.00
00453             -20.00    -7800.00
00454               0.00    -7600.00
00455               0.00    -7400.00
00456               0.00    -7200.00
00457               0.00    -7000.00
00458              20.00    -7000.00
00459               0.00    -6800.00
00460               0.00    -6600.00
00461               0.00    -6600.00
00462               0.00    -6200.00
00463               0.00    -6000.00
00464              20.00    -6000.00
00465              20.00    -5800.00
00466               0.00    -5600.00
00467               0.00    -5200.00
00468               0.00    -5200.00
00469               0.00    -5000.00
00470              20.00    -4600.00
00471              20.00    -4600.00
00472              20.00    -4400.00
00473               0.00    -4200.00
00474               0.00    -4000.00
00475               0.00    -3600.00
00476              20.00    -3600.00
00477              20.00    -3400.00
00478              20.00    -3200.00
00479              20.00    -2800.00
00480              20.00    -2600.00
00481               0.00    -2600.00
00482              20.00    -2200.00
00483              20.00    -2200.00
00484              60.00    -1800.00
00485              60.00    -1800.00
00486              40.00    -1400.00
00487              20.00    -1200.00
00488              20.00    -1000.00
00489              40.00     -600.00
00490              60.00     -600.00
00491              60.00     -400.00
00492              60.00     -200.00
00493              60.00        0.00
00494              60.00      200.00
00495             100.00      400.00
00496             180.00      600.00
00497             200.00     1000.00
00498             160.00     1000.00
00499             140.00     1200.00
00500             140.00     1200.00
00501             220.00     1800.00
00502             740.00     2000.00
00503            1220.00     2200.00
00504             420.00     2200.00
00505            -720.00     2600.00
00506           -1120.00     2600.00
00507           -1060.00     3000.00
00508             100.00     3400.00
00509             800.00     3200.00
00510              20.00     3400.00
00511             320.00     3800.00
00512             160.00     3600.00
00513            -140.00     4600.00
00514             260.00     4200.00
00515             -60.00     4400.00
00516             320.00     5200.00
00517             260.00     4600.00
00518            -180.00     5200.00
00519             100.00     5600.00
00520               0.00     5400.00
00521             140.00     6000.00
00522              80.00     5400.00
00523             160.00     6400.00
00524             140.00     6200.00
00525             -20.00     6400.00
00526             180.00     6800.00
00527              60.00     6600.00
00528             100.00     7200.00
00529              60.00     7000.00
00530             140.00     7400.00
00531             100.00     7600.00
00532              20.00     7600.00
00533             100.00     8200.00
00534             120.00     8000.00
00535             160.00     8200.00
00536              60.00     8200.00
00537             140.00     8400.00
00538              60.00     8600.00
00539              80.00     8600.00
00540             100.00     9000.00
00541              80.00     9200.00
00542              60.00     9400.00
00543              20.00     9200.00
00544             100.00     9800.00
00545              80.00     9400.00
00546             120.00     9600.00
00547              80.00     9800.00
00548              60.00     9800.00
00549              40.00    10000.00
00550              80.00    10000.00
00551              80.00    10200.00
00552              80.00    10400.00
00553              60.00    10400.00
00554              40.00    10600.00
00555              80.00    10600.00
00556              80.00    10600.00
00557              80.00    10600.00
00558              80.00    10600.00
00559              60.00    10800.00
00560              60.00    10800.00
00561              60.00    11000.00
00562              60.00    11000.00
00563              80.00    11000.00
00564              80.00    11200.00
00565              60.00    11400.00
00566              60.00    11400.00
00567              60.00    11400.00
00568              60.00    11400.00
00569              60.00    11400.00
00570              80.00    11400.00
00571              80.00    11400.00
00572              60.00    11600.00
00573              60.00    11400.00
00574              60.00    11400.00
00575              60.00    11600.00
00576              60.00    11600.00
00577              60.00    11600.00
00578              80.00    11600.00
00579              80.00    11600.00
00580              60.00    11400.00
00581              60.00    11400.00
00582              20.00    11400.00
00583              80.00    11400.00
00584              60.00    11400.00
00585              60.00    11400.00
00586              20.00    11200.00
00587              60.00    11200.00
00588              60.00    11400.00
00589              60.00    11000.00
00590              60.00    11000.00
00591              60.00    11000.00
00592              60.00    11000.00
00593              40.00    11000.00
00594              20.00    10800.00
00595              40.00    10800.00
00596              20.00    10800.00
00597              20.00    10600.00
00598              60.00    10600.00
00599              40.00    10400.00
00600              20.00    10400.00
00601              20.00    10200.00
00602              20.00    10200.00
00603              20.00    10000.00
00604              20.00    10000.00
00605              20.00     9800.00
00606               0.00     9800.00
00607               0.00     9800.00
00608               0.00     9400.00
00609               0.00     9400.00
00610               0.00     9200.00
00611              20.00     9200.00
00612              20.00     9000.00
00613               0.00     8600.00
00614               0.00     8800.00
00615               0.00     8400.00
00616              20.00     8400.00
00617              20.00     8200.00
00618               0.00     8200.00
00619               0.00     7800.00
00620               0.00     7800.00
00621             -20.00     7800.00
00622               0.00     7400.00
00623               0.00     7400.00
00624               0.00     7200.00
00625               0.00     7000.00
00626             -20.00     6600.00
00627             -20.00     6600.00
00628               0.00     6400.00
00629             -20.00     6200.00
00630               0.00     6200.00
00631             -20.00     5800.00
00632             -20.00     5800.00
00633             -20.00     5400.00
00634             -20.00     5600.00
00635             -20.00     5200.00
00636             -20.00     5000.00
00637             -20.00     4600.00
00638             -20.00     4600.00
00639             -20.00     4400.00
00640             -20.00     4200.00
00641             -20.00     3800.00
00642             -20.00     3800.00
00643             -20.00     3600.00
00644             -20.00     3400.00
00645               0.00     3200.00
00646             -20.00     3000.00
00647             -60.00     2600.00
00648             -60.00     2600.00
00649             -20.00     2200.00
00650             -20.00     2000.00
00651             -20.00     1800.00
00652             -60.00     1600.00
00653             -20.00     1400.00
00654             -60.00     1200.00
00655             -60.00     1000.00
00656             -20.00      800.00
00657             -20.00      600.00
00658             -20.00      400.00
00659             -40.00      200.00
00660             -20.00      200.00
00661               0.00     -400.00
00662               0.00     -400.00
00663             100.00     -600.00
00664             100.00    -1000.00
00665              40.00    -1000.00
00666              20.00    -1200.00
00667               0.00    -1400.00
00668              20.00    -1400.00
00669             180.00    -1800.00
00670             720.00    -2200.00
00671             820.00    -2600.00
00672               0.00    -2800.00
00673            -800.00    -2800.00
00674            -900.00    -3000.00
00675            -880.00    -3000.00
00676            -340.00    -3000.00
00677             460.00    -3800.00
00678             -20.00    -3600.00
00679             140.00    -4000.00
00680             180.00    -4600.00
00681            -180.00    -4200.00
00682             160.00    -4600.00
00683             -40.00    -4600.00
00684             -20.00    -5000.00
00685             160.00    -5400.00
00686            -100.00    -5000.00
00687            -180.00    -5800.00
00688            -160.00    -5800.00
00689               0.00    -5800.00
00690             -80.00    -6200.00
00691            -100.00    -6200.00
00692               0.00    -6600.00
00693            -100.00    -6400.00
00694             -60.00    -7000.00
00695             -20.00    -7000.00
00696             -40.00    -7000.00
00697             -80.00    -7600.00
00698             -80.00    -7400.00
00699             -20.00    -7600.00
00700            -100.00    -7800.00
00701            -100.00    -7800.00
00702             -20.00    -8000.00
00703             -20.00    -8200.00
00704            -100.00    -8600.00
00705             -60.00    -8400.00
00706             -20.00    -8800.00
00707             -80.00    -9000.00
00708             -80.00    -9000.00
00709             -60.00    -9200.00
00710             -80.00    -9200.00
00711             -80.00    -9400.00
00712             -20.00    -9400.00
00713             -60.00    -9800.00
00714             -80.00    -9800.00
00715             -60.00    -9800.00
00716             -80.00   -10000.00
00717             -80.00   -10000.00
00718             -80.00   -10200.00
00719             -20.00   -10400.00
00720             -80.00   -10400.00
00721             -80.00   -10600.00
00722             -80.00   -10800.00
00723             -80.00   -10800.00
00724             -60.00   -10600.00
00725             -20.00   -10800.00
00726             -20.00   -10800.00
00727             -80.00   -11000.00
00728             -80.00   -11000.00
00729             -80.00   -11000.00
00730             -60.00   -11200.00
00731             -60.00   -11000.00
00732             -20.00   -11200.00
00733             -60.00   -11400.00
00734             -80.00   -11400.00
00735             -80.00   -11400.00
00736             -60.00   -11400.00
00737             -80.00   -11600.00
00738             -60.00   -11400.00
00739             -40.00   -11400.00
00740             -60.00   -11600.00
00741             -80.00   -11600.00
00742             -80.00   -11600.00
00743             -60.00   -11600.00
00744             -80.00   -11600.00
00745             -60.00   -11400.00
00746             -60.00   -11600.00
00747             -60.00   -11400.00
00748             -60.00   -11400.00
00749             -60.00   -11400.00
00750             -60.00   -11400.00
00751             -60.00   -11400.00
00752             -20.00   -11400.00
00753             -20.00   -11400.00
00754             -60.00   -11400.00
00755             -60.00   -11400.00
00756             -60.00   -11200.00
00757             -40.00   -11200.00
00758             -20.00   -11000.00
00759             -20.00   -11000.00
00760             -40.00   -11000.00
00761             -60.00   -11000.00
00762             -20.00   -10800.00
00763             -20.00   -10600.00
00764             -40.00   -10600.00
00765             -20.00   -10600.00
00766             -20.00   -10600.00
00767             -20.00   -10600.00
00768             -60.00   -10200.00
00769             -40.00   -10200.00
00770             -20.00   -10200.00
00771             -20.00   -10000.00
00772             -20.00    -9800.00
00773               0.00    -9800.00
00774             -20.00    -9800.00
00775             -20.00    -9400.00
00776             -20.00    -9400.00
00777             -20.00    -9400.00
00778               0.00    -9200.00
00779               0.00    -9000.00
00780               0.00    -9000.00
00781             -20.00    -8800.00
00782               0.00    -8400.00
00783             -20.00    -8600.00
00784               0.00    -8400.00
00785               0.00    -8200.00
00786               0.00    -8000.00
00787               0.00    -7800.00
00788             -20.00    -7600.00
00789               0.00    -7400.00
00790               0.00    -7200.00
00791               0.00    -7200.00
00792              20.00    -7000.00
00793               0.00    -6800.00
00794               0.00    -6800.00
00795               0.00    -6600.00
00796               0.00    -6400.00
00797               0.00    -6200.00
00798              20.00    -6000.00
00799              20.00    -6000.00
00800               0.00    -5600.00
00801               0.00    -5400.00
00802             -20.00    -5200.00
00803              20.00    -5000.00
00804               0.00    -5000.00
00805               0.00    -4600.00
00806              20.00    -4400.00
00807              20.00    -4400.00
00808               0.00    -4000.00
00809              20.00    -3800.00
00810               0.00    -3600.00
00811              20.00    -3400.00
00812              20.00    -3400.00
00813              20.00    -3000.00
00814              20.00    -2800.00
00815               0.00    -2800.00
00816              20.00    -2400.00
00817              20.00    -2200.00
00818              20.00    -2000.00
00819              20.00    -1800.00
00820              20.00    -1600.00
00821              20.00    -1200.00
00822              60.00    -1000.00
00823              60.00     -800.00
00824              40.00     -600.00
00825              60.00     -400.00
00826              60.00     -200.00
00827              60.00        0.00
00828              60.00      200.00
00829              80.00      200.00
00830             180.00      600.00
00831             180.00      600.00
00832             180.00     1000.00
00833             140.00     1200.00
00834             140.00     1400.00
00835             160.00     1600.00
00836             460.00     1800.00
00837            1140.00     2200.00
00838             880.00     2400.00
00839            -280.00     2600.00
00840           -1040.00     2600.00
00841           -1140.00     2800.00
00842            -500.00     3400.00
00843             780.00     3400.00
00844             300.00     3400.00
00845             120.00     3800.00
00846             380.00     3600.00
00847            -160.00     4200.00
00848             160.00     4600.00
00849              80.00     4200.00
00850              80.00     5000.00
00851             480.00     5000.00
00852            -100.00     5000.00
00853             -20.00     5800.00
00854              80.00     5200.00
00855              40.00     5800.00
00856             140.00     5800.00
00857              60.00     6000.00
00858             220.00     6400.00
00859             -20.00     6200.00
00860             120.00     6800.00
00861             140.00     6600.00
00862              60.00     6800.00
00863              80.00     7200.00
00864              60.00     7000.00
00865             160.00     7600.00
00866               0.00     7400.00
00867              60.00     7800.00
00868              80.00     7800.00
00869             140.00     8200.00
00870              80.00     8200.00
00871              80.00     8200.00
00872             100.00     8600.00
00873              20.00     8600.00
00874             120.00     9000.00
00875              80.00     9000.00
00876              80.00     9200.00
00877              20.00     9200.00
00878              80.00     9400.00
00879              80.00     9400.00
00880             100.00     9600.00
00881             100.00     9800.00
00882              60.00    10000.00
00883              60.00    10000.00
00884              60.00    10000.00
00885             100.00    10200.00
00886              80.00    10200.00
00887              60.00    10600.00
00888              60.00    10600.00
00889              60.00    10600.00
00890              80.00    10600.00
00891             100.00    10600.00
00892             100.00    10800.00
00893              80.00    10800.00
00894              60.00    11000.00
00895              60.00    11000.00
00896              60.00    11000.00
00897              60.00    11000.00
00898              80.00    11200.00
00899              80.00    11400.00
00900              60.00    11400.00
00901              60.00    11400.00
00902              40.00    11400.00
00903              60.00    11400.00
00904              80.00    11400.00
00905              80.00    11400.00
00906              60.00    11600.00
00907              60.00    11600.00
00908              60.00    11600.00
00909              60.00    11600.00
00910              60.00    11400.00
00911              60.00    11600.00
00912              80.00    11400.00
00913              60.00    11600.00
00914              60.00    11600.00
00915              60.00    11400.00
00916              60.00    11400.00
00917              60.00    11400.00
00918              60.00    11400.00
00919              80.00    11400.00
00920              60.00    11400.00
00921              60.00    11400.00
00922              60.00    11400.00
00923              60.00    11200.00
00924              60.00    11200.00
00925              80.00    11000.00
00926              60.00    11000.00
00927              40.00    11000.00
00928              40.00    10800.00
00929              20.00    10800.00
00930              20.00    10800.00
00931              60.00    10600.00
00932              60.00    10600.00
00933              20.00    10400.00
00934              20.00    10400.00
00935               0.00    10200.00
00936              20.00    10200.00
00937              20.00    10200.00
00938              20.00    10000.00
00939              20.00    10000.00
00940               0.00     9800.00
00941              20.00     9800.00
00942              20.00     9600.00
00943               0.00     9400.00
00944               0.00     9400.00
00945              20.00     9200.00
00946              20.00     9000.00
00947              20.00     9000.00
00948               0.00     8800.00
00949               0.00     8600.00
00950               0.00     8400.00
00951               0.00     8400.00
00952               0.00     8200.00
00953               0.00     8000.00
00954               0.00     7800.00
00955               0.00     7800.00
00956               0.00     7400.00
00957               0.00     7400.00
00958               0.00     7400.00
00959               0.00     7000.00
00960               0.00     7000.00
00961             -20.00     6600.00
00962             -20.00     6600.00
00963             -20.00     6400.00
00964               0.00     6200.00
00965               0.00     6000.00
00966             -20.00     5800.00
00967             -20.00     5600.00
00968             -20.00     5400.00
00969             -20.00     5200.00
00970             -20.00     5000.00
00971             -20.00     4800.00
00972             -20.00     4600.00
00973             -20.00     4400.00
00974             -20.00     4200.00
00975             -20.00     4000.00
00976             -20.00     3800.00
00977             -20.00     3600.00
00978             -20.00     3400.00
00979             -20.00     3200.00
00980             -40.00     3000.00
00981             -60.00     3000.00
00982             -60.00     2600.00
00983             -40.00     2200.00
00984             -20.00     2200.00
00985             -20.00     1800.00
00986             -20.00     1800.00
00987             -20.00     1600.00
00988             -40.00     1200.00
00989             -60.00     1000.00
00990             -40.00     1000.00
00991             -20.00      600.00
00992             -20.00      400.00
00993             -20.00      200.00
00994             -60.00      200.00
00995             -20.00     -200.00
00996               0.00     -400.00
00997              60.00     -600.00
00998             100.00     -800.00
00999              60.00    -1000.00
01000              20.00    -1200.00
01001               0.00    -1400.00
01002               0.00    -1600.00
01003              80.00    -1600.00
01004             460.00    -2000.00
01005             940.00    -2600.00
01006             420.00    -2600.00
01007            -540.00    -2800.00
01008            -900.00    -3000.00
01009            -900.00    -3000.00
01010            -700.00    -3000.00
01011             260.00    -3400.00
01012             220.00    -3800.00
01013             -40.00    -3600.00
01014             260.00    -4200.00
01015            -100.00    -4200.00
01016              20.00    -4400.00
01017             100.00    -4800.00
01018            -100.00    -4600.00
01019             140.00    -5400.00
01020               0.00    -5000.00
01021            -180.00    -5400.00
01022            -180.00    -6000.00
01023             -60.00    -5400.00
01024               0.00    -6200.00
01025            -140.00    -6000.00
01026               0.00    -6600.00
01027             -60.00    -6400.00
01028             -80.00    -6800.00
01029               0.00    -7000.00
01030             -20.00    -6800.00
01031             -60.00    -7400.00
01032            -100.00    -7400.00
01033               0.00    -7400.00
01034             -80.00    -8000.00
01035            -100.00    -7800.00
01036             -40.00    -8200.00
01037               0.00    -8200.00
01038             -80.00    -8400.00
01039             -80.00    -8600.00
01040             -20.00    -8600.00
01041             -60.00    -9000.00
01042             -80.00    -9000.00
01043             -60.00    -9000.00
01044             -80.00    -9200.00
01045            -100.00    -9400.00
01046             -60.00    -9400.00
01047             -20.00    -9400.00
01048             -80.00    -9800.00
01049             -80.00    -9800.00
01050             -60.00   -10000.00
01051             -80.00   -10000.00
01052            -100.00   -10200.00
01053             -40.00   -10200.00
01054             -60.00   -10400.00
01055             -80.00   -10400.00
01056             -80.00   -10600.00
01057             -60.00   -10800.00
01058             -80.00   -10600.00
01059             -60.00   -10800.00
01060             -40.00   -10800.00
01061             -60.00   -11000.00
01062             -80.00   -11000.00
01063             -80.00   -11200.00
01064             -80.00   -11200.00
01065             -60.00   -11200.00
01066             -60.00   -11200.00
01067             -40.00   -11400.00
01068             -80.00   -11200.00
01069             -80.00   -11400.00
01070             -80.00   -11400.00
01071             -80.00   -11600.00
01072             -80.00   -11600.00
01073             -60.00   -11400.00
01074             -60.00   -11400.00
01075             -60.00   -11600.00
01076             -80.00   -11400.00
01077             -80.00   -11600.00
01078             -80.00   -11600.00
01079             -60.00   -11400.00
01080             -60.00   -11400.00
01081             -20.00   -11600.00
01082             -60.00   -11400.00
01083             -80.00   -11600.00
01084             -80.00   -11400.00
01085             -60.00   -11400.00
01086             -20.00   -11400.00
01087             -20.00   -11400.00
01088             -60.00   -11400.00
01089             -60.00   -11200.00
01090             -60.00   -11200.00
01091             -60.00   -11000.00
01092             -40.00   -11000.00
01093             -20.00   -11000.00
01094             -20.00   -11000.00
01095             -60.00   -11000.00
01096             -40.00   -11000.00
01097             -60.00   -10800.00
01098             -20.00   -10600.00
01099             -20.00   -10800.00
01100               0.00   -10600.00
01101             -20.00   -10400.00
01102             -20.00   -10200.00
01103             -20.00   -10200.00
01104             -20.00   -10200.00
01105             -20.00   -10200.00
01106               0.00   -10000.00
01107             -20.00    -9800.00
01108             -20.00    -9600.00
01109             -20.00    -9600.00
01110             -20.00    -9400.00
01111             -20.00    -9200.00
01112             -20.00    -9200.00
01113               0.00    -9000.00
01114             -20.00    -9000.00
01115               0.00    -8800.00
01116             -20.00    -8600.00
01117               0.00    -8400.00
01118               0.00    -8600.00
01119               0.00    -8200.00
01120               0.00    -8000.00
01121               0.00    -8000.00
01122               0.00    -7800.00
01123             -20.00    -7600.00
01124               0.00    -7400.00
01125               0.00    -7200.00
01126               0.00    -7000.00
01127               0.00    -7000.00
01128               0.00    -6800.00
01129             -20.00    -6600.00
01130               0.00    -6400.00
01131               0.00    -6200.00
01132               0.00    -6000.00
01133              20.00    -6000.00
01134               0.00    -5800.00
01135               0.00    -5400.00
01136               0.00    -5400.00
01137               0.00    -5200.00
01138               0.00    -5000.00
01139              20.00    -4800.00
01140              20.00    -4600.00
01141               0.00    -4400.00
01142               0.00    -4200.00
01143               0.00    -4000.00
01144               0.00    -3800.00
01145              20.00    -3600.00
01146              20.00    -3200.00
01147              20.00    -3000.00
01148              20.00    -3000.00
01149              20.00    -2600.00
01150              20.00    -2600.00
01151              20.00    -2200.00
01152              40.00    -2000.00
01153              20.00    -1800.00
01154              20.00    -1800.00
01155              20.00    -1400.00
01156              60.00    -1200.00
01157              20.00     -800.00
01158              60.00     -600.00
01159              60.00     -600.00
01160              40.00     -400.00
01161              60.00        0.00
01162              60.00      200.00
01163              80.00      400.00
01164             140.00      400.00
01165             200.00      800.00
01166             180.00     1000.00
01167             160.00     1000.00
01168             140.00     1200.00
01169             140.00     1400.00
01170             260.00     1800.00
01171             860.00     2200.00
01172            1180.00     2200.00
01173             240.00     2600.00
01174            -840.00     2600.00
01175           -1140.00     2600.00
01176            -960.00     3000.00
01177             340.00     3400.00
01178             700.00     3400.00
01179             -20.00     3600.00
01180             420.00     3800.00
01181              40.00     3800.00
01182             -60.00     4600.00
01183             240.00     4400.00
01184             -60.00     4600.00
01185             400.00     5000.00
01186             160.00     4600.00
01187            -160.00     5600.00
01188             100.00     5400.00
01189               0.00     5600.00
01190             160.00     6200.00
01191              60.00     5600.00
01192             160.00     6600.00
01193              80.00     6200.00
01194               0.00     6600.00
01195             180.00     6800.00
01196              40.00     6800.00
01197             100.00     7200.00
01198              60.00     6800.00
01199             140.00     7600.00
01200              80.00     7400.00
01201              20.00     7800.00
01202             100.00     8000.00
01203             140.00     7800.00
01204             140.00     8200.00
01205              40.00     8200.00
01206             140.00     8600.00
01207              40.00     8600.00
01208              80.00     8600.00
01209             100.00     9000.00
01210              80.00     9000.00
01211              60.00     9200.00
01212              60.00     9400.00
01213             100.00     9600.00
01214              80.00     9400.00
01215             100.00     9800.00
01216              80.00     9800.00
01217              60.00     9800.00
01218              60.00    10200.00
01219             100.00    10200.00
01220              80.00    10200.00
01221              80.00    10200.00
01222              80.00    10600.00
01223              60.00    10600.00
01224              80.00    10600.00
01225              80.00    10800.00
01226             100.00    10800.00
01227              80.00    10800.00
01228              80.00    10800.00
01229              60.00    11000.00
01230              60.00    11000.00
01231              60.00    11000.00
01232              80.00    11000.00
01233             100.00    11400.00
01234              80.00    11200.00
01235              80.00    11200.00
01236              60.00    11400.00
01237              60.00    11400.00
01238              60.00    11600.00
01239              80.00    11400.00
01240              80.00    11600.00
01241              60.00    11600.00
01242              60.00    11400.00
01243              60.00    11600.00
01244              60.00    11400.00
01245              60.00    11600.00
01246              80.00    11600.00
01247              80.00    11600.00
01248              60.00    11400.00
01249              60.00    11400.00
01250              60.00    11400.00
01251              40.00    11400.00
01252              60.00    11400.00
01253              60.00    11400.00
01254              60.00    11400.00
01255              20.00    11400.00
01256              60.00    11200.00
01257              60.00    11000.00
01258              40.00    11000.00
01259              60.00    11000.00
01260              60.00    11000.00
01261              60.00    11000.00
01262              60.00    10800.00
01263              20.00    10800.00
01264              40.00    10800.00
01265              20.00    10800.00
01266              40.00    10600.00
01267              60.00    10600.00
01268              20.00    10600.00
01269               0.00    10200.00
01270               0.00    10200.00
01271              20.00    10200.00
01272              20.00    10000.00
01273              20.00    10000.00
01274              20.00     9800.00
01275               0.00     9800.00
01276               0.00     9600.00
01277               0.00     9400.00
01278               0.00     9400.00
01279               0.00     9200.00
01280              20.00     9000.00
01281               0.00     9000.00
01282               0.00     8600.00
01283               0.00     8600.00
01284              20.00     8400.00
01285               0.00     8400.00
01286               0.00     8200.00
01287               0.00     8200.00
01288               0.00     7800.00
01289               0.00     7800.00
01290             -20.00     7600.00
01291               0.00     7400.00
01292               0.00     7400.00
01293               0.00     7000.00
01294               0.00     7000.00
01295               0.00     7000.00
01296             -20.00     6600.00
01297             -20.00     6600.00
01298               0.00     6200.00
01299               0.00     6200.00
01300               0.00     5800.00
01301             -20.00     5800.00
01302             -20.00     5600.00
01303             -20.00     5200.00
01304             -20.00     5000.00
01305               0.00     5000.00
01306             -20.00     4600.00
01307             -20.00     4600.00
01308             -20.00     4400.00
01309             -20.00     4200.00
01310             -20.00     4000.00
01311             -20.00     3800.00
01312             -20.00     3400.00
01313             -20.00     3400.00
01314             -20.00     3000.00
01315             -20.00     3000.00
01316             -60.00     2600.00
01317             -40.00     2600.00
01318             -20.00     2200.00
01319             -20.00     2000.00
01320             -20.00     1800.00
01321             -40.00     1600.00
01322             -60.00     1400.00
01323             -40.00     1200.00
01324             -60.00     1000.00
01325             -60.00      800.00
01326             -60.00      600.00
01327             -40.00      400.00
01328             -60.00      200.00
01329             -20.00     -200.00
01330             -20.00     -400.00
01331              40.00     -600.00
01332             100.00     -600.00
01333              80.00    -1000.00
01334              20.00    -1200.00
01335               0.00    -1200.00
01336               0.00    -1400.00
01337              20.00    -1800.00
01338             240.00    -1800.00
01339             820.00    -2200.00
01340             740.00    -2600.00
01341            -160.00    -2800.00
01342            -860.00    -3000.00
01343            -880.00    -3000.00
01344            -860.00    -3000.00
01345            -160.00    -3000.00
01346             440.00    -3800.00
01347             -80.00    -3600.00
01348             180.00    -4000.00
01349              80.00    -4400.00
01350            -140.00    -4200.00
01351             180.00    -5000.00
01352             -80.00    -4600.00
01353              40.00    -5000.00
01354             140.00    -5200.00
01355            -140.00    -5000.00
01356            -180.00    -6000.00
01357            -140.00    -5400.00
01358              20.00    -6000.00
01359            -100.00    -6200.00
01360             -60.00    -6200.00
01361               0.00    -6600.00
01362            -100.00    -6400.00
01363             -20.00    -7000.00
01364               0.00    -6800.00
01365             -20.00    -7000.00
01366             -80.00    -7400.00
01367             -60.00    -7200.00
01368             -20.00    -7800.00
01369            -100.00    -7800.00
01370             -80.00    -8200.00
01371               0.00    -8200.00
01372             -20.00    -8200.00
01373            -100.00    -8600.00
01374             -60.00    -8400.00
01375             -60.00    -9000.00
01376             -80.00    -9000.00
01377             -60.00    -9000.00
01378             -80.00    -9000.00
01379            -100.00    -9200.00
01380            -100.00    -9400.00
01381             -20.00    -9400.00
01382             -60.00    -9800.00
01383             -60.00    -9800.00
01384             -60.00    -9800.00
01385             -80.00   -10000.00
01386            -100.00   -10200.00
01387             -80.00   -10200.00
01388             -60.00   -10200.00
01389             -60.00   -10600.00
01390            -100.00   -10600.00
01391             -80.00   -10600.00
01392             -80.00   -10600.00
01393             -60.00   -10800.00
01394             -20.00   -10800.00
01395             -40.00   -11000.00
01396            -100.00   -11000.00
01397             -80.00   -11000.00
01398             -80.00   -11000.00
01399             -80.00   -11200.00
01400             -80.00   -11400.00
01401             -60.00   -11400.00
01402             -60.00   -11400.00
01403             -80.00   -11400.00
01404             -80.00   -11400.00
01405             -60.00   -11400.00
01406             -80.00   -11400.00
01407             -60.00   -11400.00
01408             -60.00   -11400.00
01409             -60.00   -11600.00
01410             -80.00   -11600.00
01411             -80.00   -11600.00
01412             -60.00   -11400.00
01413             -60.00   -11400.00
01414             -60.00   -11400.00
01415             -20.00   -11400.00
01416             -60.00   -11600.00
01417             -60.00   -11400.00
01418             -60.00   -11600.00
01419             -40.00   -11600.00
01420             -20.00   -11400.00
01421             -20.00   -11400.00
01422             -20.00   -11400.00
01423             -60.00   -11400.00
01424             -40.00   -11400.00
01425             -60.00   -11400.00
01426             -20.00   -11000.00
01427             -20.00   -11200.00
01428             -20.00   -11000.00
01429             -20.00   -11000.00
01430             -40.00   -11000.00
01431             -40.00   -11000.00
01432             -20.00   -10600.00
01433             -20.00   -10600.00
01434               0.00   -10600.00
01435             -20.00   -10600.00
01436             -20.00   -10400.00
01437             -20.00   -10400.00
01438             -60.00   -10200.00
01439             -20.00   -10000.00
01440             -20.00   -10000.00
01441               0.00    -9800.00
01442             -20.00    -9800.00
01443             -20.00    -9600.00
01444             -20.00    -9400.00
01445               0.00    -9400.00
01446             -20.00    -9200.00
01447               0.00    -9200.00
01448               0.00    -9000.00
01449               0.00    -9000.00
01450             -20.00    -8600.00
01451               0.00    -8600.00
01452             -20.00    -8400.00
01453             -20.00    -8400.00
01454               0.00    -8200.00
01455             -20.00    -8000.00
01456               0.00    -7800.00
01457               0.00    -7600.00
01458             -20.00    -7600.00
01459               0.00    -7200.00
01460               0.00    -7200.00
01461               0.00    -7000.00
01462               0.00    -6800.00
01463               0.00    -6800.00
01464               0.00    -6600.00
01465               0.00    -6200.00
01466               0.00    -6200.00
01467               0.00    -6000.00
01468              20.00    -5800.00
01469               0.00    -5600.00
01470               0.00    -5400.00
01471               0.00    -5200.00
01472               0.00    -5000.00
01473               0.00    -5000.00
01474              20.00    -4600.00
01475              20.00    -4400.00
01476              20.00    -4200.00
01477              20.00    -4200.00
01478               0.00    -3800.00
01479              20.00    -3400.00
01480              20.00    -3400.00
01481              40.00    -3200.00
01482              40.00    -3000.00
01483               0.00    -2800.00
01484              20.00    -2600.00
01485              20.00    -2400.00
01486              20.00    -2200.00
01487              40.00    -2000.00
01488              20.00    -1800.00
01489              20.00    -1400.00
01490              40.00    -1200.00
01491              40.00    -1000.00
01492              60.00     -800.00
01493              60.00     -600.00
01494              60.00     -400.00
01495              60.00     -200.00
01496              60.00        0.00
01497              60.00      200.00
01498             120.00      400.00
01499             160.00      600.00
01500             180.00      800.00
01501             180.00     1000.00
01502             140.00     1200.00
01503             140.00     1400.00
01504             160.00     1600.00
01505             540.00     2000.00
01506            1200.00     2200.00
01507             720.00     2400.00
01508            -480.00     2600.00
01509           -1060.00     2600.00
01510           -1140.00     2800.00
01511            -260.00     3400.00
01512             860.00     3400.00
01513             160.00     3200.00
01514             220.00     4000.00
01515             320.00     3600.00
01516            -180.00     4200.00
01517             220.00     4600.00
01518               0.00     4200.00
01519             160.00     5200.00
01520             400.00     4600.00
01521            -160.00     5000.00
01522              60.00     5600.00
01523               0.00     5200.00
01524              60.00     6000.00
01525             120.00     5600.00
01526              80.00     6000.00
01527             180.00     6400.00
01528             -40.00     6200.00
01529             140.00     6800.00
01530             140.00     6600.00
01531              60.00     7000.00
01532              60.00     7000.00
01533              80.00     7400.00
01534             120.00     7600.00
01535               0.00     7400.00
01536              80.00     7800.00
01537             100.00     7800.00
01538             160.00     8200.00
01539              60.00     8200.00
01540             100.00     8400.00
01541              80.00     8600.00
01542              60.00     8600.00
01543             100.00     9000.00
01544              80.00     9000.00
01545             100.00     9200.00
01546              20.00     9200.00
01547             100.00     9400.00
01548              80.00     9400.00
01549             100.00     9600.00
01550              80.00     9800.00
01551              60.00     9800.00
01552              60.00    10000.00
01553              60.00    10200.00
01554             100.00    10000.00
01555             100.00    10200.00
01556              80.00    10200.00
01557              60.00    10600.00
01558              60.00    10600.00
01559              80.00    10600.00
01560             100.00    10800.00
01561             100.00    10800.00
01562              60.00    10800.00
01563              60.00    10800.00
01564              80.00    11000.00
01565              60.00    11000.00
01566              80.00    11200.00
01567             100.00    11000.00
01568             100.00    11200.00
01569              80.00    11400.00
01570              60.00    11400.00
01571              60.00    11200.00
01572              60.00    11400.00
01573              80.00    11400.00
01574              80.00    11600.00
01575              60.00    11400.00
01576              60.00    11600.00
01577              60.00    11600.00
01578              60.00    11600.00
01579              60.00    11400.00
01580              60.00    11600.00
01581              80.00    11600.00
01582              60.00    11400.00
01583              60.00    11400.00
01584              20.00    11600.00
01585              60.00    11400.00
01586              40.00    11400.00
01587              60.00    11400.00
01588              60.00    11400.00
01589              60.00    11400.00
01590              40.00    11400.00
01591              60.00    11200.00
01592              20.00    11000.00
01593              60.00    11200.00
01594              60.00    11000.00
01595              60.00    11000.00
01596              60.00    11000.00
01597              20.00    10800.00
01598              20.00    10600.00
01599              20.00    10800.00
01600              40.00    10600.00
01601              60.00    10600.00
01602              20.00    10600.00
01603              20.00    10200.00
01604               0.00    10200.00
01605              20.00    10200.00
01606              20.00    10000.00
01607              20.00    10000.00
01608              20.00    10000.00
01609               0.00     9800.00
01610               0.00     9800.00
01611               0.00     9600.00
01612              20.00     9400.00
01613              20.00     9200.00
01614              20.00     9200.00
01615               0.00     9000.00
01616               0.00     9000.00
01617               0.00     8600.00
01618               0.00     8600.00
01619               0.00     8600.00
01620               0.00     8400.00
01621               0.00     8200.00
01622               0.00     8200.00
01623               0.00     7800.00
01624               0.00     7600.00
01625               0.00     7400.00
01626               0.00     7400.00
01627               0.00     7000.00
01628             -20.00     6800.00
01629               0.00     6800.00
01630               0.00     6600.00
01631               0.00     6600.00
01632             -20.00     6200.00
01633               0.00     6200.00
01634               0.00     5800.00
01635               0.00     5800.00
01636             -20.00     5600.00
01637             -20.00     5400.00
01638             -20.00     5000.00
01639             -20.00     5000.00
01640               0.00     4800.00
01641               0.00     4600.00
01642             -20.00     4400.00
01643             -20.00     4200.00
01644             -20.00     4200.00
01645             -20.00     3800.00
01646             -20.00     3600.00
01647             -20.00     3400.00
01648             -20.00     3400.00
01649             -60.00     3000.00
01650             -60.00     2800.00
01651             -60.00     2400.00
01652             -20.00     2200.00
01653             -20.00     2200.00
01654             -20.00     1800.00
01655             -40.00     1800.00
01656             -60.00     1400.00
01657             -20.00     1200.00
01658             -60.00     1200.00
01659             -60.00      800.00
01660             -40.00      600.00
01661             -40.00      400.00
01662             -60.00      200.00
01663             -40.00     -200.00
01664             -20.00     -200.00
01665               0.00     -400.00
01666              80.00     -600.00
01667              80.00     -600.00
01668              60.00    -1000.00
01669               0.00    -1200.00
01670               0.00    -1400.00
01671              20.00    -1600.00
01672             100.00    -1800.00
01673             560.00    -2000.00
01674             920.00    -2400.00
01675             260.00    -2600.00
01676            -660.00    -2800.00
01677            -900.00    -3000.00
01678            -900.00    -3000.00
01679            -560.00    -3000.00
01680             380.00    -3600.00
01681             100.00    -3800.00
01682               0.00    -3600.00
01683             240.00    -4400.00
01684            -180.00    -4200.00
01685             100.00    -4400.00
01686              60.00    -4600.00
01687             -80.00    -4800.00
01688             180.00    -5400.00
01689             -20.00    -5000.00
01690            -180.00    -5600.00
01691            -160.00    -5800.00
01692             -20.00    -5400.00
01693             -20.00    -6200.00
01694            -140.00    -6000.00
01695              20.00    -6600.00
01696             -80.00    -6600.00
01697             -80.00    -6800.00
01698               0.00    -7000.00
01699             -20.00    -7000.00
01700             -60.00    -7400.00
01701            -100.00    -7200.00
01702             -20.00    -7600.00
01703             -80.00    -7800.00
01704            -100.00    -7800.00
01705             -20.00    -8200.00
01706               0.00    -8200.00
01707             -80.00    -8600.00
01708             -80.00    -8600.00
01709             -20.00    -8600.00
01710             -60.00    -9000.00
01711             -60.00    -9000.00
01712             -60.00    -9200.00
01713             -80.00    -9200.00
01714            -100.00    -9400.00
01715             -60.00    -9400.00
01716             -40.00    -9800.00
01717             -80.00    -9800.00
01718             -80.00   -10000.00
01719             -60.00   -10000.00
01720            -100.00   -10200.00
01721             -80.00   -10200.00
01722             -60.00   -10200.00
01723             -80.00   -10400.00
01724             -80.00   -10600.00
01725             -80.00   -10600.00
01726             -80.00   -10600.00
01727             -80.00   -10800.00
01728             -40.00   -10800.00
01729             -20.00   -10800.00
01730             -80.00   -11000.00
01731             -80.00   -11000.00
01732             -80.00   -11000.00
01733             -80.00   -11200.00
01734            -100.00   -11200.00
01735             -60.00   -11200.00
01736             -20.00   -11400.00
01737             -80.00   -11400.00
01738             -80.00   -11400.00
01739             -80.00   -11400.00
01740             -80.00   -11400.00
01741             -60.00   -11600.00
01742             -40.00   -11400.00
01743             -60.00   -11400.00
01744             -60.00   -11600.00
01745             -80.00   -11600.00
01746             -60.00   -11600.00
01747             -60.00   -11600.00
01748             -60.00   -11400.00
01749             -20.00   -11600.00
01750             -40.00   -11600.00
01751             -60.00   -11400.00
01752             -60.00   -11400.00
01753             -60.00   -11400.00
01754             -60.00   -11400.00
01755             -20.00   -11400.00
01756             -20.00   -11400.00
01757             -20.00   -11400.00
01758             -60.00   -11400.00
01759             -60.00   -11200.00
01760             -20.00   -11200.00
01761             -20.00   -11200.00
01762             -20.00   -11000.00
01763             -20.00   -11000.00
01764             -20.00   -11000.00
01765             -40.00   -10800.00
01766             -20.00   -10800.00
01767             -40.00   -10800.00
01768             -20.00   -10600.00
01769             -20.00   -10600.00
01770             -20.00   -10600.00
01771             -20.00   -10400.00
01772             -20.00   -10200.00
01773             -20.00   -10000.00
01774             -20.00   -10200.00
01775               0.00   -10000.00
01776             -20.00    -9800.00
01777             -20.00    -9800.00
01778             -40.00    -9600.00
01779             -20.00    -9600.00
01780             -20.00    -9400.00
01781               0.00    -9200.00
01782             -20.00    -9200.00
01783             -20.00    -9000.00
01784             -20.00    -9000.00
01785             -20.00    -8600.00
01786             -20.00    -8600.00
01787             -20.00    -8400.00
01788               0.00    -8200.00
01789               0.00    -8200.00
01790               0.00    -7800.00
01791             -20.00    -7800.00
01792               0.00    -7600.00
01793             -20.00    -7400.00
01794               0.00    -7200.00
01795               0.00    -7000.00
01796               0.00    -7000.00
01797               0.00    -6800.00
01798               0.00    -6600.00
01799               0.00    -6400.00
01800             -20.00    -6200.00
01801               0.00    -6000.00
01802               0.00    -5800.00
01803               0.00    -5800.00
01804               0.00    -5400.00
01805               0.00    -5200.00
01806               0.00    -5000.00
01807              20.00    -4800.00
01808              20.00    -4600.00
01809              20.00    -4400.00
01810              20.00    -4400.00
01811              20.00    -4200.00
01812               0.00    -3800.00
01813              20.00    -3800.00
01814              20.00    -3400.00
01815              60.00    -3400.00
01816              60.00    -3200.00
01817              20.00    -2800.00
01818              20.00    -2600.00
01819              20.00    -2400.00
01820              20.00    -2200.00
01821              60.00    -2000.00
01822              60.00    -1800.00
01823              40.00    -1800.00
01824              20.00    -1200.00
01825              20.00    -1200.00
01826              60.00     -800.00
01827              40.00     -800.00
01828              60.00     -600.00
01829              60.00     -200.00
01830              60.00        0.00
01831              60.00      200.00
01832              80.00      400.00
01833             160.00      600.00
01834             220.00      600.00
01835             180.00     1000.00
01836             160.00     1000.00
01837             160.00     1200.00
01838             140.00     1400.00
01839             300.00     1800.00
01840            1020.00     2200.00
01841            1060.00     2200.00
01842              20.00     2600.00
01843            -960.00     2600.00
01844           -1140.00     2600.00
01845            -820.00     3000.00
01846             560.00     3400.00
01847             540.00     3000.00
01848               0.00     3600.00
01849             400.00     3600.00
01850             -80.00     3800.00
01851              20.00     4800.00
01852             180.00     4200.00
01853             -40.00     4600.00
01854             480.00     5200.00
01855              20.00     4600.00
01856            -100.00     5600.00
01857              80.00     5400.00
01858               0.00     5800.00
01859             140.00     6000.00
01860              60.00     5800.00
01861             200.00     6600.00
01862              20.00     6200.00
01863              20.00     6600.00
01864             160.00     6800.00
01865              60.00     6800.00
01866             100.00     7200.00
01867              60.00     7000.00
01868             160.00     7400.00
01869              20.00     7400.00
01870              20.00     7800.00
01871             100.00     8000.00
01872             140.00     8000.00
01873             100.00     8200.00
01874              60.00     8200.00
01875             120.00     8600.00
01876              20.00     8600.00
01877             100.00     8800.00
01878             100.00     8800.00
01879             100.00     9000.00
01880              60.00     9200.00
01881              80.00     9400.00
01882             100.00     9400.00
01883             100.00     9600.00
01884             100.00     9800.00
01885              80.00     9800.00
01886              60.00     9800.00
01887              60.00    10000.00
01888             100.00    10200.00
01889             100.00    10200.00
01890              80.00    10200.00
01891              60.00    10400.00
01892              60.00    10600.00
01893              80.00    10400.00
01894             120.00    10800.00
01895             100.00    10800.00
01896              80.00    10800.00
01897              60.00    11000.00
01898              60.00    11000.00
01899              60.00    11000.00
01900              60.00    11000.00
01901              80.00    11000.00
01902             100.00    11400.00
01903              80.00    11200.00
01904              80.00    11400.00
01905              60.00    11400.00
01906              60.00    11400.00
01907              60.00    11400.00
01908              60.00    11400.00
01909              60.00    11400.00
01910              60.00    11600.00
01911              40.00    11600.00
01912              60.00    11600.00
01913              60.00    11600.00
01914              60.00    11400.00
01915              80.00    11600.00
01916              60.00    11600.00
01917              60.00    11600.00
01918              60.00    11400.00
01919              40.00    11400.00
01920              20.00    11400.00
01921              60.00    11400.00
01922              60.00    11400.00
01923              60.00    11400.00
01924              20.00    11200.00
01925              20.00    11400.00
01926              20.00    11000.00
01927              60.00    11200.00
01928              60.00    11200.00
01929              60.00    11000.00
01930              40.00    11000.00
01931              40.00    10800.00
01932              20.00    10800.00
01933              20.00    10600.00
01934              20.00    10800.00
01935              60.00    10600.00
01936              60.00    10600.00
01937              20.00    10400.00
01938              20.00    10200.00
01939               0.00    10200.00
01940              20.00    10200.00
01941              60.00    10000.00
01942              20.00     9800.00
01943              20.00     9800.00
01944               0.00     9800.00
01945               0.00     9600.00
01946              20.00     9400.00
01947              20.00     9200.00
01948              20.00     9400.00
01949              20.00     9000.00
01950              20.00     9000.00
01951               0.00     8800.00
01952               0.00     8600.00
01953               0.00     8400.00
01954               0.00     8400.00
01955              20.00     8200.00
01956               0.00     8200.00
01957               0.00     8000.00
01958               0.00     7800.00
01959               0.00     7600.00
01960               0.00     7400.00
01961               0.00     7200.00
01962               0.00     7200.00
01963               0.00     7000.00
01964               0.00     6600.00
01965             -20.00     6600.00
01966             -20.00     6400.00
01967               0.00     6200.00
01968               0.00     6000.00
01969               0.00     6000.00
01970             -20.00     5800.00
01971             -20.00     5400.00
01972             -20.00     5200.00
01973             -20.00     5000.00
01974             -20.00     4800.00
01975             -20.00     4600.00
01976             -20.00     4400.00
01977             -60.00     4200.00
01978             -20.00     4000.00
01979             -40.00     3800.00
01980             -60.00     3600.00
01981             -20.00     3600.00
01982             -20.00     3400.00
01983             -60.00     3000.00
01984             -40.00     2800.00
01985             -60.00     2800.00
01986             -60.00     2400.00
01987             -20.00     2200.00
01988             -20.00     2000.00
01989             -20.00     1800.00
01990             -20.00     1400.00
01991             -40.00     1400.00
01992             -60.00     1200.00
01993             -60.00     1000.00
01994             -40.00      600.00
01995             -60.00      400.00
01996             -20.00      400.00
01997             -40.00      200.00
01998             -60.00     -200.00
01999             -20.00     -400.00
02000              60.00     -600.00
02001              80.00     -600.00
02002              80.00    -1000.00
02003              20.00    -1200.00
02004               0.00    -1400.00
02005               0.00    -1600.00
02006              60.00    -1600.00
02007             320.00    -1800.00
02008             880.00    -2200.00
02009             620.00    -2600.00
02010            -320.00    -2600.00
02011            -900.00    -3000.00
02012            -880.00    -3000.00
02013            -800.00    -2800.00
02014              60.00    -3400.00
02015             380.00    -3800.00
02016             -80.00    -3400.00
02017             240.00    -4200.00
02018               0.00    -4400.00
02019             -80.00    -4200.00
02020             180.00    -4600.00
02021            -100.00    -4600.00
02022             100.00    -5200.00
02023             100.00    -5000.00
02024            -160.00    -5200.00
02025            -180.00    -6000.00
02026            -100.00    -5400.00
02027              60.00    -6000.00
02028            -140.00    -6200.00
02029             -20.00    -6400.00
02030             -20.00    -6800.00
02031            -100.00    -6600.00
02032             -20.00    -7000.00
02033             -20.00    -6800.00
02034             -20.00    -7200.00
02035             -80.00    -7400.00
02036             -20.00    -7400.00
02037             -60.00    -7800.00
02038            -100.00    -7800.00
02039             -80.00    -8200.00
02040               0.00    -8200.00
02041             -60.00    -8400.00
02042            -100.00    -8800.00
02043             -20.00    -8600.00
02044             -60.00    -8800.00
02045            -100.00    -9000.00
02046             -60.00    -9200.00
02047             -80.00    -9200.00
02048            -100.00    -9400.00
02049            -100.00    -9400.00
02050             -20.00    -9400.00
02051             -60.00    -9800.00
02052             -80.00   -10000.00
02053             -80.00    -9800.00
02054             -80.00   -10000.00
02055            -100.00   -10200.00
02056             -60.00   -10200.00
02057             -60.00   -10200.00
02058             -80.00   -10400.00
02059            -100.00   -10600.00
02060             -80.00   -10600.00
02061             -80.00   -10800.00
02062             -60.00   -11000.00
02063             -20.00   -10800.00
02064             -60.00   -11000.00
02065             -80.00   -11000.00
02066             -80.00   -11000.00
02067             -80.00   -11000.00
02068             -80.00   -11400.00
02069             -60.00   -11200.00
02070             -20.00   -11200.00
02071             -60.00   -11400.00
02072             -80.00   -11400.00
02073             -80.00   -11600.00
02074             -80.00   -11400.00
02075             -60.00   -11400.00
02076             -60.00   -11600.00
02077             -40.00   -11600.00
02078             -60.00   -11400.00
02079             -80.00   -11600.00
02080             -60.00   -11600.00
02081             -60.00   -11400.00
02082             -60.00   -11600.00
02083             -20.00   -11400.00
02084             -20.00   -11600.00
02085             -60.00   -11400.00
02086             -60.00   -11400.00
02087             -60.00   -11600.00
02088             -40.00   -11400.00
02089             -20.00   -11400.00
02090             -20.00   -11400.00
02091             -20.00   -11400.00
02092             -60.00   -11400.00
02093             -20.00   -11400.00
02094             -40.00   -11200.00
02095             -20.00   -11200.00
02096             -20.00   -11200.00
02097             -20.00   -11000.00
02098             -20.00   -11000.00
02099             -40.00   -10800.00
02100             -20.00   -10800.00
02101             -20.00   -10800.00
02102             -20.00   -10600.00
02103             -20.00   -10600.00
02104             -20.00   -10400.00
02105             -20.00   -10600.00
02106             -60.00   -10400.00
02107             -60.00   -10200.00
02108             -20.00   -10200.00
02109             -20.00   -10000.00
02110             -20.00   -10000.00
02111             -20.00    -9800.00
02112             -20.00    -9600.00
02113             -20.00    -9600.00
02114             -20.00    -9200.00
02115             -20.00    -9200.00
02116               0.00    -9000.00
02117               0.00    -9000.00
02118               0.00    -9000.00
02119             -20.00    -8600.00
02120             -20.00    -8600.00
02121             -20.00    -8600.00
02122             -20.00    -8400.00
02123               0.00    -8200.00
02124               0.00    -8200.00
02125             -20.00    -7800.00
02126             -20.00    -7600.00
02127             -20.00    -7600.00
02128               0.00    -7200.00
02129               0.00    -7200.00
02130               0.00    -7000.00
02131               0.00    -6800.00
02132               0.00    -6600.00
02133               0.00    -6400.00
02134               0.00    -6200.00
02135               0.00    -6000.00
02136               0.00    -5800.00
02137              20.00    -5800.00
02138               0.00    -5600.00
02139               0.00    -5400.00
02140               0.00    -5200.00
02141               0.00    -5000.00
02142               0.00    -4600.00
02143              20.00    -4600.00
02144              20.00    -4400.00
02145               0.00    -4200.00
02146              20.00    -3800.00
02147              20.00    -3600.00
02148              20.00    -3600.00
02149              40.00    -3400.00
02150              20.00    -3200.00
02151              20.00    -2800.00
02152              60.00    -2800.00
02153              20.00    -2600.00
02154              20.00    -2400.00
02155              40.00    -2000.00
02156              40.00    -2000.00
02157              40.00    -1800.00
02158              60.00    -1400.00
02159              20.00    -1200.00
02160              60.00    -1000.00
02161              60.00     -800.00
02162              60.00     -600.00
02163              60.00     -200.00
02164              60.00     -200.00
02165              60.00      200.00
02166              60.00      200.00
02167             100.00      400.00
02168             180.00      600.00
02169             220.00     1000.00
02170             160.00     1000.00
02171             140.00     1000.00
02172             140.00     1400.00
02173             220.00     1600.00
02174             700.00     2000.00
02175            1220.00     2200.00
02176             480.00     2200.00
02177            -640.00     2600.00
02178           -1140.00     2400.00
02179           -1140.00     3000.00
02180            -100.00     3400.00
02181             820.00     3400.00
02182             140.00     3600.00
02183             400.00     4000.00
02184             320.00     3600.00
02185            -120.00     4600.00
02186             220.00     4400.00
02187            -180.00     4200.00
02188             140.00     5200.00
02189             220.00     4400.00
02190            -200.00     5400.00
02191             140.00     5400.00
02192              60.00     5400.00
02193             160.00     6000.00
02194             140.00     5600.00
02195             160.00     6200.00
02196             160.00     6200.00
02197             -60.00     6200.00
02198             140.00     6800.00
02199               0.00     6600.00
02200              20.00     7400.00
02201              60.00     7000.00
02202             160.00     7400.00
02203             160.00     7600.00
02204              80.00     7600.00
02205             140.00     8000.00
02206             140.00     7800.00
02207             140.00     8400.00
02208              20.00     8200.00
02209              60.00     8600.00
02210              20.00     8600.00
02211              20.00     8800.00
02212             140.00     9000.00
02213             160.00     9000.00
02214             160.00     9200.00
02215              80.00     9200.00
02216             120.00     9400.00
02217              60.00     9600.00
02218              60.00     9800.00
02219              20.00     9800.00
02220              60.00    10000.00
02221              60.00    10000.00
02222             100.00    10000.00
02223             160.00    10200.00
02224             100.00    10200.00
02225              80.00    10200.00
02226              60.00    10400.00
02227              60.00    10600.00
02228              60.00    10600.00
02229              80.00    10800.00
02230              80.00    10800.00
02231              80.00    10800.00
02232              80.00    11000.00
02233              80.00    11000.00
02234              60.00    11000.00
02235              60.00    11000.00
02236              60.00    11000.00
02237              80.00    11200.00
02238              60.00    11400.00
02239              60.00    11400.00
02240              60.00    11400.00
02241              60.00    11400.00
02242              80.00    11400.00
02243              60.00    11600.00
02244              60.00    11600.00
02245              60.00    11400.00
02246              60.00    11600.00
02247              60.00    11400.00
02248              60.00    11600.00
02249              60.00    11400.00
02250              80.00    11400.00
02251              60.00    11400.00
02252              60.00    11400.00
02253              60.00    11400.00
02254              20.00    11400.00
02255              60.00    11400.00
02256              60.00    11400.00
02257              60.00    11400.00
02258              60.00    11200.00
02259              60.00    11400.00
02260              60.00    11200.00
02261              60.00    11200.00
02262              40.00    11200.00
02263              60.00    11000.00
02264              60.00    11000.00
02265              40.00    11000.00
02266              20.00    11000.00
02267              20.00    10800.00
02268              40.00    10800.00
02269              40.00    10600.00
02270              60.00    10600.00
02271              20.00    10600.00
02272              20.00    10400.00
02273              20.00    10200.00
02274              60.00    10200.00
02275              20.00    10200.00
02276              40.00    10000.00
02277              20.00    10000.00
02278              20.00     9800.00
02279               0.00     9800.00
02280              20.00     9600.00
02281              20.00     9400.00
02282              20.00     9400.00
02283              20.00     9200.00
02284              40.00     9000.00
02285               0.00     8800.00
02286               0.00     8600.00
02287               0.00     8600.00
02288              20.00     8400.00
02289              20.00     8400.00
02290               0.00     8200.00
02291               0.00     8000.00
02292               0.00     7800.00
02293               0.00     7800.00
02294               0.00     7400.00
02295               0.00     7200.00
02296               0.00     7000.00
02297               0.00     7000.00
02298               0.00     6800.00
02299             -20.00     6600.00
02300               0.00     6600.00
02301             -20.00     6200.00
02302               0.00     6000.00
02303             -20.00     5800.00
02304             -20.00     5800.00
02305             -20.00     5600.00
02306             -20.00     5400.00
02307             -20.00     5200.00
02308             -20.00     5000.00
02309             -20.00     4600.00
02310             -20.00     4400.00
02311             -20.00     4400.00
02312             -20.00     4200.00
02313             -40.00     3800.00
02314             -20.00     3800.00
02315             -20.00     3600.00
02316             -20.00     3400.00
02317             -20.00     3200.00
02318             -60.00     3000.00
02319             -60.00     2800.00
02320             -60.00     2400.00
02321             -60.00     2200.00
02322             -20.00     2000.00
02323             -20.00     1800.00
02324             -60.00     1800.00
02325             -20.00     1400.00
02326             -60.00     1400.00
02327             -20.00     1000.00
02328             -60.00      800.00
02329             -40.00      600.00
02330             -40.00      400.00
02331             -60.00      200.00
02332             -20.00        0.00
02333             -20.00     -200.00
02334              20.00     -400.00
02335              80.00     -600.00
02336             100.00     -800.00
02337              60.00    -1000.00
02338               0.00    -1200.00
02339               0.00    -1400.00
02340              20.00    -1600.00
02341             160.00    -1800.00
02342             660.00    -2000.00
02343             880.00    -2600.00
02344              80.00    -2600.00
02345            -740.00    -2800.00
02346            -880.00    -3000.00
02347            -880.00    -2800.00
02348            -400.00    -3000.00
02349             460.00    -3600.00
02350               0.00    -3600.00
02351             100.00    -3800.00
02352             200.00    -4400.00
02353            -180.00    -4200.00
02354             160.00    -4600.00
02355               0.00    -4800.00
02356             -60.00    -4600.00
02357             160.00    -5400.00
02358            -100.00    -5000.00
02359            -180.00    -5800.00
02360            -160.00    -5800.00
02361               0.00    -5800.00
02362             -60.00    -6200.00
02363            -120.00    -6200.00
02364              20.00    -6600.00
02365            -100.00    -6600.00
02366             -60.00    -7000.00
02367             -20.00    -7000.00
02368             -20.00    -7000.00
02369             -80.00    -7400.00
02370             -80.00    -7200.00
02371             -20.00    -7600.00
02372            -100.00    -7800.00
02373            -100.00    -8200.00
02374             -20.00    -8200.00
02375             -20.00    -8200.00
02376            -100.00    -8400.00
02377             -80.00    -8400.00
02378             -20.00    -8800.00
02379             -80.00    -9000.00
02380             -80.00    -9000.00
02381             -80.00    -9200.00
02382            -100.00    -9200.00
02383            -100.00    -9400.00
02384             -60.00    -9400.00
02385             -60.00    -9800.00
02386             -80.00    -9800.00
02387             -60.00   -10000.00
02388             -80.00   -10000.00
02389             -80.00   -10000.00
02390             -80.00   -10400.00
02391             -60.00   -10400.00
02392             -60.00   -10400.00
02393            -100.00   -10600.00
02394             -60.00   -10600.00
02395             -80.00   -10800.00
02396             -80.00   -10800.00
02397             -20.00   -10800.00
02398             -20.00   -10800.00
02399             -80.00   -11000.00
02400             -80.00   -11000.00
02401             -80.00   -11400.00
02402             -80.00   -11200.00
02403             -80.00   -11400.00
02404             -20.00   -11400.00
02405             -20.00   -11400.00
02406             -80.00   -11400.00
02407             -60.00   -11400.00
02408             -60.00   -11400.00
02409             -80.00   -11400.00
02410             -60.00   -11400.00
02411             -20.00   -11400.00
02412             -60.00   -11400.00
02413             -80.00   -11600.00
02414             -60.00   -11400.00
02415             -60.00   -11600.00
02416             -60.00   -11400.00
02417             -20.00   -11600.00
02418             -20.00   -11600.00
02419             -20.00   -11600.00
02420             -40.00   -11400.00
02421             -60.00   -11400.00
02422             -20.00   -11400.00
02423             -40.00   -11400.00
02424             -20.00   -11400.00
02425             -40.00   -11400.00
02426             -60.00   -11200.00
02427             -60.00   -11400.00
02428             -60.00   -11200.00
02429             -60.00   -11400.00
02430             -60.00   -11000.00
02431             -40.00   -11000.00
02432             -20.00   -11000.00
02433             -60.00   -11000.00
02434             -60.00   -10800.00
02435             -20.00   -10800.00
02436             -40.00   -10600.00
02437             -20.00   -10600.00
02438             -20.00   -10600.00
02439             -20.00   -10600.00
02440             -20.00   -10400.00
02441             -60.00   -10200.00
02442             -20.00   -10200.00
02443             -20.00   -10000.00
02444               0.00   -10000.00
02445             -20.00    -9800.00
02446             -20.00    -9800.00
02447             -20.00    -9600.00
02448             -20.00    -9400.00
02449             -20.00    -9200.00
02450             -20.00    -9200.00
02451             -20.00    -9000.00
02452               0.00    -9000.00
02453             -20.00    -8800.00
02454             -20.00    -8600.00
02455               0.00    -8600.00
02456               0.00    -8400.00
02457               0.00    -8200.00
02458               0.00    -8200.00
02459               0.00    -7800.00
02460               0.00    -7800.00
02461               0.00    -7600.00
02462               0.00    -7400.00
02463               0.00    -7000.00
02464               0.00    -7000.00
02465              20.00    -7000.00
02466             -20.00    -6800.00
02467               0.00    -6600.00
02468               0.00    -6400.00
02469               0.00    -6200.00
02470              20.00    -6000.00
02471               0.00    -5800.00
02472              20.00    -5800.00
02473               0.00    -5400.00
02474              20.00    -5200.00
02475               0.00    -5000.00
02476              20.00    -5000.00
02477              20.00    -4600.00
02478              20.00    -4400.00
02479              20.00    -4200.00
02480               0.00    -4200.00
02481              20.00    -4000.00
02482              20.00    -3600.00
02483              40.00    -3400.00
02484              20.00    -3400.00
02485              60.00    -3000.00
02486              20.00    -2800.00
02487              20.00    -2600.00
02488              20.00    -2400.00
02489              60.00    -2200.00
02490              20.00    -2000.00
02491              60.00    -1800.00
02492              40.00    -1400.00
02493              60.00    -1200.00
02494              60.00    -1200.00
02495              20.00     -800.00
02496              40.00     -600.00
02497              60.00     -600.00
02498              60.00     -400.00
02499              60.00        0.00
02500              60.00      200.00
02501              80.00      400.00
02502             160.00      600.00
02503             180.00      600.00
02504             180.00     1000.00
02505             140.00     1000.00
02506             140.00     1200.00
02507             160.00     1400.00
02508             380.00     1800.00
02509            1100.00     2000.00
02510             940.00     2200.00
02511            -220.00     2600.00
02512           -1040.00     2600.00
02513           -1140.00     2800.00
02514            -640.00     3000.00
02515             720.00     3400.00
02516             380.00     3200.00
02517              60.00     3800.00
02518             400.00     3600.00
02519            -140.00     4000.00
02520             100.00     4600.00
02521             100.00     4200.00
02522              40.00     5000.00
02523             480.00     5000.00
02524             -80.00     4600.00
02525             -20.00     5800.00
02526              60.00     5200.00
02527               0.00     5800.00
02528             160.00     5800.00
02529              60.00     5800.00
02530             220.00     6600.00
02531             -20.00     6200.00
02532             100.00     6800.00
02533             160.00     6600.00
02534              60.00     7000.00
02535             100.00     7200.00
02536              60.00     7000.00
02537             140.00     7600.00
02538              20.00     7400.00
02539              60.00     7800.00
02540             100.00     8000.00
02541             140.00     8000.00
02542              80.00     8200.00
02543              80.00     8400.00
02544             100.00     8600.00
02545              40.00     8600.00
02546             120.00     8800.00
02547             100.00     9000.00
02548              80.00     9200.00
02549              20.00     9200.00
02550              80.00     9400.00
02551             100.00     9800.00
02552             100.00     9600.00
02553             100.00     9800.00
02554              80.00     9800.00
02555              60.00    10000.00
02556              60.00    10000.00
02557             100.00    10200.00
02558              80.00    10200.00
02559              60.00    10400.00
02560              60.00    10600.00
02561              60.00    10600.00
02562              80.00    10600.00
02563             100.00    10600.00
02564              80.00    10800.00
02565              60.00    10800.00
02566              60.00    10800.00
02567              60.00    10800.00
02568              60.00    11000.00
02569              60.00    11000.00
02570              80.00    11400.00
02571              80.00    11000.00
02572              80.00    11400.00
02573              60.00    11400.00
02574              60.00    11400.00
02575              40.00    11400.00
02576              60.00    11400.00
02577              80.00    11400.00
02578              60.00    11600.00
02579              40.00    11400.00
02580              60.00    11600.00
02581              60.00    11600.00
02582              60.00    11600.00
02583              80.00    11600.00
02584              60.00    11400.00
02585              80.00    11600.00
02586              60.00    11400.00
02587              60.00    11600.00
02588              20.00    11600.00
02589              40.00    11600.00
02590              60.00    11400.00
02591              60.00    11400.00
02592              60.00    11400.00
02593              60.00    11400.00
02594              60.00    11200.00
02595              60.00    11000.00
02596              20.00    11000.00
02597              60.00    11000.00
02598              60.00    11000.00
02599              60.00    10800.00
02600              40.00    11000.00
02601              20.00    10800.00
02602              20.00    10800.00
02603              20.00    10600.00
02604              60.00    10600.00
02605              60.00    10600.00
02606              20.00    10400.00
02607               0.00    10200.00
02608              20.00    10400.00
02609              20.00    10200.00
02610              60.00    10000.00
02611              20.00    10000.00
02612              20.00     9800.00
02613               0.00     9800.00
02614               0.00     9600.00
02615              20.00     9400.00
02616              20.00     9400.00
02617              20.00     9200.00
02618              20.00     9000.00
02619               0.00     9000.00
02620               0.00     8800.00
02621               0.00     8600.00
02622               0.00     8400.00
02623              20.00     8400.00
02624              20.00     8200.00
02625               0.00     8200.00
02626               0.00     7800.00
02627               0.00     7800.00
02628               0.00     7600.00
02629               0.00     7400.00
02630               0.00     7200.00
02631               0.00     7000.00
02632             -20.00     6800.00
02633             -20.00     6800.00
02634             -20.00     6400.00
02635             -20.00     6200.00
02636             -20.00     6200.00
02637             -20.00     6000.00
02638             -20.00     5800.00
02639             -20.00     5800.00
02640             -20.00     5400.00
02641             -20.00     5200.00
02642             -20.00     5200.00
02643             -20.00     4800.00
02644             -20.00     4600.00
02645             -20.00     4400.00
02646             -20.00     4200.00
02647             -20.00     4000.00
02648             -60.00     3800.00
02649             -20.00     3600.00
02650             -20.00     3400.00
02651             -20.00     3400.00
02652             -20.00     3000.00
02653             -60.00     2800.00
02654             -60.00     2600.00
02655             -20.00     2400.00
02656             -20.00     2200.00
02657             -20.00     2000.00
02658             -40.00     1800.00
02659             -60.00     1400.00
02660             -40.00     1400.00
02661             -60.00     1200.00
02662             -20.00     1000.00
02663             -60.00      600.00
02664             -60.00      600.00
02665             -60.00      200.00
02666             -60.00      200.00
02667             -20.00     -200.00
02668               0.00     -400.00
02669              80.00     -600.00
02670              80.00     -800.00
02671              60.00     -800.00
02672              20.00    -1200.00
02673               0.00    -1400.00
02674               0.00    -1400.00
02675              80.00    -1600.00
02676             400.00    -1800.00
02677             940.00    -2200.00
02678             500.00    -2600.00
02679            -480.00    -2800.00
02680            -900.00    -3000.00
02681            -880.00    -3000.00
02682            -720.00    -2800.00
02683             200.00    -3400.00
02684             260.00    -3800.00
02685             -80.00    -3400.00
02686             260.00    -4200.00
02687             -80.00    -4200.00
02688               0.00    -4200.00
02689             140.00    -4800.00
02690            -100.00    -4600.00
02691             140.00    -5400.00
02692              20.00    -5000.00
02693            -180.00    -5400.00
02694            -180.00    -6000.00
02695             -80.00    -5400.00
02696              20.00    -6200.00
02697            -160.00    -6200.00
02698               0.00    -6400.00
02699             -60.00    -6600.00
02700            -100.00    -6600.00
02701               0.00    -7200.00
02702             -20.00    -6800.00
02703             -20.00    -7400.00
02704             -80.00    -7200.00
02705             -40.00    -7600.00
02706             -80.00    -7800.00
02707            -140.00    -7800.00
02708             -60.00    -8200.00
02709               0.00    -8200.00
02710             -60.00    -8600.00
02711            -100.00    -8600.00
02712             -20.00    -8600.00
02713             -80.00    -8800.00
02714             -80.00    -9000.00
02715             -60.00    -9000.00
02716             -80.00    -9200.00
02717            -100.00    -9400.00
02718             -80.00    -9400.00
02719             -20.00    -9400.00
02720             -80.00    -9800.00
02721             -60.00    -9800.00
02722             -60.00    -9800.00
02723             -80.00   -10200.00
02724            -100.00   -10200.00
02725             -60.00   -10200.00
02726             -80.00   -10200.00
02727            -100.00   -10600.00
02728             -80.00   -10600.00
02729             -80.00   -10600.00
02730             -80.00   -10600.00
02731             -60.00   -10800.00
02732             -20.00   -11000.00
02733             -60.00   -10800.00
02734             -60.00   -11000.00
02735             -80.00   -11000.00
02736             -80.00   -11200.00
02737             -80.00   -11400.00
02738             -60.00   -11200.00
02739             -20.00   -11400.00
02740             -80.00   -11400.00
02741             -80.00   -11600.00
02742             -60.00   -11400.00
02743             -60.00   -11400.00
02744             -60.00   -11600.00
02745             -40.00   -11400.00
02746             -60.00   -11400.00
02747             -60.00   -11600.00
02748             -80.00   -11600.00
02749             -60.00   -11600.00
02750             -60.00   -11600.00
02751             -60.00   -11400.00
02752             -20.00   -11600.00
02753             -20.00   -11400.00
02754             -60.00   -11400.00
02755             -60.00   -11400.00
02756             -60.00   -11400.00
02757             -60.00   -11400.00
02758             -60.00   -11400.00
02759             -20.00   -11400.00
02760             -60.00   -11400.00
02761             -60.00   -11400.00
02762             -60.00   -11200.00
02763             -60.00   -11200.00
02764             -20.00   -11000.00
02765             -20.00   -11000.00
02766             -20.00   -11000.00
02767             -60.00   -11000.00
02768             -40.00   -11000.00
02769             -60.00   -10800.00
02770             -20.00   -10800.00
02771             -20.00   -10800.00
02772             -20.00   -10800.00
02773             -20.00   -10600.00
02774             -20.00   -10400.00
02775             -40.00   -10200.00
02776             -20.00   -10200.00
02777             -20.00   -10000.00
02778             -20.00   -10000.00
02779             -20.00    -9800.00
02780             -20.00    -9800.00
02781             -20.00    -9600.00
02782             -20.00    -9400.00
02783             -20.00    -9400.00
02784               0.00    -9400.00
02785             -20.00    -9200.00
02786               0.00    -9000.00
02787             -20.00    -9000.00
02788             -20.00    -9000.00
02789             -20.00    -8600.00
02790               0.00    -8400.00
02791               0.00    -8400.00
02792               0.00    -8200.00
02793               0.00    -8000.00
02794               0.00    -7800.00
02795               0.00    -7600.00
02796               0.00    -7200.00
02797               0.00    -7200.00
02798               0.00    -7000.00
02799               0.00    -7000.00
02800               0.00    -6800.00
02801               0.00    -6600.00
02802               0.00    -6600.00
02803              20.00    -6200.00
02804              20.00    -6000.00
02805              20.00    -6000.00
02806              20.00    -5800.00
02807               0.00    -5400.00
02808               0.00    -5200.00
02809               0.00    -5200.00
02810               0.00    -5000.00
02811              20.00    -4800.00
02812              20.00    -4400.00
02813              20.00    -4400.00
02814              20.00    -4200.00
02815              20.00    -4000.00
02816              20.00    -3800.00
02817              20.00    -3400.00
02818              60.00    -3400.00
02819              20.00    -3000.00
02820              20.00    -2800.00
02821              20.00    -2800.00
02822              20.00    -2600.00
02823              20.00    -2200.00
02824              20.00    -2000.00
02825              20.00    -1800.00
02826              40.00    -1800.00
02827              60.00    -1400.00
02828              40.00    -1000.00
02829              40.00     -800.00
02830              60.00     -600.00
02831              20.00     -600.00
02832              60.00     -400.00
02833              60.00     -200.00
02834              60.00        0.00
02835              80.00      400.00
02836             140.00      400.00
02837             180.00      600.00
02838             200.00      800.00
02839             160.00     1000.00
02840             140.00     1200.00
02841             120.00     1400.00
02842             240.00     1600.00
02843             800.00     2200.00
02844            1180.00     2200.00
02845             320.00     2600.00
02846            -800.00     2600.00
02847           -1120.00     2600.00
02848           -1020.00     3000.00
02849             240.00     3400.00
02850             740.00     3200.00
02851               0.00     3600.00
02852             400.00     3800.00
02853              80.00     3800.00
02854            -100.00     4600.00
02855             240.00     4400.00
02856             -80.00     4400.00
02857             380.00     5200.00
02858             220.00     4600.00
02859            -160.00     5400.00
02860             100.00     5400.00
02861               0.00     5600.00
02862             140.00     6000.00
02863              60.00     5600.00
02864             160.00     6400.00
02865             100.00     6200.00
02866             -20.00     6400.00
02867             200.00     6800.00
02868              60.00     6600.00
02869             100.00     7400.00
02870              60.00     7000.00
02871             140.00     7400.00
02872              80.00     7600.00
02873              20.00     7400.00
02874             100.00     8000.00
02875             140.00     7800.00
02876             140.00     8200.00
02877              60.00     8400.00
02878             140.00     8400.00
02879              40.00     8600.00
02880              80.00     8600.00
02881             100.00     9000.00
02882              80.00     9000.00
02883              60.00     9200.00
02884              60.00     9200.00
02885             100.00     9400.00
02886              80.00     9600.00
02887             120.00     9800.00
02888              80.00    10000.00
02889              60.00    10000.00
02890              40.00    10000.00
02891              80.00    10200.00
02892             100.00    10200.00
02893              80.00    10200.00
02894              60.00    10400.00
02895              20.00    10600.00
02896              60.00    10600.00
02897              80.00    10600.00
02898             100.00    10800.00
02899              80.00    10800.00
02900              60.00    11000.00
02901              60.00    11000.00
02902              60.00    11000.00
02903              60.00    11200.00
02904              60.00    11000.00
02905              80.00    11400.00
02906              80.00    11200.00
02907              60.00    11400.00
02908              60.00    11400.00
02909              60.00    11400.00
02910              60.00    11400.00
02911              80.00    11600.00
02912              60.00    11400.00
02913              60.00    11400.00
02914              60.00    11400.00
02915              60.00    11600.00
02916              60.00    11600.00
02917              60.00    11600.00
02918              60.00    11400.00
02919              60.00    11600.00
02920              60.00    11600.00
02921              60.00    11600.00
02922              60.00    11400.00
02923              20.00    11400.00
02924              60.00    11400.00
02925              60.00    11400.00
02926              80.00    11400.00
02927              60.00    11400.00
02928              60.00    11400.00
02929              20.00    11000.00
02930              20.00    11000.00
02931              60.00    11200.00
02932              60.00    11000.00
02933              60.00    11000.00
02934              20.00    11000.00
02935              60.00    10800.00
02936              20.00    10800.00
02937              60.00    10600.00
02938              60.00    10600.00
02939              60.00    10600.00
02940              60.00    10600.00
02941              20.00    10400.00
02942              20.00    10200.00
02943              40.00    10200.00
02944              60.00    10200.00
02945              40.00    10000.00
02946              40.00    10000.00
02947              20.00     9800.00
02948              20.00     9600.00
02949               0.00     9600.00
02950              20.00     9400.00
02951               0.00     9400.00
02952               0.00     9000.00
02953               0.00     9000.00
02954               0.00     8800.00
02955               0.00     8600.00
02956               0.00     8400.00
02957               0.00     8400.00
02958               0.00     8200.00
02959               0.00     8200.00
02960               0.00     7800.00
02961               0.00     7800.00
02962               0.00     7600.00
02963               0.00     7400.00
02964               0.00     7000.00
02965               0.00     7000.00
02966               0.00     7000.00
02967             -20.00     6800.00
02968             -20.00     6600.00
02969             -20.00     6600.00
02970             -20.00     6200.00
02971             -20.00     6200.00
02972               0.00     5800.00
02973             -20.00     5600.00
02974             -20.00     5600.00
02975             -40.00     5400.00
02976             -20.00     5200.00
02977             -20.00     5000.00
02978             -20.00     4600.00
02979             -20.00     4600.00
02980             -20.00     4400.00
02981             -20.00     4200.00
02982             -20.00     3800.00
02983             -20.00     3600.00
02984               0.00     3600.00
02985             -20.00     3400.00
02986             -20.00     3200.00
02987             -20.00     2800.00
02988             -60.00     2600.00
02989             -40.00     2600.00
02990             -20.00     2200.00
02991             -20.00     2000.00
02992             -20.00     1800.00
02993             -20.00     1600.00
02994             -40.00     1400.00
02995             -40.00     1200.00
02996             -40.00     1000.00
02997             -20.00      800.00
02998             -20.00      600.00
02999             -60.00      400.00
03000             -60.00      200.00
03001             -20.00        0.00
03002             -20.00     -200.00
03003              60.00     -400.00
03004             100.00     -600.00
03005              80.00     -800.00
03006              40.00    -1000.00
03007              20.00    -1200.00
03008              20.00    -1400.00
03009              20.00    -1800.00
03010             220.00    -1800.00
03011             780.00    -2200.00
03012             800.00    -2400.00
03013            -100.00    -2600.00
03014            -820.00    -3000.00
03015            -880.00    -3000.00
03016            -880.00    -3000.00
03017            -240.00    -3000.00
03018             460.00    -3800.00
03019             -60.00    -3600.00
03020             160.00    -3800.00
03021             140.00    -4600.00
03022            -160.00    -4200.00
03023             160.00    -4800.00
03024             -60.00    -4600.00
03025               0.00    -5000.00
03026             160.00    -5200.00
03027            -140.00    -5000.00
03028            -200.00    -5800.00
03029            -160.00    -5400.00
03030              20.00    -6000.00
03031            -100.00    -6200.00
03032             -80.00    -6200.00
03033               0.00    -6600.00
03034            -100.00    -6400.00
03035             -20.00    -7000.00
03036             -20.00    -7000.00
03037             -20.00    -7000.00
03038            -100.00    -7600.00
03039             -80.00    -7200.00
03040             -20.00    -7800.00
03041            -100.00    -7800.00
03042            -100.00    -8200.00
03043             -20.00    -8200.00
03044             -20.00    -8400.00
03045            -100.00    -8600.00
03046             -60.00    -8600.00
03047             -20.00    -8800.00
03048             -60.00    -9000.00
03049             -80.00    -9200.00
03050             -60.00    -9200.00
03051            -100.00    -9400.00
03052            -100.00    -9400.00
03053             -20.00    -9400.00
03054             -60.00    -9800.00
03055             -80.00    -9800.00
03056             -60.00    -9800.00
03057             -60.00   -10000.00
03058             -80.00   -10200.00
03059             -60.00   -10200.00
03060             -60.00   -10200.00
03061             -80.00   -10400.00
03062             -80.00   -10600.00
03063             -80.00   -10600.00
03064             -80.00   -10600.00
03065             -60.00   -10800.00
03066             -20.00   -10800.00
03067             -60.00   -11000.00
03068             -80.00   -11000.00
03069             -80.00   -11000.00
03070             -80.00   -11000.00
03071             -80.00   -11000.00
03072             -60.00   -11200.00
03073             -20.00   -11400.00
03074             -40.00   -11400.00
03075            -100.00   -11400.00
03076             -80.00   -11400.00
03077             -60.00   -11400.00
03078             -60.00   -11400.00
03079             -60.00   -11600.00
03080             -60.00   -11400.00
03081             -80.00   -11600.00
03082             -80.00   -11600.00
03083             -60.00   -11600.00
03084             -80.00   -11600.00
03085             -60.00   -11400.00
03086             -60.00   -11600.00
03087             -40.00   -11600.00
03088             -60.00   -11600.00
03089             -60.00   -11600.00
03090             -60.00   -11600.00
03091             -60.00   -11400.00
03092             -60.00   -11400.00
03093             -20.00   -11400.00
03094             -20.00   -11400.00
03095             -60.00   -11400.00
03096             -60.00   -11400.00
03097             -60.00   -11200.00
03098             -60.00   -11200.00
03099             -20.00   -11200.00
03100             -60.00   -11000.00
03101             -20.00   -11000.00
03102             -60.00   -11000.00
03103             -60.00   -11000.00
03104             -40.00   -10800.00
03105             -40.00   -10800.00
03106             -20.00   -10600.00
03107             -20.00   -10600.00
03108             -20.00   -10600.00
03109             -20.00   -10400.00
03110             -40.00   -10200.00
03111             -20.00   -10200.00
03112             -20.00   -10000.00
03113             -20.00   -10000.00
03114             -20.00    -9800.00
03115             -20.00    -9600.00
03116             -20.00    -9400.00
03117             -20.00    -9400.00
03118             -20.00    -9400.00
03119               0.00    -9200.00
03120             -20.00    -9000.00
03121               0.00    -9000.00
03122             -20.00    -8600.00
03123             -20.00    -8600.00
03124               0.00    -8400.00
03125               0.00    -8400.00
03126               0.00    -8200.00
03127               0.00    -7800.00
03128               0.00    -7800.00
03129             -20.00    -7600.00
03130               0.00    -7400.00
03131               0.00    -7200.00
03132               0.00    -7200.00
03133               0.00    -7000.00
03134              20.00    -6800.00
03135               0.00    -6800.00
03136             -20.00    -6400.00
03137               0.00    -6200.00
03138               0.00    -6200.00
03139               0.00    -6000.00
03140              20.00    -5800.00
03141              20.00    -5600.00
03142               0.00    -5400.00
03143               0.00    -5200.00
03144               0.00    -5000.00
03145               0.00    -4600.00
03146              20.00    -4600.00
03147              20.00    -4400.00
03148               0.00    -4200.00
03149               0.00    -4000.00
03150               0.00    -3800.00
03151               0.00    -3800.00
03152              20.00    -3400.00
03153              20.00    -3400.00
03154              20.00    -3000.00
03155              20.00    -2800.00
03156              20.00    -2600.00
03157              20.00    -2200.00
03158              20.00    -2200.00
03159              20.00    -2000.00
03160              40.00    -1800.00
03161              20.00    -1600.00
03162              20.00    -1200.00
03163              20.00     -800.00
03164              40.00     -800.00
03165              60.00     -600.00
03166              60.00     -400.00
03167              40.00     -200.00
03168              40.00        0.00
03169              60.00      200.00
03170             100.00      400.00
03171             180.00      600.00
03172             200.00     1000.00
03173             180.00     1000.00
03174             140.00     1200.00
03175             140.00     1400.00
03176             160.00     1400.00
03177             500.00     1800.00
03178            1180.00     2200.00
03179             800.00     2400.00
03180            -400.00     2600.00
03181           -1060.00     2600.00
03182           -1140.00     2800.00
03183            -400.00     3400.00
03184             820.00     3400.00
03185             220.00     3200.00
03186             160.00     3800.00
03187             340.00     3600.00
03188            -180.00     4200.00
03189             200.00     4600.00
03190              20.00     4200.00
03191             140.00     5000.00
03192             460.00     5000.00
03193            -140.00     5000.00
03194               0.00     5800.00
03195              60.00     5400.00
03196              60.00     6000.00
03197             140.00     5800.00
03198              80.00     6000.00
03199             220.00     6400.00
03200             -20.00     6200.00
03201             140.00     6800.00
03202             140.00     6600.00
03203              80.00     7200.00
03204              80.00     7000.00
03205              80.00     7200.00
03206             140.00     7800.00
03207               0.00     7600.00
03208              60.00     8000.00
03209              80.00     8000.00
03210             160.00     8200.00
03211              80.00     8200.00
03212             100.00     8400.00
03213              80.00     8600.00
03214              20.00     8600.00
03215             120.00     9000.00
03216              80.00     9000.00
03217              80.00     9200.00
03218              20.00     9200.00
03219              80.00     9400.00
03220              80.00     9600.00
03221             100.00     9800.00
03222              80.00     9800.00
03223              60.00    10000.00
03224              60.00    10000.00
03225              60.00    10200.00
03226             100.00    10200.00
03227              60.00    10200.00
03228              80.00    10400.00
03229              40.00    10600.00
03230              60.00    10600.00
03231              80.00    10600.00
03232              80.00    10600.00
03233              80.00    10800.00
03234              60.00    10800.00
03235              60.00    11000.00
03236              60.00    11000.00
03237              60.00    11000.00
03238              60.00    11000.00
03239              80.00    11400.00
03240              80.00    11400.00
03241              60.00    11400.00
03242              60.00    11400.00
03243              40.00    11200.00
03244              60.00    11400.00
03245              80.00    11600.00
03246              80.00    11400.00
03247              60.00    11600.00
03248              60.00    11600.00
03249              60.00    11400.00
03250              60.00    11600.00
03251              60.00    11600.00
03252              60.00    11600.00
03253              60.00    11600.00
03254              80.00    11600.00
03255              60.00    11600.00
03256              60.00    11600.00
03257              60.00    11400.00
03258              60.00    11400.00
03259              60.00    11600.00
03260              60.00    11600.00
03261              60.00    11400.00
03262              60.00    11400.00
03263              60.00    11400.00
03264              40.00    11000.00
03265              40.00    11000.00
03266              60.00    11000.00
03267              60.00    11000.00
03268              60.00    11000.00
03269              20.00    11000.00
03270              20.00    10800.00
03271              20.00    10800.00
03272              60.00    10800.00
03273              60.00    10400.00
03274              20.00    10600.00
03275              20.00    10200.00
03276               0.00    10200.00
03277              20.00    10200.00
03278              20.00    10000.00
03279              20.00    10000.00
03280              20.00     9800.00
03281              20.00     9800.00
03282              20.00     9600.00
03283               0.00     9600.00
03284               0.00     9400.00
03285              20.00     9400.00
03286              20.00     9200.00
03287               0.00     8800.00
03288               0.00     9000.00
03289               0.00     8800.00
03290               0.00     8600.00
03291               0.00     8400.00
03292               0.00     8200.00
03293               0.00     8000.00
03294               0.00     7800.00
03295               0.00     7800.00
03296               0.00     7800.00
03297             -20.00     7400.00
03298               0.00     7400.00
03299               0.00     7000.00
03300             -20.00     7000.00
03301             -20.00     6800.00
03302               0.00     6800.00
03303             -20.00     6600.00
03304             -20.00     6400.00
03305             -20.00     6000.00
03306               0.00     6000.00
03307             -20.00     5800.00
03308             -20.00     5600.00
03309             -20.00     5400.00
03310             -20.00     5200.00
03311             -20.00     5000.00
03312             -20.00     4800.00
03313             -20.00     4600.00
03314             -20.00     4400.00
03315             -20.00     4200.00
03316             -60.00     3800.00
03317             -20.00     3800.00
03318             -20.00     3600.00
03319             -20.00     3400.00
03320             -20.00     3400.00
03321             -20.00     2800.00
03322             -40.00     2800.00
03323             -20.00     2600.00
03324             -20.00     2400.00
03325             -20.00     2200.00
03326             -20.00     2000.00
03327             -20.00     1800.00
03328             -20.00     1400.00
03329             -60.00     1400.00
03330             -60.00     1000.00
03331             -40.00     1000.00
03332             -40.00      600.00
03333             -60.00      400.00
03334             -40.00      400.00
03335             -20.00      200.00
03336             -20.00     -200.00
03337               0.00     -400.00
03338              80.00     -600.00
03339             100.00     -800.00
03340              60.00    -1000.00
03341               0.00    -1200.00
03342               0.00    -1400.00
03343               0.00    -1400.00
03344              80.00    -1800.00
03345             520.00    -1800.00
03346             940.00    -2400.00
03347             320.00    -2800.00
03348            -620.00    -2800.00
03349            -900.00    -3000.00
03350            -900.00    -3000.00
03351            -640.00    -3000.00
03352             320.00    -3600.00
03353             160.00    -4000.00
03354             -20.00    -3600.00
03355             260.00    -4600.00
03356            -160.00    -4200.00
03357              60.00    -4600.00
03358              80.00    -5000.00
03359            -120.00    -4600.00
03360             160.00    -5400.00
03361             -20.00    -5200.00
03362            -180.00    -5600.00
03363            -160.00    -5800.00
03364             -20.00    -5600.00
03365             -20.00    -6200.00
03366            -140.00    -6200.00
03367               0.00    -6600.00
03368             -80.00    -6600.00
03369            -100.00    -6800.00
03370               0.00    -7000.00
03371             -20.00    -6800.00
03372             -60.00    -7400.00
03373            -100.00    -7400.00
03374             -20.00    -7600.00
03375             -80.00    -7800.00
03376            -100.00    -8000.00
03377             -60.00    -8200.00
03378               0.00    -8200.00
03379             -80.00    -8400.00
03380             -80.00    -8600.00
03381             -20.00    -8600.00
03382             -60.00    -8800.00
03383             -80.00    -9000.00
03384             -60.00    -9000.00
03385             -80.00    -9200.00
03386            -100.00    -9400.00
03387             -60.00    -9400.00
03388             -20.00    -9600.00
03389             -80.00    -9800.00
03390             -80.00    -9800.00
03391             -60.00    -9800.00
03392            -100.00   -10000.00
03393             -80.00   -10200.00
03394             -60.00   -10000.00
03395             -60.00   -10400.00
03396             -80.00   -10400.00
03397             -80.00   -10600.00
03398             -80.00   -10600.00
03399             -80.00   -10800.00
03400             -40.00   -10800.00
03401             -40.00   -11000.00
03402             -60.00   -10800.00
03403             -80.00   -11000.00
03404             -80.00   -11000.00
03405             -60.00   -11200.00
03406             -80.00   -11400.00
03407             -20.00   -11200.00
03408             -20.00   -11400.00
03409             -80.00   -11400.00
03410             -80.00   -11400.00
03411             -80.00   -11400.00
03412             -80.00   -11400.00
03413             -60.00   -11400.00
03414             -60.00   -11400.00
03415             -60.00   -11600.00
03416             -80.00   -11400.00
03417             -80.00   -11600.00
03418             -60.00   -11600.00
03419             -60.00   -11600.00
03420             -60.00   -11600.00
03421             -60.00   -11600.00
03422             -60.00   -11600.00
03423             -60.00   -11400.00
03424             -60.00   -11400.00
03425             -60.00   -11400.00
03426             -60.00   -11400.00
03427             -60.00   -11400.00
03428             -20.00   -11400.00
03429             -40.00   -11400.00
03430             -60.00   -11400.00
03431             -60.00   -11400.00
03432             -60.00   -11200.00
03433             -60.00   -11200.00
03434             -20.00   -11200.00
03435             -20.00   -11000.00
03436             -60.00   -11000.00
03437             -60.00   -10800.00
03438             -60.00   -10800.00
03439             -20.00   -10800.00
03440             -20.00   -10600.00
03441             -20.00   -10600.00
03442             -20.00   -10400.00
03443             -40.00   -10600.00
03444             -20.00   -10200.00
03445             -20.00   -10200.00
03446             -20.00   -10200.00
03447             -20.00   -10000.00
03448               0.00    -9800.00
03449             -20.00    -9800.00
03450             -20.00    -9600.00
03451             -20.00    -9400.00
03452               0.00    -9400.00
03453             -20.00    -9200.00
03454               0.00    -9200.00
03455               0.00    -9000.00
03456             -20.00    -8800.00
03457             -20.00    -8600.00
03458             -20.00    -8600.00
03459             -20.00    -8400.00
03460               0.00    -8400.00
03461               0.00    -8200.00
03462               0.00    -7800.00
03463             -20.00    -7600.00
03464               0.00    -7600.00
03465               0.00    -7200.00
03466               0.00    -7200.00
03467               0.00    -7000.00
03468               0.00    -6800.00
03469               0.00    -6800.00
03470               0.00    -6600.00
03471               0.00    -6400.00
03472               0.00    -6200.00
03473               0.00    -6000.00
03474               0.00    -5800.00
03475               0.00    -5800.00
03476               0.00    -5600.00
03477               0.00    -5400.00
03478               0.00    -5000.00
03479               0.00    -5000.00
03480              20.00    -4600.00
03481              20.00    -4400.00
03482              20.00    -4400.00
03483               0.00    -4200.00
03484               0.00    -3800.00
03485               0.00    -3800.00
03486              20.00    -3400.00
03487              20.00    -3400.00
03488              20.00    -3000.00
03489              20.00    -3000.00
03490              20.00    -2800.00
03491              20.00    -2600.00
03492              20.00    -2200.00
03493              20.00    -2200.00
03494              40.00    -1800.00
03495              20.00    -1400.00
03496              60.00    -1400.00
03497              20.00    -1200.00
03498              20.00     -800.00
03499              60.00     -600.00
03500              60.00     -600.00
03501              60.00     -400.00
03502              60.00        0.00
03503              60.00      200.00
03504              80.00      400.00
03505             160.00      600.00
03506             200.00      600.00
03507             180.00      800.00
03508             160.00     1000.00
03509             140.00     1200.00
03510             140.00     1400.00
03511             300.00     2000.00
03512             960.00     2200.00
03513            1120.00     2200.00
03514             100.00     2400.00
03515            -900.00     2600.00
03516           -1120.00     2800.00
03517            -900.00     3200.00
03518             480.00     3400.00
03519             620.00     3200.00
03520               0.00     3600.00
03521             420.00     3800.00
03522             -20.00     3800.00
03523               0.00     4600.00
03524             220.00     4200.00
03525             -60.00     4600.00
03526             460.00     5000.00
03527              80.00     4600.00
03528            -100.00     5600.00
03529              80.00     5400.00
03530             -20.00     5800.00
03531             140.00     6000.00
03532              60.00     5800.00
03533             180.00     6600.00
03534              60.00     6000.00
03535              20.00     6600.00
03536             180.00     6800.00
03537              60.00     6800.00
03538             100.00     7200.00
03539              60.00     7000.00
03540             140.00     7400.00
03541              60.00     7400.00
03542              20.00     7800.00
03543              80.00     8200.00
03544             140.00     7800.00
03545             120.00     8200.00
03546              60.00     8200.00
03547             100.00     8600.00
03548               0.00     8600.00
03549             100.00     8800.00
03550              80.00     9000.00
03551             100.00     9000.00
03552              20.00     9200.00
03553              40.00     9200.00
03554             100.00     9400.00
03555              80.00     9400.00
03556             100.00     9800.00
03557              60.00     9800.00
03558              60.00     9800.00
03559              20.00    10000.00
03560             100.00    10200.00
03561             100.00    10400.00
03562              60.00    10200.00
03563              60.00    10400.00
03564              60.00    10600.00
03565              80.00    10600.00
03566             100.00    10600.00
03567              80.00    10600.00
03568              60.00    10800.00
03569              60.00    10800.00
03570              60.00    11000.00
03571              60.00    11000.00
03572              60.00    11000.00
03573              60.00    11200.00
03574             100.00    11400.00
03575              80.00    11000.00
03576              60.00    11400.00
03577              60.00    11400.00
03578              60.00    11400.00
03579              60.00    11400.00
03580              80.00    11600.00
03581              60.00    11600.00
03582              60.00    11400.00
03583              60.00    11600.00
03584              60.00    11600.00
03585              60.00    11600.00
03586              60.00    11600.00
03587              60.00    11600.00
03588              60.00    11600.00
03589              60.00    11600.00
03590              60.00    11600.00
03591              60.00    11400.00
03592              20.00    11400.00
03593              60.00    11200.00
03594              80.00    11400.00
03595              60.00    11400.00
03596              60.00    11200.00
03597              60.00    11400.00
03598              60.00    11200.00
03599              20.00    11200.00
03600              60.00    11000.00
03601              60.00    11000.00
03602              60.00    11000.00
03603              20.00    11000.00
03604              20.00    11000.00
03605              20.00    10800.00
03606               0.00    10600.00
03607              60.00    10600.00
03608              40.00    10600.00
03609              20.00    10600.00
03610               0.00    10200.00
03611              20.00    10400.00
03612              20.00    10200.00
03613              40.00    10200.00
03614              20.00    10000.00
03615              20.00     9800.00
03616               0.00     9800.00
03617               0.00     9800.00
03618               0.00     9400.00
03619               0.00     9400.00
03620               0.00     9200.00
03621              20.00     9000.00
03622               0.00     9000.00
03623               0.00     8600.00
03624               0.00     8600.00
03625               0.00     8600.00
03626               0.00     8400.00
03627               0.00     8200.00
03628               0.00     8000.00
03629               0.00     7800.00
03630             -20.00     7800.00
03631               0.00     7600.00
03632             -20.00     7400.00
03633               0.00     7200.00
03634               0.00     7000.00
03635               0.00     7000.00
03636               0.00     6600.00
03637             -20.00     6600.00
03638             -20.00     6200.00
03639               0.00     6200.00
03640               0.00     6000.00
03641               0.00     6000.00
03642             -20.00     5800.00
03643             -20.00     5600.00
03644             -20.00     5400.00
03645               0.00     5200.00
03646             -20.00     5000.00
03647             -20.00     4600.00
03648             -20.00     4600.00
03649             -20.00     4200.00
03650             -20.00     4200.00
03651             -20.00     3800.00
03652             -20.00     3600.00
03653             -20.00     3400.00
03654               0.00     3400.00
03655             -20.00     3200.00
03656             -40.00     2800.00
03657             -60.00     2600.00
03658             -20.00     2600.00
03659             -20.00     2200.00
03660             -20.00     2000.00
03661             -40.00     1800.00
03662             -20.00     1800.00
03663             -40.00     1400.00
03664             -20.00     1200.00
03665             -40.00     1000.00
03666             -40.00      600.00
03667             -20.00      600.00
03668             -40.00      200.00
03669             -40.00      200.00
03670             -40.00        0.00
03671             -20.00     -200.00
03672              60.00     -600.00
03673             100.00     -600.00
03674              80.00    -1000.00
03675              20.00    -1000.00
03676               0.00    -1200.00
03677               0.00    -1400.00
03678              20.00    -1600.00
03679             300.00    -2000.00
03680             860.00    -2200.00
03681             700.00    -2600.00
03682            -260.00    -2800.00
03683            -900.00    -3000.00
03684            -880.00    -3000.00
03685            -820.00    -2800.00
03686             -20.00    -3200.00
03687             400.00    -3800.00
03688             -80.00    -3600.00
03689             220.00    -4200.00
03690              20.00    -4400.00
03691            -120.00    -4200.00
03692             160.00    -5000.00
03693            -100.00    -4800.00
03694              80.00    -5200.00
03695             120.00    -5200.00
03696            -160.00    -5200.00
03697            -180.00    -6000.00
03698            -100.00    -5400.00
03699              40.00    -6000.00
03700            -140.00    -6200.00
03701             -20.00    -6200.00
03702               0.00    -6600.00
03703            -140.00    -6600.00
03704             -20.00    -7000.00
03705             -20.00    -6800.00
03706             -20.00    -7000.00
03707             -80.00    -7600.00
03708             -60.00    -7200.00
03709             -40.00    -7800.00
03710            -100.00    -7800.00
03711             -80.00    -8200.00
03712               0.00    -8200.00
03713             -40.00    -8200.00
03714            -100.00    -8600.00
03715             -60.00    -8600.00
03716             -20.00    -9000.00
03717             -80.00    -9000.00
03718             -60.00    -9200.00
03719             -80.00    -9000.00
03720            -100.00    -9400.00
03721            -100.00    -9400.00
03722             -20.00    -9400.00
03723             -60.00    -9600.00
03724             -80.00    -9800.00
03725             -60.00   -10000.00
03726             -80.00   -10000.00
03727            -100.00   -10200.00
03728             -60.00   -10200.00
03729             -20.00   -10200.00
03730             -80.00   -10600.00
03731            -100.00   -10600.00
03732             -80.00   -10600.00
03733             -80.00   -11000.00
03734             -80.00   -10800.00
03735             -20.00   -10800.00
03736             -60.00   -10800.00
03737             -80.00   -11000.00
03738             -80.00   -11000.00
03739             -80.00   -11000.00
03740             -80.00   -11200.00
03741             -60.00   -11200.00
03742             -60.00   -11400.00
03743             -60.00   -11400.00
03744             -80.00   -11400.00
03745             -80.00   -11400.00
03746             -80.00   -11400.00
03747             -80.00   -11600.00
03748             -60.00   -11400.00
03749             -40.00   -11400.00
03750             -60.00   -11400.00
03751             -80.00   -11600.00
03752             -60.00   -11600.00
03753             -80.00   -11800.00
03754             -60.00   -11600.00
03755             -20.00   -11400.00
03756             -60.00   -11600.00
03757             -60.00   -11400.00
03758             -80.00   -11600.00
03759             -60.00   -11600.00
03760             -60.00   -11600.00
03761             -60.00   -11400.00
03762             -20.00   -11400.00
03763             -20.00   -11400.00
03764             -60.00   -11400.00
03765             -60.00   -11200.00
03766             -40.00   -11200.00
03767             -60.00   -11200.00
03768             -40.00   -11000.00
03769             -20.00   -11000.00
03770             -20.00   -11000.00
03771             -60.00   -11000.00
03772             -60.00   -10800.00
03773             -20.00   -10800.00
03774             -20.00   -10600.00
03775               0.00   -10600.00
03776             -20.00   -10600.00
03777             -20.00   -10600.00
03778             -40.00   -10200.00
03779             -20.00   -10200.00
03780             -20.00   -10000.00
03781             -20.00   -10000.00
03782               0.00    -9800.00
03783             -20.00    -9800.00
03784             -20.00    -9600.00
03785             -20.00    -9600.00
03786             -20.00    -9400.00
03787             -20.00    -9200.00
03788               0.00    -9200.00
03789             -20.00    -9000.00
03790               0.00    -9000.00
03791             -20.00    -8600.00
03792             -20.00    -8400.00
03793               0.00    -8600.00
03794               0.00    -8400.00
03795               0.00    -8200.00
03796               0.00    -7800.00
03797               0.00    -7800.00
03798               0.00    -7600.00
03799               0.00    -7200.00
03800               0.00    -7200.00
03801               0.00    -7000.00
03802               0.00    -7000.00
03803               0.00    -6800.00
03804               0.00    -6800.00
03805             -20.00    -6600.00
03806               0.00    -6400.00
03807              20.00    -6200.00
03808               0.00    -6000.00
03809              20.00    -5800.00
03810               0.00    -5600.00
03811               0.00    -5400.00
03812               0.00    -5000.00
03813               0.00    -5000.00
03814               0.00    -4800.00
03815              20.00    -4600.00
03816               0.00    -4400.00
03817               0.00    -4200.00
03818               0.00    -4000.00
03819               0.00    -3800.00
03820              20.00    -3600.00
03821              20.00    -3400.00
03822              20.00    -3400.00
03823              20.00    -2800.00
03824              20.00    -2800.00
03825               0.00    -2600.00
03826              20.00    -2400.00
03827              40.00    -2200.00
03828              40.00    -1800.00
03829              60.00    -1800.00
03830              60.00    -1400.00
03831              20.00    -1200.00
03832              60.00    -1000.00
03833              40.00     -800.00
03834              60.00     -600.00
03835              60.00     -400.00
03836              60.00     -200.00
03837              60.00      200.00
03838              60.00      400.00
03839             140.00      400.00
03840             200.00      600.00
03841             220.00     1000.00
03842             160.00     1000.00
03843             160.00     1000.00
03844             140.00     1400.00
03845             180.00     1800.00
03846             640.00     2000.00
03847            1220.00     2200.00
03848             620.00     2600.00
03849            -580.00     2600.00
03850           -1120.00     2800.00
03851           -1120.00     2800.00
03852            -140.00     3400.00
03853             860.00     3400.00
03854              80.00     3400.00
03855             260.00     4000.00
03856             240.00     3600.00
03857            -160.00     4400.00
03858             240.00     4400.00
03859             -20.00     4200.00
03860             240.00     5200.00
03861             380.00     4600.00
03862            -160.00     5200.00
03863              60.00     5600.00
03864               0.00     5400.00
03865              80.00     6200.00
03866             100.00     5400.00
03867             100.00     6200.00
03868             160.00     6200.00
03869             -60.00     6200.00
03870             160.00     6800.00
03871              80.00     6600.00
03872              80.00     7000.00
03873              80.00     7000.00
03874             100.00     7400.00
03875             100.00     7600.00
03876               0.00     7600.00
03877              80.00     7800.00
03878             100.00     8000.00
03879             140.00     8200.00
03880              60.00     8200.00
03881             100.00     8400.00
03882              60.00     8600.00
03883              60.00     8600.00
03884             100.00     9000.00
03885              80.00     9000.00
03886              60.00     9200.00
03887              20.00     9200.00
03888             100.00     9400.00
03889              80.00     9600.00
03890             100.00     9800.00
03891              80.00     9800.00
03892              60.00     9800.00
03893              60.00    10000.00
03894              60.00    10200.00
03895             100.00    10200.00
03896              80.00    10200.00
03897              80.00    10400.00
03898              60.00    10600.00
03899              60.00    10600.00
03900              80.00    10600.00
03901             100.00    10800.00
03902              80.00    10800.00
03903              80.00    11000.00
03904              60.00    11000.00
03905              60.00    11000.00
03906              60.00    11200.00
03907              80.00    11000.00
03908              80.00    11400.00
03909              80.00    11200.00
03910              80.00    11400.00
03911              60.00    11400.00
03912              60.00    11400.00
03913              80.00    11400.00
03914              80.00    11600.00
03915              80.00    11400.00
03916              60.00    11600.00
03917              60.00    11600.00
03918              60.00    11600.00
03919              60.00    11600.00
03920              60.00    11600.00
03921              60.00    11600.00
03922              80.00    11600.00
03923              60.00    11600.00
03924              60.00    11600.00
03925              60.00    11400.00
03926              60.00    11400.00
03927              60.00    11400.00
03928              80.00    11400.00
03929              60.00    11400.00
03930              60.00    11200.00
03931              40.00    11200.00
03932              20.00    11000.00
03933              40.00    11000.00
03934              20.00    11000.00
03935              40.00    11000.00
03936              60.00    11000.00
03937              20.00    11000.00
03938              40.00    11000.00
03939              20.00    10800.00
03940              20.00    10600.00
03941              60.00    10600.00
03942              40.00    10600.00
03943              20.00    10600.00
03944              20.00    10400.00
03945              20.00    10200.00
03946               0.00    10200.00
03947              20.00    10000.00
03948              20.00    10000.00
03949              20.00    10000.00
03950              20.00     9800.00
03951               0.00     9600.00
03952               0.00     9600.00
03953               0.00     9400.00
03954              20.00     9200.00
03955               0.00     9200.00
03956              20.00     9000.00
03957               0.00     9000.00
03958               0.00     8600.00
03959               0.00     8600.00
03960               0.00     8400.00
03961              20.00     8200.00
03962               0.00     8200.00
03963               0.00     8000.00
03964               0.00     7800.00
03965               0.00     7600.00
03966               0.00     7400.00
03967               0.00     7400.00
03968               0.00     7000.00
03969               0.00     7000.00
03970               0.00     6800.00
03971             -20.00     6600.00
03972               0.00     6400.00
03973             -20.00     6200.00
03974               0.00     6200.00
03975               0.00     6000.00
03976             -20.00     5800.00
03977             -20.00     5600.00
03978             -20.00     5200.00
03979             -20.00     5200.00
03980             -20.00     5000.00
03981             -20.00     4800.00
03982             -20.00     4600.00
03983             -20.00     4200.00
03984             -20.00     4200.00
03985             -20.00     3800.00
03986             -20.00     3800.00
03987             -20.00     3400.00
03988             -20.00     3400.00
03989             -20.00     3200.00
03990             -20.00     3000.00
03991             -60.00     2800.00
03992             -20.00     2600.00
03993             -40.00     2200.00
03994             -20.00     2000.00
03995             -20.00     2000.00
03996             -20.00     1600.00
03997             -60.00     1400.00
03998             -60.00     1200.00
03999             -40.00     1000.00
04000             -60.00      600.00
04001             -40.00      600.00
04002             -20.00      400.00
04003             -20.00      200.00
04004             -20.00     -200.00
04005             -20.00     -200.00
04006               0.00     -400.00
04007             100.00     -600.00
04008             100.00    -1000.00
04009              60.00    -1200.00
04010              20.00    -1200.00
04011               0.00    -1400.00
04012               0.00    -1600.00
04013             140.00    -1800.00
04014             620.00    -2200.00
04015             920.00    -2600.00
04016             140.00    -2600.00
04017            -720.00    -2800.00
04018            -900.00    -3000.00
04019            -900.00    -3000.00
04020            -480.00    -3000.00
04021             420.00    -3800.00
04022              60.00    -3800.00
04023              60.00    -3800.00
04024             220.00    -4600.00
04025            -180.00    -4200.00
04026             140.00    -4600.00
04027              20.00    -4800.00
04028             -60.00    -5000.00
04029             160.00    -5400.00
04030             -60.00    -5000.00
04031            -220.00    -5800.00
04032            -160.00    -5600.00
04033               0.00    -5800.00
04034             -40.00    -6200.00
04035            -100.00    -6200.00
04036              20.00    -6600.00
04037            -100.00    -6600.00
04038             -60.00    -7000.00
04039               0.00    -7000.00
04040             -20.00    -7000.00
04041             -60.00    -7600.00
04042            -100.00    -7400.00
04043             -20.00    -7600.00
04044             -80.00    -7800.00
04045            -100.00    -8000.00
04046             -20.00    -8200.00
04047             -20.00    -8200.00
04048            -100.00    -8600.00
04049             -60.00    -8600.00
04050             -20.00    -8800.00
04051             -80.00    -9000.00
04052             -60.00    -9200.00
04053             -60.00    -9200.00
04054             -80.00    -9200.00
04055            -100.00    -9400.00
04056             -60.00    -9400.00
04057             -20.00    -9800.00
04058             -80.00    -9800.00
04059             -80.00    -9800.00
04060             -60.00   -10000.00
04061             -80.00   -10000.00
04062             -80.00   -10200.00
04063             -60.00   -10200.00
04064             -80.00   -10600.00
04065            -100.00   -10600.00
04066             -80.00   -10600.00
04067             -80.00   -10800.00
04068             -80.00   -10800.00
04069             -60.00   -10800.00
04070             -20.00   -10800.00
04071             -80.00   -11000.00
04072            -100.00   -11000.00
04073             -80.00   -11000.00
04074            -100.00   -11200.00
04075             -80.00   -11400.00
04076             -40.00   -11200.00
04077             -20.00   -11400.00
04078             -80.00   -11400.00
04079            -100.00   -11600.00
04080             -60.00   -11400.00
04081             -80.00   -11600.00
04082             -60.00   -11400.00
04083             -60.00   -11600.00
04084             -60.00   -11600.00
04085             -80.00   -11600.00
04086             -80.00   -11600.00
04087             -60.00   -11400.00
04088             -80.00   -11600.00
04089             -60.00   -11600.00
04090             -20.00   -11400.00
04091             -20.00   -11600.00
04092             -60.00   -11600.00
04093             -60.00   -11400.00
04094             -60.00   -11600.00
04095             -60.00   -11400.00
04096             -20.00   -11400.00
04097             -20.00   -11400.00
04098             -20.00   -11400.00
04099             -60.00   -11400.00
04100             -40.00   -11200.00
04101             -40.00   -11200.00
04102             -20.00   -11000.00
04103             -20.00   -11000.00
04104             -20.00   -11000.00
04105             -20.00   -11000.00
04106             -40.00   -10800.00
04107             -40.00   -10800.00
04108             -20.00   -10800.00
04109             -20.00   -10600.00
04110             -20.00   -10600.00
04111             -20.00   -10600.00
04112             -40.00   -10400.00
04113             -20.00   -10200.00
04114             -20.00   -10200.00
04115             -20.00   -10000.00
04116               0.00   -10000.00
04117               0.00    -9800.00
04118             -20.00    -9800.00
04119             -40.00    -9600.00
04120             -20.00    -9400.00
04121               0.00    -9400.00
04122             -20.00    -9200.00
04123               0.00    -9000.00
04124               0.00    -9000.00
04125             -20.00    -8800.00
04126             -20.00    -8600.00
04127             -20.00    -8600.00
04128             -20.00    -8400.00
04129               0.00    -8400.00
04130               0.00    -8200.00
04131               0.00    -7800.00
04132             -20.00    -7800.00
04133               0.00    -7400.00
04134             -20.00    -7400.00
04135               0.00    -7200.00
04136               0.00    -7000.00
04137               0.00    -6800.00
04138               0.00    -6800.00
04139             -20.00    -6600.00
04140               0.00    -6400.00
04141               0.00    -6200.00
04142               0.00    -6000.00
04143               0.00    -5800.00
04144               0.00    -5600.00
04145               0.00    -5400.00
04146               0.00    -5200.00
04147               0.00    -5000.00
04148               0.00    -5000.00
04149               0.00    -4600.00
04150               0.00    -4600.00
04151              20.00    -4400.00
04152               0.00    -4200.00
04153              20.00    -4000.00
04154              20.00    -3600.00
04155              20.00    -3400.00
04156              20.00    -3200.00
04157              40.00    -3000.00
04158              20.00    -2600.00
04159               0.00    -2600.00
04160              20.00    -2400.00
04161              20.00    -2200.00
04162              20.00    -2000.00
04163              60.00    -1800.00
04164              40.00    -1400.00
04165              60.00    -1400.00
04166              20.00    -1200.00
04167              60.00     -800.00
04168              20.00     -600.00
04169              60.00     -400.00
04170              60.00     -200.00
04171              60.00     -200.00
04172              60.00      200.00
04173              80.00      400.00
04174             160.00      600.00
04175             200.00      600.00
04176             200.00     1000.00
04177             140.00     1000.00
04178             140.00     1200.00
04179             140.00     1600.00
04180             340.00     1800.00
04181            1080.00     2000.00
04182            1020.00     2400.00
04183            -120.00     2200.00
04184            -980.00     2600.00
04185           -1140.00     2800.00
04186            -720.00     3200.00
04187             680.00     3400.00
04188             440.00     3200.00
04189              60.00     3600.00
04190             420.00     3600.00
04191            -100.00     4000.00
04192              80.00     4800.00
04193             140.00     4200.00
04194               0.00     4800.00
04195             480.00     5000.00
04196             -20.00     4800.00
04197             -80.00     5600.00
04198              80.00     5200.00
04199               0.00     6000.00
04200             140.00     5800.00
04201              60.00     5800.00
04202             220.00     6600.00
04203               0.00     6200.00
04204              60.00     6600.00
04205             160.00     6800.00
04206              60.00     6800.00
04207             100.00     7000.00
04208              60.00     7000.00
04209             140.00     7800.00
04210               0.00     7400.00
04211              60.00     7800.00
04212              80.00     7800.00
04213             140.00     8000.00
04214              80.00     8200.00
04215              80.00     8200.00
04216             100.00     8600.00
04217              20.00     8400.00
04218             100.00     8800.00
04219             100.00     9000.00
04220              80.00     9200.00
04221              40.00     9200.00
04222              80.00     9400.00
04223             100.00     9600.00
04224              80.00     9400.00
04225             100.00     9800.00
04226              60.00    10000.00
04227              60.00    10000.00
04228              60.00    10000.00
04229             100.00    10200.00
04230             100.00    10200.00
04231              60.00    10400.00
04232              60.00    10600.00
04233              80.00    10600.00
04234              80.00    10600.00
04235             100.00    10600.00
04236             100.00    10800.00
04237              80.00    11000.00
04238              60.00    11000.00
04239              60.00    11000.00
04240              60.00    11000.00
04241              60.00    11200.00
04242              80.00    11200.00
04243              80.00    11400.00
04244              80.00    11400.00
04245              60.00    11400.00
04246              60.00    11200.00
04247              60.00    11400.00
04248              80.00    11400.00
04249             100.00    11400.00
04250              60.00    11400.00
04251              60.00    11400.00
04252              60.00    11600.00
04253              60.00    11600.00
04254              60.00    11600.00
04255              60.00    11600.00
04256              60.00    11400.00
04257              60.00    11400.00
04258              60.00    11600.00
04259              60.00    11400.00
04260              20.00    11400.00
04261              40.00    11200.00
04262              60.00    11400.00
04263              60.00    11600.00
04264              60.00    11400.00
04265              20.00    11400.00
04266              60.00    11200.00
04267              40.00    11200.00
04268              60.00    11000.00
04269              60.00    11000.00
04270              40.00    11000.00
04271              60.00    11000.00
04272              40.00    10800.00
04273              20.00    10800.00
04274              20.00    10800.00
04275              20.00    10600.00
04276              60.00    10600.00
04277              20.00    10600.00
04278              20.00    10200.00
04279               0.00    10200.00
04280              20.00    10200.00
04281              20.00    10200.00
04282              20.00    10000.00
04283              20.00    10000.00
04284              20.00     9800.00
04285              20.00     9800.00
04286               0.00     9400.00
04287              20.00     9600.00
04288              20.00     9200.00
04289              20.00     9200.00
04290              20.00     9200.00
04291               0.00     9000.00
04292               0.00     8800.00
04293               0.00     8600.00
04294               0.00     8400.00
04295              20.00     8400.00
04296              20.00     8200.00
04297               0.00     8000.00
04298               0.00     8000.00
04299               0.00     7800.00
04300               0.00     7400.00
04301               0.00     7400.00
04302               0.00     7200.00
04303               0.00     7000.00
04304             -20.00     6800.00
04305               0.00     6800.00
04306               0.00     6600.00
04307             -20.00     6400.00
04308               0.00     6200.00
04309               0.00     6000.00
04310               0.00     5800.00
04311             -20.00     5600.00
04312             -20.00     5400.00
04313             -20.00     5400.00
04314             -20.00     5200.00
04315             -20.00     5000.00
04316             -20.00     4600.00
04317             -20.00     4400.00
04318             -20.00     4200.00
04319             -20.00     4200.00
04320             -20.00     3800.00
04321             -20.00     3600.00
04322             -20.00     3400.00
04323             -20.00     3400.00
04324             -20.00     3200.00
04325             -60.00     2800.00
04326             -60.00     2400.00
04327             -60.00     2400.00
04328             -20.00     2200.00
04329             -40.00     2000.00
04330             -60.00     1800.00
04331             -20.00     1400.00
04332             -40.00     1200.00
04333             -40.00     1000.00
04334             -60.00     1000.00
04335             -60.00      800.00
04336             -60.00      600.00
04337             -40.00      400.00
04338             -40.00      200.00
04339             -20.00     -200.00
04340             -20.00     -400.00
04341              80.00     -600.00
04342             100.00     -800.00
04343              60.00    -1000.00
04344              20.00    -1200.00
04345               0.00    -1200.00
04346              20.00    -1400.00
04347              60.00    -1800.00
04348             380.00    -2000.00
04349             920.00    -2200.00
04350             540.00    -2600.00
04351            -420.00    -2800.00
04352            -900.00    -3000.00
04353            -880.00    -2800.00
04354            -780.00    -3000.00
04355             140.00    -3400.00
04356             320.00    -3800.00
04357             -80.00    -3600.00
04358             260.00    -4200.00
04359             -60.00    -4200.00
04360             -20.00    -4200.00
04361             160.00    -5000.00
04362            -100.00    -4600.00
04363             120.00    -5200.00
04364              80.00    -5200.00
04365            -160.00    -5400.00
04366            -180.00    -5800.00
04367             -80.00    -5400.00
04368              20.00    -6000.00
04369            -140.00    -6200.00
04370               0.00    -6200.00
04371             -20.00    -6600.00
04372            -100.00    -6600.00
04373               0.00    -7000.00
04374             -20.00    -6800.00
04375             -40.00    -7200.00
04376             -80.00    -7600.00
04377             -20.00    -7400.00
04378             -40.00    -7800.00
04379            -100.00    -7800.00
04380             -60.00    -8200.00
04381               0.00    -8200.00
04382             -60.00    -8400.00
04383            -100.00    -8600.00
04384             -40.00    -8600.00
04385             -20.00    -9000.00
04386             -80.00    -9200.00
04387             -60.00    -9000.00
04388             -80.00    -9200.00
04389            -100.00    -9400.00
04390             -80.00    -9400.00
04391             -20.00    -9800.00
04392             -80.00    -9800.00
04393             -80.00    -9800.00
04394             -60.00   -10000.00
04395             -80.00   -10000.00
04396            -100.00   -10200.00
04397             -60.00   -10200.00
04398             -60.00   -10400.00
04399             -80.00   -10600.00
04400            -100.00   -10600.00
04401             -80.00   -10600.00
04402             -80.00   -10800.00
04403             -60.00   -10800.00
04404             -20.00   -11000.00
04405             -60.00   -11000.00
04406             -80.00   -11200.00
04407             -80.00   -11200.00
04408             -80.00   -11400.00
04409             -80.00   -11200.00
04410             -60.00   -11200.00
04411             -60.00   -11400.00
04412             -60.00   -11200.00
04413             -80.00   -11400.00
04414             -80.00   -11400.00
04415             -60.00   -11400.00
04416             -60.00   -11400.00
04417             -40.00   -11400.00
04418             -60.00   -11400.00
04419             -80.00   -11400.00
04420             -80.00   -11600.00
04421             -80.00   -11600.00
04422             -80.00   -11600.00
04423             -80.00   -11600.00
04424             -20.00   -11600.00
04425             -20.00   -11400.00
04426             -60.00   -11600.00
04427             -60.00   -11400.00
04428             -60.00   -11600.00
04429             -60.00   -11600.00
04430             -20.00   -11600.00
04431             -20.00   -11400.00
04432             -20.00   -11400.00
04433             -60.00   -11200.00
04434             -40.00   -11400.00
04435             -40.00   -11400.00
04436             -20.00   -11000.00
04437             -20.00   -11000.00
04438             -20.00   -11000.00
04439             -20.00   -11000.00
04440             -60.00   -10800.00
04441             -60.00   -10800.00
04442             -20.00   -10800.00
04443             -40.00   -10600.00
04444             -20.00   -10600.00
04445             -20.00   -10600.00
04446             -20.00   -10600.00
04447             -20.00   -10600.00
04448             -20.00   -10200.00
04449             -20.00   -10000.00
04450             -20.00   -10000.00
04451               0.00   -10000.00
04452               0.00    -9800.00
04453             -20.00    -9600.00
04454             -20.00    -9600.00
04455             -20.00    -9200.00
04456             -20.00    -9400.00
04457               0.00    -9200.00
04458               0.00    -9000.00
04459             -20.00    -9000.00
04460             -20.00    -8800.00
04461             -20.00    -8600.00
04462               0.00    -8200.00
04463               0.00    -8200.00
04464               0.00    -8200.00
04465               0.00    -7800.00
04466             -20.00    -7800.00
04467             -20.00    -7600.00
04468             -20.00    -7200.00
04469               0.00    -7400.00
04470               0.00    -7200.00
04471               0.00    -7000.00
04472               0.00    -6800.00
04473             -20.00    -6600.00
04474               0.00    -6600.00
04475               0.00    -6200.00
04476               0.00    -6200.00
04477               0.00    -6000.00
04478               0.00    -5800.00
04479               0.00    -5400.00
04480               0.00    -5400.00
04481               0.00    -5200.00
04482              20.00    -5000.00
04483              20.00    -4800.00
04484              20.00    -4600.00
04485              20.00    -4400.00
04486               0.00    -4200.00
04487              20.00    -4000.00
04488              20.00    -3800.00
04489              20.00    -3400.00
04490              20.00    -3200.00
04491              20.00    -3200.00
04492              20.00    -2800.00
04493               0.00    -2600.00
04494              20.00    -2600.00
04495              20.00    -2200.00
04496              20.00    -2200.00
04497              60.00    -2000.00
04498              20.00    -1800.00
04499              60.00    -1400.00
04500              20.00    -1200.00
04501              40.00    -1000.00
04502              40.00     -800.00
04503              60.00     -600.00
04504              60.00     -400.00
04505              60.00     -200.00
04506              60.00      200.00
04507              80.00      400.00
04508             140.00      400.00
04509             180.00      600.00
04510             200.00     1000.00
04511             160.00     1000.00
04512             140.00     1200.00
04513             140.00     1400.00
04514             220.00     1600.00
04515             780.00     2000.00
04516            1200.00     2200.00
04517             400.00     2400.00
04518            -780.00     2600.00
04519           -1120.00     2600.00
04520           -1060.00     3000.00
04521             140.00     3400.00
04522             780.00     3400.00
04523               0.00     3400.00
04524             340.00     3800.00
04525             140.00     3600.00
04526            -140.00     4600.00
04527             260.00     4400.00
04528             -60.00     4200.00
04529             340.00     5200.00
04530             240.00     4600.00
04531            -180.00     5400.00
04532              80.00     5400.00
04533               0.00     5600.00
04534             140.00     6000.00
04535              80.00     5600.00
04536             140.00     6400.00
04537             120.00     6200.00
04538             -40.00     6200.00
04539             180.00     6800.00
04540              60.00     6600.00
04541             100.00     7400.00
04542              60.00     7000.00
04543             140.00     7400.00
04544              80.00     7600.00
04545              20.00     7600.00
04546             100.00     8200.00
04547             140.00     7800.00
04548             140.00     8400.00
04549              60.00     8200.00
04550             140.00     8400.00
04551              40.00     8600.00
04552              60.00     8600.00
04553             100.00     9000.00
04554              80.00     9000.00
04555              80.00     9200.00
04556              20.00     9400.00
04557             100.00     9400.00
04558              80.00     9600.00
04559             140.00     9600.00
04560              80.00    10000.00
04561              60.00     9800.00
04562              40.00    10200.00
04563             100.00    10000.00
04564             100.00    10200.00
04565              80.00    10200.00
04566              60.00    10600.00
04567              60.00    10600.00
04568              80.00    10800.00
04569              80.00    10600.00
04570             100.00    10800.00
04571              80.00    10800.00
04572              60.00    10800.00
04573              60.00    11000.00
04574              60.00    11000.00
04575              60.00    11000.00
04576              80.00    11000.00
04577              80.00    11200.00
04578              80.00    11200.00
04579              80.00    11400.00
04580              60.00    11400.00
04581              60.00    11400.00
04582              80.00    11600.00
04583              80.00    11400.00
04584              80.00    11400.00
04585              60.00    11600.00
04586              60.00    11600.00
04587              40.00    11400.00
04588              20.00    11600.00
04589              60.00    11400.00
04590              60.00    11600.00
04591              60.00    11400.00
04592              60.00    11600.00
04593              40.00    11600.00
04594              40.00    11400.00
04595              20.00    11400.00
04596              60.00    11400.00
04597              60.00    11400.00
04598              60.00    11400.00
04599              40.00    11200.00
04600              40.00    11200.00
04601              40.00    11200.00
04602              20.00    11000.00
04603              60.00    11000.00
04604              60.00    11000.00
04605              40.00    11000.00
04606              20.00    10800.00
04607              20.00    11000.00
04608              20.00    10800.00
04609              20.00    10600.00
04610              60.00    10600.00
04611              40.00    10600.00
04612              20.00    10600.00
04613               0.00    10400.00
04614              20.00    10200.00
04615              20.00    10200.00
04616              20.00    10000.00
04617              20.00    10000.00
04618              20.00     9800.00
04619              20.00     9800.00
04620              20.00     9800.00
04621               0.00     9400.00
04622              20.00     9400.00
04623              20.00     9200.00
04624              20.00     9000.00
04625               0.00     9000.00
04626               0.00     8800.00
04627               0.00     8600.00
04628               0.00     8600.00
04629              20.00     8200.00
04630               0.00     8200.00
04631               0.00     8200.00
04632               0.00     7800.00
04633               0.00     7800.00
04634               0.00     7600.00
04635               0.00     7400.00
04636               0.00     7200.00
04637               0.00     7000.00
04638               0.00     6800.00
04639               0.00     6800.00
04640             -20.00     6600.00
04641             -20.00     6400.00
04642             -20.00     6200.00
04643               0.00     6200.00
04644               0.00     5800.00
04645             -20.00     5800.00
04646             -20.00     5400.00
04647             -20.00     5200.00
04648             -20.00     5200.00
04649             -20.00     4800.00
04650             -20.00     4600.00
04651             -20.00     4400.00
04652             -20.00     4200.00
04653             -20.00     4200.00
04654             -20.00     4000.00
04655             -40.00     3800.00
04656             -20.00     3600.00
04657             -20.00     3400.00
04658             -60.00     3200.00
04659             -60.00     3000.00
04660             -60.00     2800.00
04661             -60.00     2600.00
04662             -60.00     2400.00
04663             -60.00     2000.00
04664             -40.00     1800.00
04665             -20.00     1600.00
04666             -60.00     1400.00
04667             -60.00     1000.00
04668             -20.00     1000.00
04669             -60.00      600.00
04670             -60.00      600.00
04671             -40.00      400.00
04672             -60.00      200.00
04673             -60.00        0.00
04674             -20.00     -200.00
04675              20.00     -600.00
04676             100.00     -600.00
04677              80.00     -600.00
04678              40.00    -1000.00
04679               0.00    -1200.00
04680               0.00    -1400.00
04681              20.00    -1800.00
04682             220.00    -1800.00
04683             740.00    -2200.00
04684             820.00    -2600.00
04685             -20.00    -2800.00
04686            -800.00    -3000.00
04687            -880.00    -3000.00
04688            -880.00    -3000.00
04689            -300.00    -3200.00
04690             420.00    -3800.00
04691             -20.00    -3600.00
04692             160.00    -3800.00
04693             160.00    -4400.00
04694            -160.00    -4200.00
04695             180.00    -4600.00
04696             -20.00    -4600.00
04697               0.00    -5000.00
04698             160.00    -5400.00
04699            -100.00    -5000.00
04700            -180.00    -5800.00
04701            -140.00    -5600.00
04702              20.00    -5800.00
04703             -80.00    -6400.00
04704            -100.00    -6200.00
04705              20.00    -6600.00
04706            -100.00    -6600.00
04707             -20.00    -7000.00
04708             -20.00    -7000.00
04709             -20.00    -7000.00
04710             -80.00    -7600.00
04711             -80.00    -7200.00
04712             -20.00    -7600.00
04713            -100.00    -7800.00
04714            -100.00    -8200.00
04715             -20.00    -8200.00
04716             -20.00    -8200.00
04717            -100.00    -8600.00
04718             -60.00    -8600.00
04719             -20.00    -8800.00
04720            -100.00    -9000.00
04721             -80.00    -9200.00
04722             -80.00    -9200.00
04723             -80.00    -9200.00
04724            -100.00    -9400.00
04725             -20.00    -9400.00
04726             -80.00    -9800.00
04727            -100.00    -9800.00
04728             -60.00   -10000.00
04729             -60.00   -10000.00
04730             -80.00   -10200.00
04731             -80.00   -10200.00
04732             -60.00   -10200.00
04733             -80.00   -10600.00
04734             -80.00   -10600.00
04735             -80.00   -10600.00
04736             -80.00   -10800.00
04737             -80.00   -10800.00
04738             -60.00   -11000.00
04739             -60.00   -10800.00
04740            -100.00   -11000.00
04741             -80.00   -11200.00
04742             -80.00   -11000.00
04743             -40.00   -11400.00
04744             -60.00   -11400.00
04745             -20.00   -11400.00
04746             -60.00   -11400.00
04747             -80.00   -11400.00
04748             -80.00   -11400.00
04749             -60.00   -11400.00
04750             -80.00   -11600.00
04751             -60.00   -11400.00
04752             -60.00   -11600.00
04753             -80.00   -11400.00
04754             -80.00   -11600.00
04755             -60.00   -11600.00
04756             -60.00   -11600.00
04757             -80.00   -11400.00
04758             -40.00   -11600.00
04759             -20.00   -11400.00
04760             -20.00   -11400.00
04761             -80.00   -11600.00
04762             -60.00   -11600.00
04763             -20.00   -11400.00
04764             -60.00   -11400.00
04765             -20.00   -11400.00
04766             -20.00   -11400.00
04767             -40.00   -11400.00
04768             -60.00   -11400.00
04769             -60.00   -11000.00
04770             -20.00   -11200.00
04771             -20.00   -11000.00
04772             -20.00   -11000.00
04773             -20.00   -11000.00
04774             -40.00   -11000.00
04775             -60.00   -10800.00
04776             -20.00   -10800.00
04777             -20.00   -10800.00
04778             -20.00   -10600.00
04779             -20.00   -10800.00
04780             -20.00   -10400.00
04781             -20.00   -10600.00
04782             -20.00   -10200.00
04783             -20.00   -10200.00
04784             -20.00   -10000.00
04785             -20.00    -9800.00
04786             -20.00    -9800.00
04787             -20.00    -9800.00
04788             -20.00    -9400.00
04789             -20.00    -9400.00
04790             -20.00    -9400.00
04791               0.00    -9200.00
04792             -20.00    -9200.00
04793               0.00    -9000.00
04794             -20.00    -8800.00
04795             -20.00    -8600.00
04796             -20.00    -8600.00
04797               0.00    -8400.00
04798               0.00    -8400.00
04799               0.00    -8200.00
04800               0.00    -7800.00
04801             -20.00    -7800.00
04802               0.00    -7600.00
04803               0.00    -7200.00
04804               0.00    -7200.00
04805               0.00    -7000.00
04806               0.00    -6800.00
04807               0.00    -6600.00
04808               0.00    -6600.00
04809               0.00    -6400.00
04810               0.00    -6200.00
04811              20.00    -6000.00
04812               0.00    -5800.00
04813               0.00    -5600.00
04814               0.00    -5400.00
04815               0.00    -5200.00
04816               0.00    -5000.00
04817               0.00    -5000.00
04818               0.00    -4600.00
04819              20.00    -4400.00
04820               0.00    -4200.00
04821               0.00    -4000.00
04822              20.00    -3800.00
04823              20.00    -3600.00
04824              40.00    -3400.00
04825              40.00    -3200.00
04826              20.00    -3000.00
04827              20.00    -2800.00
04828              20.00    -2600.00
04829              20.00    -2400.00
04830              60.00    -2200.00
04831              60.00    -2000.00
04832              20.00    -1800.00
04833              20.00    -1400.00
04834              40.00    -1400.00
04835              20.00    -1000.00
04836              20.00     -800.00
04837              20.00     -600.00
04838              60.00     -600.00
04839              60.00     -200.00
04840              80.00        0.00
04841             100.00      200.00
04842             140.00      200.00
04843             220.00      600.00
04844             180.00      600.00
04845             140.00     1000.00
04846              80.00     1000.00
04847              60.00     1400.00
04848             100.00     1400.00
04849             420.00     1800.00
04850            1160.00     2200.00
04851             900.00     2200.00
04852            -260.00     2400.00
04853           -1000.00     2400.00
04854           -1140.00     2800.00
04855            -500.00     3200.00
04856             740.00     3400.00
04857             220.00     3200.00
04858              80.00     3800.00
04859             340.00     3800.00
04860            -160.00     4200.00
04861             220.00     4600.00
04862             100.00     4200.00
04863             140.00     4800.00
04864             480.00     4800.00
04865            -140.00     5000.00
04866             -20.00     5600.00
04867               0.00     5200.00
04868               0.00     6000.00
04869             100.00     5800.00
04870              60.00     6000.00
04871             220.00     6400.00
04872               0.00     6000.00
04873             140.00     6800.00
04874             160.00     6600.00
04875              60.00     7000.00
04876              80.00     7200.00
04877              40.00     7200.00
04878             100.00     7600.00
04879             -20.00     7400.00
04880              80.00     7800.00
04881             140.00     7800.00
04882             180.00     7800.00
04883             140.00     8200.00
04884             100.00     8600.00
04885             100.00     8600.00
04886              20.00     8600.00
04887             100.00     8800.00
04888              60.00     9000.00
04889              80.00     9200.00
04890              20.00     9200.00
04891             120.00     9400.00
04892             120.00     9800.00
04893             140.00     9600.00
04894             100.00     9800.00
04895              60.00     9800.00
04896              20.00    10000.00
04897              60.00    10200.00
04898             100.00    10200.00
04899              80.00    10200.00
04900              80.00    10200.00
04901              80.00    10600.00
04902              80.00    10600.00
04903             100.00    10600.00
04904             100.00    10600.00
04905              80.00    10800.00
04906              60.00    10800.00
04907              60.00    10800.00
04908              60.00    11000.00
04909              60.00    11200.00
04910              60.00    11000.00
04911              80.00    11200.00
04912              80.00    11400.00
04913              60.00    11000.00
04914              60.00    11400.00
04915              60.00    11200.00
04916              60.00    11400.00
04917              80.00    11400.00
04918              60.00    11400.00
04919              60.00    11600.00
04920              40.00    11400.00
04921              60.00    11400.00
04922              60.00    11600.00
04923              60.00    11600.00
04924              60.00    11400.00
04925              60.00    11400.00
04926              60.00    11600.00
04927              60.00    11400.00
04928              20.00    11600.00
04929              60.00    11400.00
04930              40.00    11400.00
04931              80.00    11400.00
04932              60.00    11400.00
04933              60.00    11200.00
04934              60.00    11400.00
04935              60.00    11400.00
04936              60.00    11200.00
04937              40.00    11000.00
04938              60.00    11000.00
04939              60.00    11000.00
04940              40.00    11000.00
04941              20.00    11000.00
04942              20.00    10800.00
04943              20.00    10600.00
04944              40.00    10800.00
04945              60.00    10600.00
04946              60.00    10400.00
04947              20.00    10400.00
04948              20.00    10200.00
04949              20.00    10000.00
04950              20.00    10200.00
04951              20.00    10000.00
04952              20.00     9800.00
04953              20.00     9800.00
04954               0.00     9800.00
04955              20.00     9400.00
04956               0.00     9400.00
04957              20.00     9400.00
04958              40.00     9400.00
04959              20.00     9000.00
04960              20.00     9000.00
04961               0.00     8800.00
04962               0.00     8600.00
04963               0.00     8600.00
04964              20.00     8200.00
04965               0.00     8200.00
04966              20.00     7800.00
04967               0.00     7800.00
04968               0.00     7800.00
04969               0.00     7600.00
04970               0.00     7400.00
04971               0.00     7000.00
04972               0.00     7000.00
04973               0.00     6800.00
04974             -20.00     6600.00
04975             -20.00     6600.00
04976             -20.00     6200.00
04977             -20.00     6200.00
04978             -20.00     6000.00
04979               0.00     5800.00
04980             -20.00     5600.00
04981             -20.00     5400.00
04982             -40.00     5200.00
04983             -20.00     5000.00
04984             -20.00     4600.00
04985             -20.00     4600.00
04986             -20.00     4400.00
04987             -20.00     4200.00
04988             -40.00     4000.00
04989             -20.00     3800.00
04990             -60.00     3600.00
04991             -20.00     3400.00
04992             -20.00     3000.00
04993             -60.00     3000.00
04994             -60.00     2800.00
04995             -60.00     2600.00
04996             -60.00     2200.00
04997             -20.00     2200.00
04998             -20.00     2000.00
04999             -60.00     1800.00
05000             -20.00     1400.00
