Unit:(mV)
                     CH1         CH2
Frequency              ? 298.985 kHz
00001             140.00    -1400.00
00002             540.00    -1800.00
00003             820.00    -2200.00
00004             220.00    -2400.00
00005            -560.00    -2600.00
00006            -800.00    -2600.00
00007            -800.00    -2600.00
00008             100.00    -2600.00
00009             560.00    -3400.00
00010            -260.00    -3000.00
00011             100.00    -3400.00
00012             320.00    -3600.00
00013            -140.00    -3400.00
00014             240.00    -4200.00
00015              20.00    -4200.00
00016              60.00    -4200.00
00017             380.00    -4600.00
00018             -20.00    -4400.00
00019            -100.00    -4800.00
00020              60.00    -4600.00
00021             140.00    -4800.00
00022             100.00    -5400.00
00023             100.00    -5200.00
00024             140.00    -5400.00
00025               0.00    -5400.00
00026             160.00    -5800.00
00027             240.00    -6000.00
00028              60.00    -6000.00
00029             140.00    -6200.00
00030             180.00    -6200.00
00031             160.00    -6400.00
00032             100.00    -6800.00
00033             140.00    -6800.00
00034             220.00    -7000.00
00035             180.00    -7000.00
00036             160.00    -7200.00
00037             180.00    -7200.00
00038             220.00    -7400.00
00039             220.00    -7600.00
00040             220.00    -7600.00
00041             240.00    -7800.00
00042             200.00    -7800.00
00043             240.00    -8000.00
00044             280.00    -8000.00
00045             260.00    -8200.00
00046             260.00    -8400.00
00047             300.00    -8400.00
00048             300.00    -8400.00
00049             300.00    -8600.00
00050             320.00    -8600.00
00051             360.00    -8800.00
00052             360.00    -9000.00
00053             360.00    -9000.00
00054             380.00    -9000.00
00055             380.00    -9000.00
00056             420.00    -9200.00
00057             460.00    -9400.00
00058             480.00    -9200.00
00059             480.00    -9200.00
00060             500.00    -9400.00
00061             500.00    -9400.00
00062             540.00    -9400.00
00063             560.00    -9400.00
00064             620.00    -9600.00
00065             620.00    -9600.00
00066             640.00    -9600.00
00067             680.00    -9600.00
00068             700.00    -9600.00
00069             740.00    -9600.00
00070             800.00    -9600.00
00071             820.00    -9800.00
00072             860.00    -9800.00
00073             900.00    -9800.00
00074             940.00    -9800.00
00075             980.00    -9600.00
00076            1040.00    -9800.00
00077            1100.00    -9800.00
00078            1160.00    -9800.00
00079            1200.00    -9800.00
00080            1260.00    -9800.00
00081            1280.00    -9800.00
00082            1360.00    -9800.00
00083            1420.00    -9800.00
00084            1500.00    -9800.00
00085            1500.00    -9600.00
00086            1520.00    -9600.00
00087            1540.00    -9400.00
00088            1580.00    -9400.00
00089            1580.00    -9400.00
00090            1600.00    -9400.00
00091            1600.00    -9200.00
00092            1580.00    -9400.00
00093            1580.00    -9200.00
00094            1540.00    -9200.00
00095            1520.00    -9000.00
00096            1500.00    -9000.00
00097            1460.00    -9000.00
00098            1440.00    -8800.00
00099            1360.00    -9000.00
00100            1300.00    -9000.00
00101            1280.00    -8600.00
00102            1220.00    -8600.00
00103            1180.00    -8400.00
00104            1120.00    -8400.00
00105            1060.00    -8400.00
00106            1020.00    -8200.00
00107             960.00    -8200.00
00108             900.00    -8000.00
00109             860.00    -7800.00
00110             820.00    -7800.00
00111             780.00    -7800.00
00112             740.00    -7600.00
00113             700.00    -7400.00
00114             640.00    -7200.00
00115             620.00    -7200.00
00116             580.00    -7000.00
00117             560.00    -7000.00
00118             540.00    -7000.00
00119             500.00    -6800.00
00120             480.00    -6600.00
00121             420.00    -6400.00
00122             420.00    -6200.00
00123             400.00    -6200.00
00124             380.00    -6000.00
00125             360.00    -5800.00
00126             340.00    -5600.00
00127             320.00    -5600.00
00128             300.00    -5400.00
00129             300.00    -5200.00
00130             300.00    -5000.00
00131             260.00    -4800.00
00132             260.00    -5000.00
00133             240.00    -4600.00
00134             240.00    -4400.00
00135             220.00    -4200.00
00136             220.00    -4000.00
00137             220.00    -4000.00
00138             180.00    -3800.00
00139             180.00    -3600.00
00140             160.00    -3400.00
00141             160.00    -3200.00
00142             160.00    -3000.00
00143             160.00    -3000.00
00144             160.00    -2800.00
00145             140.00    -2600.00
00146             140.00    -2400.00
00147             120.00    -2200.00
00148             140.00    -2000.00
00149             140.00    -1800.00
00150             100.00    -1800.00
00151             100.00    -1400.00
00152             100.00    -1200.00
00153             100.00    -1200.00
00154              80.00     -800.00
00155             100.00     -600.00
00156             100.00     -600.00
00157              80.00     -200.00
00158              80.00     -200.00
00159              80.00        0.00
00160              80.00        0.00
00161              80.00      400.00
00162             160.00      600.00
00163             160.00      600.00
00164             160.00     1000.00
00165             140.00     1000.00
00166             120.00     1200.00
00167             100.00     1400.00
00168             260.00     1400.00
00169             860.00     1800.00
00170             880.00     2000.00
00171             -80.00     2200.00
00172            -940.00     2000.00
00173           -1220.00     2200.00
00174            -320.00     2800.00
00175             960.00     2800.00
00176            -100.00     2800.00
00177            -260.00     3200.00
00178             460.00     3000.00
00179            -220.00     3800.00
00180            -100.00     4000.00
00181              80.00     3200.00
00182             -80.00     4400.00
00183             400.00     4200.00
00184            -220.00     3800.00
00185            -260.00     5000.00
00186             140.00     4600.00
00187            -240.00     4800.00
00188               0.00     5000.00
00189               0.00     4800.00
00190             -40.00     5800.00
00191            -140.00     5200.00
00192            -140.00     5600.00
00193              80.00     6000.00
00194            -220.00     5600.00
00195            -100.00     6200.00
00196             -20.00     6000.00
00197            -160.00     6600.00
00198            -140.00     6200.00
00199            -220.00     6600.00
00200             -80.00     7000.00
00201            -140.00     6600.00
00202            -140.00     7000.00
00203            -160.00     7000.00
00204            -180.00     7400.00
00205            -180.00     7400.00
00206            -180.00     7400.00
00207            -160.00     7600.00
00208            -240.00     7600.00
00209            -220.00     8200.00
00210            -260.00     7800.00
00211            -240.00     8000.00
00212            -240.00     8200.00
00213            -240.00     8200.00
00214            -280.00     8400.00
00215            -320.00     8200.00
00216            -300.00     8600.00
00217            -320.00     8600.00
00218            -300.00     8600.00
00219            -340.00     8600.00
00220            -380.00     9000.00
00221            -420.00     9000.00
00222            -380.00     9200.00
00223            -380.00     9000.00
00224            -420.00     9200.00
00225            -460.00     9200.00
00226            -480.00     9200.00
00227            -500.00     9200.00
00228            -540.00     9400.00
00229            -540.00     9400.00
00230            -560.00     9400.00
00231            -560.00     9400.00
00232            -600.00     9600.00
00233            -640.00     9600.00
00234            -700.00     9800.00
00235            -720.00     9800.00
00236            -720.00     9600.00
00237            -740.00     9600.00
00238            -820.00     9800.00
00239            -860.00     9800.00
00240            -900.00     9800.00
00241            -940.00     9800.00
00242            -980.00     9800.00
00243           -1020.00     9800.00
00244           -1060.00     9800.00
00245           -1120.00     9600.00
00246           -1180.00     9800.00
00247           -1260.00     9600.00
00248           -1300.00     9800.00
00249           -1360.00     9800.00
00250           -1380.00     9800.00
00251           -1420.00     9800.00
00252           -1480.00     9600.00
00253           -1520.00     9600.00
00254           -1540.00     9400.00
00255           -1580.00     9400.00
00256           -1600.00     9400.00
00257           -1600.00     9400.00
00258           -1600.00     9400.00
00259           -1600.00     9200.00
00260           -1560.00     9200.00
00261           -1560.00     9200.00
00262           -1540.00     9200.00
00263           -1500.00     9000.00
00264           -1440.00     9000.00
00265           -1420.00     9000.00
00266           -1380.00     8800.00
00267           -1340.00     8600.00
00268           -1280.00     8600.00
00269           -1220.00     8600.00
00270           -1180.00     8400.00
00271           -1120.00     8400.00
00272           -1100.00     8400.00
00273           -1040.00     8200.00
00274            -980.00     8200.00
00275            -940.00     8000.00
00276            -880.00     7800.00
00277            -820.00     7800.00
00278            -780.00     7600.00
00279            -740.00     7600.00
00280            -720.00     7400.00
00281            -680.00     7400.00
00282            -640.00     7200.00
00283            -580.00     7000.00
00284            -560.00     6800.00
00285            -540.00     6800.00
00286            -500.00     6600.00
00287            -480.00     6600.00
00288            -460.00     6400.00
00289            -420.00     6200.00
00290            -420.00     6200.00
00291            -380.00     6000.00
00292            -380.00     6000.00
00293            -340.00     5800.00
00294            -340.00     5600.00
00295            -320.00     5200.00
00296            -300.00     5200.00
00297            -300.00     5000.00
00298            -260.00     5000.00
00299            -260.00     4600.00
00300            -240.00     4600.00
00301            -260.00     4400.00
00302            -240.00     4200.00
00303            -240.00     4200.00
00304            -220.00     3800.00
00305            -220.00     3800.00
00306            -180.00     3600.00
00307            -180.00     3400.00
00308            -180.00     3200.00
00309            -160.00     3000.00
00310            -160.00     2800.00
00311            -160.00     2800.00
00312            -140.00     2600.00
00313            -160.00     2400.00
00314            -160.00     2200.00
00315            -140.00     2000.00
00316            -120.00     2000.00
00317            -100.00     1800.00
00318            -100.00     1400.00
00319            -100.00     1400.00
00320            -100.00     1200.00
00321            -100.00     1000.00
00322            -100.00      600.00
00323            -100.00      600.00
00324             -80.00      400.00
00325             -80.00      200.00
00326             -60.00        0.00
00327             -60.00     -200.00
00328             -20.00     -200.00
00329              20.00     -400.00
00330              80.00     -600.00
00331              40.00     -800.00
00332              20.00    -1000.00
00333               0.00    -1000.00
00334              20.00    -1200.00
00335              60.00    -1400.00
00336             300.00    -1400.00
00337             800.00    -1800.00
00338             580.00    -2400.00
00339            -260.00    -2200.00
00340            -720.00    -2600.00
00341            -860.00    -2600.00
00342            -460.00    -2400.00
00343             580.00    -2800.00
00344             100.00    -3000.00
00345            -220.00    -3000.00
00346             400.00    -3800.00
00347               0.00    -3400.00
00348              20.00    -3600.00
00349             180.00    -4200.00
00350             -80.00    -3800.00
00351             320.00    -4400.00
00352             220.00    -4400.00
00353            -160.00    -4600.00
00354               0.00    -5000.00
00355              80.00    -4600.00
00356             140.00    -5200.00
00357              60.00    -5200.00
00358             140.00    -5400.00
00359              60.00    -5600.00
00360              60.00    -5600.00
00361             260.00    -6000.00
00362             100.00    -6000.00
00363              80.00    -6200.00
00364             180.00    -6200.00
00365             180.00    -6200.00
00366             140.00    -6800.00
00367             100.00    -6800.00
00368             180.00    -6800.00
00369             220.00    -7000.00
00370             160.00    -7000.00
00371             160.00    -7200.00
00372             180.00    -7200.00
00373             220.00    -7600.00
00374             220.00    -7600.00
00375             240.00    -7800.00
00376             180.00    -7800.00
00377             220.00    -8000.00
00378             260.00    -8000.00
00379             300.00    -8200.00
00380             260.00    -8200.00
00381             300.00    -8400.00
00382             300.00    -8400.00
00383             300.00    -8600.00
00384             320.00    -8600.00
00385             360.00    -8800.00
00386             360.00    -8800.00
00387             360.00    -9000.00
00388             380.00    -9000.00
00389             380.00    -9200.00
00390             400.00    -9000.00
00391             440.00    -9200.00
00392             480.00    -9200.00
00393             480.00    -9200.00
00394             480.00    -9400.00
00395             500.00    -9200.00
00396             540.00    -9400.00
00397             560.00    -9400.00
00398             600.00    -9400.00
00399             640.00    -9600.00
00400             640.00    -9600.00
00401             660.00    -9600.00
00402             700.00    -9800.00
00403             720.00    -9600.00
00404             780.00    -9800.00
00405             820.00    -9800.00
00406             860.00    -9800.00
00407             880.00    -9800.00
00408             920.00    -9800.00
00409             960.00    -9800.00
00410            1020.00    -9800.00
00411            1060.00    -9800.00
00412            1140.00    -9600.00
00413            1180.00    -9800.00
00414            1220.00    -9800.00
00415            1280.00    -9800.00
00416            1320.00    -9800.00
00417            1400.00    -9600.00
00418            1440.00    -9600.00
00419            1500.00    -9600.00
00420            1500.00    -9600.00
00421            1540.00    -9400.00
00422            1580.00    -9400.00
00423            1580.00    -9400.00
00424            1600.00    -9400.00
00425            1600.00    -9400.00
00426            1600.00    -9200.00
00427            1600.00    -9200.00
00428            1560.00    -9200.00
00429            1540.00    -9200.00
00430            1500.00    -9000.00
00431            1500.00    -9200.00
00432            1440.00    -9000.00
00433            1380.00    -8600.00
00434            1340.00    -8600.00
00435            1280.00    -8600.00
00436            1260.00    -8600.00
00437            1200.00    -8600.00
00438            1140.00    -8400.00
00439            1100.00    -8400.00
00440            1040.00    -8200.00
00441             980.00    -8200.00
00442             940.00    -8200.00
00443             880.00    -8000.00
00444             860.00    -7600.00
00445             800.00    -7600.00
00446             780.00    -7600.00
00447             700.00    -7200.00
00448             660.00    -7200.00
00449             640.00    -7200.00
00450             600.00    -7000.00
00451             580.00    -7000.00
00452             540.00    -6800.00
00453             500.00    -6600.00
00454             480.00    -6600.00
00455             460.00    -6600.00
00456             420.00    -6200.00
00457             420.00    -6200.00
00458             400.00    -6000.00
00459             380.00    -6000.00
00460             340.00    -5800.00
00461             320.00    -5600.00
00462             320.00    -5600.00
00463             300.00    -5200.00
00464             300.00    -5000.00
00465             260.00    -5000.00
00466             260.00    -4600.00
00467             240.00    -4600.00
00468             240.00    -4600.00
00469             220.00    -4400.00
00470             220.00    -4200.00
00471             220.00    -3800.00
00472             220.00    -3800.00
00473             200.00    -3600.00
00474             180.00    -3600.00
00475             160.00    -3400.00
00476             160.00    -3200.00
00477             160.00    -3000.00
00478             160.00    -2800.00
00479             140.00    -2600.00
00480             140.00    -2600.00
00481             140.00    -2400.00
00482             120.00    -2200.00
00483             140.00    -2000.00
00484             140.00    -1800.00
00485             140.00    -1400.00
00486             100.00    -1200.00
00487             100.00    -1200.00
00488              80.00     -800.00
00489              80.00     -800.00
00490              80.00     -600.00
00491              80.00     -400.00
00492              80.00     -200.00
00493              80.00     -200.00
00494              60.00      200.00
00495              80.00      200.00
00496             120.00      400.00
00497             160.00      600.00
00498             160.00      600.00
00499             140.00     1000.00
00500             100.00     1000.00
00501              80.00     1200.00
00502             140.00     1400.00
00503             540.00     1800.00
00504            1040.00     2000.00
00505             420.00     2000.00
00506            -640.00     2200.00
00507           -1140.00     2200.00
00508            -960.00     2600.00
00509             580.00     3000.00
00510             580.00     2800.00
00511            -500.00     3000.00
00512             260.00     3000.00
00513             160.00     3000.00
00514            -340.00     4200.00
00515             140.00     3400.00
00516            -140.00     3600.00
00517             220.00     4600.00
00518             160.00     3800.00
00519            -420.00     4600.00
00520              80.00     5000.00
00521             -80.00     4600.00
00522            -160.00     5000.00
00523              80.00     5000.00
00524             -60.00     5400.00
00525             -60.00     5600.00
00526            -240.00     5400.00
00527              60.00     6200.00
00528             -60.00     5800.00
00529            -240.00     6000.00
00530               0.00     6200.00
00531            -100.00     6200.00
00532            -140.00     6600.00
00533            -180.00     6200.00
00534            -100.00     6800.00
00535             -80.00     6800.00
00536            -140.00     6800.00
00537            -140.00     7000.00
00538            -180.00     7000.00
00539            -160.00     7600.00
00540            -180.00     7400.00
00541            -140.00     7600.00
00542            -220.00     7800.00
00543            -220.00     7600.00
00544            -240.00     8000.00
00545            -260.00     8000.00
00546            -220.00     8200.00
00547            -260.00     8200.00
00548            -260.00     8200.00
00549            -340.00     8400.00
00550            -300.00     8400.00
00551            -320.00     8600.00
00552            -320.00     8600.00
00553            -320.00     8800.00
00554            -340.00     9000.00
00555            -400.00     9000.00
00556            -400.00     9000.00
00557            -380.00     9200.00
00558            -420.00     9200.00
00559            -440.00     9200.00
00560            -460.00     9200.00
00561            -480.00     9200.00
00562            -500.00     9200.00
00563            -540.00     9400.00
00564            -540.00     9600.00
00565            -560.00     9400.00
00566            -580.00     9600.00
00567            -620.00     9400.00
00568            -700.00     9800.00
00569            -720.00     9600.00
00570            -720.00     9800.00
00571            -740.00     9800.00
00572            -800.00     9600.00
00573            -860.00     9800.00
00574            -880.00     9800.00
00575            -900.00     9800.00
00576            -980.00     9800.00
00577            -980.00     9800.00
00578           -1040.00     9800.00
00579           -1120.00     9600.00
00580           -1140.00     9800.00
00581           -1220.00     9800.00
00582           -1300.00     9800.00
00583           -1360.00     9800.00
00584           -1360.00     9800.00
00585           -1400.00     9800.00
00586           -1460.00     9600.00
00587           -1500.00     9600.00
00588           -1520.00     9600.00
00589           -1540.00     9400.00
00590           -1580.00     9400.00
00591           -1580.00     9400.00
00592           -1600.00     9400.00
00593           -1600.00     9200.00
00594           -1580.00     9200.00
00595           -1540.00     9200.00
00596           -1540.00     9200.00
00597           -1500.00     9000.00
00598           -1460.00     9000.00
00599           -1440.00     9000.00
00600           -1380.00     8800.00
00601           -1360.00     8600.00
00602           -1300.00     8600.00
00603           -1260.00     8600.00
00604           -1200.00     8600.00
00605           -1140.00     8400.00
00606           -1100.00     8200.00
00607           -1040.00     8200.00
00608           -1020.00     8200.00
00609            -960.00     8200.00
00610            -900.00     8000.00
00611            -860.00     7800.00
00612            -800.00     7600.00
00613            -760.00     7600.00
00614            -740.00     7600.00
00615            -720.00     7400.00
00616            -660.00     7200.00
00617            -620.00     7000.00
00618            -580.00     7000.00
00619            -540.00     6800.00
00620            -540.00     6800.00
00621            -500.00     6600.00
00622            -480.00     6400.00
00623            -460.00     6200.00
00624            -420.00     6200.00
00625            -400.00     6000.00
00626            -380.00     5800.00
00627            -380.00     5800.00
00628            -340.00     5600.00
00629            -340.00     5400.00
00630            -320.00     5200.00
00631            -320.00     5200.00
00632            -280.00     5000.00
00633            -300.00     5000.00
00634            -260.00     4600.00
00635            -260.00     4400.00
00636            -240.00     4200.00
00637            -240.00     4200.00
00638            -220.00     4000.00
00639            -220.00     3800.00
00640            -220.00     3800.00
00641            -200.00     3600.00
00642            -180.00     3400.00
00643            -160.00     3200.00
00644            -160.00     3000.00
00645            -180.00     2800.00
00646            -160.00     2800.00
00647            -160.00     2400.00
00648            -160.00     2200.00
00649            -140.00     2000.00
00650            -140.00     1800.00
00651            -140.00     1800.00
00652            -100.00     1600.00
00653            -100.00     1400.00
00654            -100.00     1200.00
00655            -100.00     1000.00
00656            -100.00      800.00
00657             -80.00      800.00
00658             -80.00      400.00
00659             -60.00      400.00
00660             -60.00      200.00
00661             -60.00        0.00
00662             -60.00     -200.00
00663               0.00     -400.00
00664              60.00     -600.00
00665              60.00     -800.00
00666              20.00    -1000.00
00667              20.00    -1000.00
00668              20.00    -1200.00
00669              60.00    -1400.00
00670             160.00    -1400.00
00671             580.00    -1800.00
00672             800.00    -2200.00
00673             140.00    -2200.00
00674            -580.00    -2400.00
00675            -800.00    -2400.00
00676            -780.00    -2400.00
00677             220.00    -2600.00
00678             540.00    -3400.00
00679            -300.00    -2800.00
00680             180.00    -3400.00
00681             280.00    -3600.00
00682            -140.00    -3400.00
00683             240.00    -4000.00
00684               0.00    -4000.00
00685             100.00    -4200.00
00686             380.00    -4400.00
00687             -60.00    -4400.00
00688            -100.00    -5000.00
00689              60.00    -4600.00
00690             140.00    -5000.00
00691              80.00    -5400.00
00692             100.00    -5000.00
00693             140.00    -5600.00
00694               0.00    -5400.00
00695             180.00    -5800.00
00696             200.00    -5800.00
00697              20.00    -6000.00
00698             140.00    -6600.00
00699             180.00    -6200.00
00700             140.00    -6400.00
00701             100.00    -6800.00
00702             140.00    -6600.00
00703             220.00    -7000.00
00704             180.00    -6800.00
00705             160.00    -7200.00
00706             180.00    -7200.00
00707             220.00    -7400.00
00708             220.00    -7600.00
00709             220.00    -7600.00
00710             220.00    -7800.00
00711             220.00    -7800.00
00712             240.00    -8000.00
00713             260.00    -8200.00
00714             280.00    -8200.00
00715             260.00    -8200.00
00716             320.00    -8400.00
00717             280.00    -8400.00
00718             300.00    -8600.00
00719             320.00    -8600.00
00720             360.00    -8800.00
00721             340.00    -9000.00
00722             380.00    -9000.00
00723             380.00    -9000.00
00724             400.00    -9000.00
00725             420.00    -9200.00
00726             480.00    -9200.00
00727             460.00    -9200.00
00728             480.00    -9200.00
00729             500.00    -9400.00
00730             540.00    -9200.00
00731             540.00    -9400.00
00732             580.00    -9400.00
00733             640.00    -9400.00
00734             640.00    -9600.00
00735             640.00    -9400.00
00736             700.00    -9600.00
00737             720.00    -9800.00
00738             740.00    -9600.00
00739             800.00    -9600.00
00740             820.00    -9800.00
00741             860.00    -9800.00
00742             900.00    -9800.00
00743             940.00    -9600.00
00744             980.00    -9800.00
00745            1040.00    -9600.00
00746            1120.00    -9600.00
00747            1180.00    -9800.00
00748            1200.00    -9800.00
00749            1260.00    -9800.00
00750            1300.00    -9600.00
00751            1360.00    -9600.00
00752            1420.00    -9800.00
00753            1480.00    -9400.00
00754            1500.00    -9400.00
00755            1500.00    -9600.00
00756            1560.00    -9400.00
00757            1580.00    -9400.00
00758            1580.00    -9400.00
00759            1580.00    -9400.00
00760            1600.00    -9200.00
00761            1580.00    -9200.00
00762            1540.00    -9200.00
00763            1520.00    -9200.00
00764            1500.00    -9200.00
00765            1460.00    -9000.00
00766            1460.00    -9000.00
00767            1420.00    -9000.00
00768            1360.00    -8800.00
00769            1300.00    -8600.00
00770            1260.00    -8800.00
00771            1200.00    -8600.00
00772            1180.00    -8600.00
00773            1120.00    -8400.00
00774            1060.00    -8200.00
00775            1020.00    -8200.00
00776             960.00    -8200.00
00777             900.00    -7800.00
00778             860.00    -7800.00
00779             820.00    -7600.00
00780             780.00    -7800.00
00781             740.00    -7600.00
00782             700.00    -7200.00
00783             640.00    -7200.00
00784             620.00    -7000.00
00785             600.00    -7000.00
00786             560.00    -7000.00
00787             540.00    -6800.00
00788             500.00    -6600.00
00789             480.00    -6600.00
00790             460.00    -6400.00
00791             420.00    -6200.00
00792             380.00    -6000.00
00793             400.00    -6000.00
00794             340.00    -6000.00
00795             340.00    -5800.00
00796             320.00    -5400.00
00797             300.00    -5400.00
00798             300.00    -5200.00
00799             300.00    -5000.00
00800             300.00    -5000.00
00801             260.00    -4800.00
00802             240.00    -4600.00
00803             220.00    -4400.00
00804             220.00    -4200.00
00805             220.00    -4200.00
00806             220.00    -3800.00
00807             180.00    -3600.00
00808             180.00    -3600.00
00809             180.00    -3400.00
00810             160.00    -3400.00
00811             160.00    -3000.00
00812             160.00    -3000.00
00813             160.00    -2600.00
00814             140.00    -2600.00
00815             140.00    -2400.00
00816             120.00    -2200.00
00817             100.00    -2000.00
00818             140.00    -1800.00
00819             100.00    -1800.00
00820             120.00    -1400.00
00821             100.00    -1200.00
00822              80.00    -1000.00
00823              80.00     -800.00
00824              80.00     -600.00
00825              80.00     -600.00
00826              60.00     -200.00
00827              80.00     -200.00
00828              80.00      200.00
00829              60.00      200.00
00830             100.00      400.00
00831             160.00      600.00
00832             160.00      600.00
00833             140.00      800.00
00834             100.00     1000.00
00835              80.00     1200.00
00836             100.00     1400.00
00837             300.00     1600.00
00838             920.00     1800.00
00839             820.00     2000.00
00840            -180.00     2200.00
00841            -960.00     2000.00
00842           -1200.00     2200.00
00843            -160.00     3000.00
00844             960.00     3000.00
00845            -220.00     2600.00
00846            -200.00     3400.00
00847             460.00     3000.00
00848            -260.00     3800.00
00849             -60.00     3800.00
00850              20.00     3400.00
00851             -40.00     4400.00
00852             380.00     4200.00
00853            -300.00     4000.00
00854            -200.00     5000.00
00855             100.00     4600.00
00856            -240.00     5000.00
00857              20.00     5000.00
00858               0.00     5000.00
00859             -20.00     5600.00
00860            -160.00     5200.00
00861            -100.00     5800.00
00862             100.00     5800.00
00863            -240.00     5800.00
00864             -80.00     6200.00
00865             -20.00     6000.00
00866            -140.00     6400.00
00867            -160.00     6400.00
00868            -180.00     6600.00
00869             -80.00     7000.00
00870            -160.00     6800.00
00871            -140.00     7000.00
00872            -160.00     7000.00
00873            -160.00     7400.00
00874            -200.00     7400.00
00875            -160.00     7600.00
00876            -160.00     7600.00
00877            -240.00     7600.00
00878            -220.00     7800.00
00879            -260.00     8000.00
00880            -220.00     8200.00
00881            -240.00     8200.00
00882            -240.00     8400.00
00883            -300.00     8400.00
00884            -320.00     8400.00
00885            -300.00     8600.00
00886            -320.00     8600.00
00887            -320.00     8600.00
00888            -340.00     8600.00
00889            -400.00     8600.00
00890            -420.00     9000.00
00891            -380.00     9000.00
00892            -380.00     9200.00
00893            -420.00     9200.00
00894            -480.00     9200.00
00895            -480.00     9200.00
00896            -500.00     9400.00
00897            -540.00     9400.00
00898            -560.00     9400.00
00899            -560.00     9400.00
00900            -580.00     9600.00
00901            -620.00     9400.00
00902            -640.00     9600.00
00903            -720.00     9600.00
00904            -720.00     9600.00
00905            -720.00     9800.00
00906            -740.00     9800.00
00907            -820.00     9600.00
00908            -860.00     9600.00
00909            -900.00     9800.00
00910            -960.00     9800.00
00911            -980.00     9800.00
00912           -1040.00     9800.00
00913           -1060.00     9800.00
00914           -1140.00     9800.00
00915           -1180.00     9800.00
00916           -1260.00     9800.00
00917           -1300.00     9800.00
00918           -1360.00     9800.00
00919           -1380.00     9600.00
00920           -1440.00     9800.00
00921           -1500.00     9400.00
00922           -1520.00     9400.00
00923           -1540.00     9400.00
00924           -1580.00     9400.00
00925           -1580.00     9400.00
00926           -1600.00     9400.00
00927           -1600.00     9400.00
00928           -1580.00     9200.00
00929           -1580.00     9200.00
00930           -1540.00     9200.00
00931           -1520.00     9000.00
00932           -1480.00     9200.00
00933           -1440.00     9000.00
00934           -1420.00     9000.00
00935           -1380.00     8600.00
00936           -1340.00     8600.00
00937           -1280.00     8600.00
00938           -1220.00     8600.00
00939           -1180.00     8400.00
00940           -1120.00     8400.00
00941           -1060.00     8400.00
00942           -1020.00     8200.00
00943            -980.00     8200.00
00944            -940.00     8000.00
00945            -880.00     7800.00
00946            -820.00     7800.00
00947            -800.00     7600.00
00948            -740.00     7600.00
00949            -720.00     7400.00
00950            -700.00     7200.00
00951            -620.00     7200.00
00952            -580.00     7000.00
00953            -580.00     6800.00
00954            -540.00     6800.00
00955            -540.00     6800.00
00956            -500.00     6400.00
00957            -480.00     6400.00
00958            -440.00     6200.00
00959            -420.00     6000.00
00960            -400.00     6000.00
00961            -400.00     5800.00
00962            -360.00     5800.00
00963            -340.00     5400.00
00964            -320.00     5400.00
00965            -320.00     5200.00
00966            -280.00     5000.00
00967            -300.00     5000.00
00968            -260.00     4800.00
00969            -260.00     4600.00
00970            -260.00     4600.00
00971            -240.00     4200.00
00972            -240.00     4200.00
00973            -220.00     3800.00
00974            -220.00     3600.00
00975            -220.00     3600.00
00976            -220.00     3400.00
00977            -180.00     3200.00
00978            -180.00     3200.00
00979            -160.00     2800.00
00980            -160.00     2800.00
00981            -160.00     2600.00
00982            -160.00     2200.00
00983            -160.00     2200.00
00984            -140.00     1800.00
00985            -100.00     2000.00
00986            -120.00     1600.00
00987            -100.00     1400.00
00988            -100.00     1400.00
00989             -80.00     1200.00
00990            -100.00     1000.00
00991            -100.00      800.00
00992            -100.00      600.00
00993             -80.00      400.00
00994             -60.00      200.00
00995             -60.00        0.00
00996             -60.00     -200.00
00997             -20.00     -400.00
00998              60.00     -400.00
00999              80.00     -600.00
01000              20.00     -600.00
01001               0.00    -1000.00
01002               0.00    -1000.00
01003              40.00    -1200.00
01004              80.00    -1400.00
01005             340.00    -1600.00
01006             800.00    -2000.00
01007             520.00    -2400.00
01008            -320.00    -2400.00
01009            -740.00    -2600.00
01010            -860.00    -2600.00
01011            -340.00    -2400.00
01012             620.00    -3000.00
01013               0.00    -3000.00
01014            -160.00    -3000.00
01015             400.00    -3800.00
01016             -60.00    -3400.00
01017              80.00    -3600.00
01018             160.00    -4200.00
01019             -80.00    -3800.00
01020             320.00    -4400.00
01021             160.00    -4200.00
01022            -160.00    -4600.00
01023               0.00    -5000.00
01024             100.00    -4600.00
01025             140.00    -5200.00
01026              60.00    -5200.00
01027             140.00    -5400.00
01028              40.00    -5600.00
01029              60.00    -5600.00
01030             240.00    -6000.00
01031              80.00    -5800.00
01032              80.00    -6200.00
01033             180.00    -6200.00
01034             160.00    -6200.00
01035             120.00    -6800.00
01036             100.00    -6600.00
01037             180.00    -6800.00
01038             220.00    -7000.00
01039             160.00    -7200.00
01040             160.00    -7400.00
01041             220.00    -7200.00
01042             220.00    -7600.00
01043             220.00    -7600.00
01044             220.00    -7600.00
01045             220.00    -7800.00
01046             220.00    -8000.00
01047             260.00    -8200.00
01048             300.00    -8200.00
01049             260.00    -8200.00
01050             300.00    -8400.00
01051             300.00    -8400.00
01052             300.00    -8600.00
01053             320.00    -8600.00
01054             340.00    -8800.00
01055             380.00    -8800.00
01056             380.00    -8800.00
01057             380.00    -9000.00
01058             380.00    -9000.00
01059             400.00    -9000.00
01060             460.00    -9200.00
01061             480.00    -9200.00
01062             480.00    -9200.00
01063             480.00    -9400.00
01064             500.00    -9400.00
01065             540.00    -9400.00
01066             560.00    -9400.00
01067             620.00    -9400.00
01068             640.00    -9600.00
01069             640.00    -9400.00
01070             660.00    -9400.00
01071             700.00    -9600.00
01072             720.00    -9600.00
01073             780.00    -9600.00
01074             820.00    -9800.00
01075             860.00    -9800.00
01076             880.00    -9800.00
01077             940.00    -9800.00
01078             980.00    -9800.00
01079            1020.00    -9600.00
01080            1060.00    -9800.00
01081            1140.00    -9800.00
01082            1200.00    -9800.00
01083            1240.00    -9800.00
01084            1280.00    -9600.00
01085            1340.00    -9800.00
01086            1380.00    -9600.00
01087            1440.00    -9800.00
01088            1500.00    -9600.00
01089            1520.00    -9400.00
01090            1520.00    -9600.00
01091            1580.00    -9400.00
01092            1580.00    -9400.00
01093            1600.00    -9200.00
01094            1600.00    -9400.00
01095            1600.00    -9200.00
01096            1560.00    -9400.00
01097            1540.00    -9200.00
01098            1520.00    -9200.00
01099            1500.00    -9000.00
01100            1460.00    -9000.00
01101            1440.00    -9000.00
01102            1380.00    -8800.00
01103            1340.00    -8800.00
01104            1280.00    -8800.00
01105            1220.00    -8600.00
01106            1180.00    -8600.00
01107            1140.00    -8400.00
01108            1100.00    -8400.00
01109            1020.00    -8200.00
01110             960.00    -8200.00
01111             940.00    -8200.00
01112             880.00    -7800.00
01113             860.00    -7800.00
01114             800.00    -7600.00
01115             780.00    -7600.00
01116             720.00    -7400.00
01117             660.00    -7200.00
01118             640.00    -7200.00
01119             620.00    -7000.00
01120             580.00    -7000.00
01121             540.00    -6800.00
01122             500.00    -6600.00
01123             480.00    -6600.00
01124             460.00    -6200.00
01125             420.00    -6200.00
01126             420.00    -6200.00
01127             400.00    -6000.00
01128             380.00    -5800.00
01129             340.00    -5600.00
01130             340.00    -5800.00
01131             320.00    -5400.00
01132             320.00    -5200.00
01133             300.00    -5200.00
01134             300.00    -5000.00
01135             260.00    -4800.00
01136             260.00    -4600.00
01137             240.00    -4400.00
01138             220.00    -4400.00
01139             220.00    -4200.00
01140             220.00    -3800.00
01141             220.00    -3600.00
01142             180.00    -3600.00
01143             180.00    -3400.00
01144             180.00    -3400.00
01145             160.00    -3200.00
01146             160.00    -3000.00
01147             160.00    -2800.00
01148             160.00    -2600.00
01149             140.00    -2400.00
01150             140.00    -2200.00
01151             120.00    -2200.00
01152             100.00    -2000.00
01153             100.00    -1800.00
01154             140.00    -1400.00
01155             100.00    -1400.00
01156             100.00    -1200.00
01157              60.00     -800.00
01158              80.00     -800.00
01159              80.00     -600.00
01160              80.00     -400.00
01161              80.00     -400.00
01162              80.00        0.00
01163              60.00      200.00
01164              80.00      200.00
01165             140.00      400.00
01166             160.00      600.00
01167             160.00      800.00
01168             140.00      800.00
01169              80.00     1000.00
01170             100.00     1200.00
01171             160.00     1400.00
01172             620.00     1800.00
01173            1020.00     2000.00
01174             320.00     2200.00
01175            -700.00     2200.00
01176           -1180.00     2000.00
01177            -860.00     2600.00
01178             700.00     3000.00
01179             460.00     2800.00
01180            -480.00     3200.00
01181             320.00     3000.00
01182             100.00     3200.00
01183            -320.00     4200.00
01184             140.00     3400.00
01185            -140.00     3800.00
01186             280.00     4400.00
01187             100.00     3800.00
01188            -420.00     4600.00
01189             100.00     4800.00
01190            -100.00     4600.00
01191            -140.00     5200.00
01192              80.00     4600.00
01193             -60.00     5600.00
01194             -60.00     5400.00
01195            -220.00     5400.00
01196              80.00     6000.00
01197             -80.00     5600.00
01198            -220.00     6200.00
01199               0.00     6200.00
01200            -100.00     6200.00
01201            -140.00     6600.00
01202            -200.00     6200.00
01203            -100.00     7000.00
01204             -80.00     6600.00
01205            -140.00     7000.00
01206            -160.00     7000.00
01207            -180.00     7000.00
01208            -180.00     7600.00
01209            -220.00     7400.00
01210            -140.00     7400.00
01211            -220.00     7600.00
01212            -220.00     7800.00
01213            -240.00     8000.00
01214            -240.00     8000.00
01215            -240.00     8200.00
01216            -260.00     8200.00
01217            -260.00     8200.00
01218            -340.00     8200.00
01219            -320.00     8600.00
01220            -320.00     8600.00
01221            -320.00     8600.00
01222            -340.00     8800.00
01223            -380.00     8600.00
01224            -400.00     8800.00
01225            -400.00     9000.00
01226            -380.00     9000.00
01227            -420.00     9200.00
01228            -460.00     9200.00
01229            -480.00     9400.00
01230            -500.00     9400.00
01231            -540.00     9400.00
01232            -560.00     9400.00
01233            -560.00     9400.00
01234            -580.00     9400.00
01235            -580.00     9600.00
01236            -640.00     9600.00
01237            -680.00     9600.00
01238            -720.00     9800.00
01239            -720.00     9800.00
01240            -740.00     9800.00
01241            -800.00     9800.00
01242            -860.00     9800.00
01243            -880.00     9800.00
01244            -940.00     9800.00
01245            -960.00     9800.00
01246            -980.00     9800.00
01247           -1060.00     9800.00
01248           -1120.00     9800.00
01249           -1140.00     9800.00
01250           -1220.00     9800.00
01251           -1300.00     9600.00
01252           -1340.00     9800.00
01253           -1380.00     9600.00
01254           -1400.00     9800.00
01255           -1460.00     9600.00
01256           -1500.00     9600.00
01257           -1540.00     9600.00
01258           -1540.00     9400.00
01259           -1580.00     9400.00
01260           -1580.00     9400.00
01261           -1580.00     9400.00
01262           -1580.00     9400.00
01263           -1580.00     9200.00
01264           -1560.00     9200.00
01265           -1540.00     9000.00
01266           -1500.00     9200.00
01267           -1440.00     9000.00
01268           -1420.00     9000.00
01269           -1380.00     9000.00
01270           -1360.00     8600.00
01271           -1300.00     8600.00
01272           -1260.00     8600.00
01273           -1200.00     8400.00
01274           -1140.00     8400.00
01275           -1100.00     8400.00
01276           -1060.00     8200.00
01277            -980.00     8200.00
01278            -960.00     8000.00
01279            -900.00     8000.00
01280            -880.00     7800.00
01281            -800.00     7800.00
01282            -760.00     7400.00
01283            -740.00     7600.00
01284            -720.00     7400.00
01285            -660.00     7200.00
01286            -620.00     7200.00
01287            -560.00     7000.00
01288            -560.00     6800.00
01289            -540.00     6600.00
01290            -500.00     6600.00
01291            -480.00     6400.00
01292            -460.00     6200.00
01293            -420.00     6200.00
01294            -400.00     6000.00
01295            -380.00     5800.00
01296            -380.00     5800.00
01297            -340.00     5600.00
01298            -340.00     5400.00
01299            -320.00     5400.00
01300            -300.00     5000.00
01301            -280.00     5000.00
01302            -300.00     4600.00
01303            -260.00     4600.00
01304            -260.00     4400.00
01305            -240.00     4400.00
01306            -240.00     4000.00
01307            -220.00     4000.00
01308            -200.00     3800.00
01309            -200.00     3800.00
01310            -180.00     3600.00
01311            -180.00     3400.00
01312            -160.00     3200.00
01313            -160.00     3000.00
01314            -160.00     2800.00
01315            -160.00     2600.00
01316            -160.00     2600.00
01317            -160.00     2200.00
01318            -140.00     2000.00
01319            -100.00     2000.00
01320            -140.00     1800.00
01321            -100.00     1600.00
01322            -100.00     1400.00
01323            -100.00     1200.00
01324            -100.00     1000.00
01325            -100.00     1000.00
01326            -100.00      600.00
01327             -80.00      600.00
01328             -80.00      400.00
01329             -60.00      200.00
01330             -60.00      200.00
01331             -60.00     -200.00
01332               0.00     -400.00
01333              60.00     -600.00
01334              60.00     -800.00
01335               0.00    -1000.00
01336              20.00     -800.00
01337              20.00    -1200.00
01338              40.00    -1400.00
01339             180.00    -1400.00
01340             620.00    -1800.00
01341             800.00    -2200.00
01342              60.00    -2200.00
01343            -620.00    -2600.00
01344            -820.00    -2600.00
01345            -740.00    -2400.00
01346             300.00    -2600.00
01347             460.00    -3200.00
01348            -320.00    -3000.00
01349             220.00    -3600.00
01350             220.00    -3600.00
01351            -100.00    -3400.00
01352             240.00    -4200.00
01353             -20.00    -3800.00
01354             140.00    -4200.00
01355             380.00    -4600.00
01356            -100.00    -4400.00
01357            -100.00    -5000.00
01358              60.00    -4600.00
01359             140.00    -5000.00
01360              60.00    -5400.00
01361             100.00    -5200.00
01362             120.00    -5600.00
01363             -20.00    -5400.00
01364             220.00    -5800.00
01365             160.00    -5800.00
01366              20.00    -6000.00
01367             160.00    -6400.00
01368             180.00    -6200.00
01369             140.00    -6600.00
01370              80.00    -6800.00
01371             140.00    -6600.00
01372             220.00    -7000.00
01373             180.00    -7000.00
01374             160.00    -7000.00
01375             180.00    -7400.00
01376             220.00    -7400.00
01377             220.00    -7600.00
01378             220.00    -7600.00
01379             240.00    -7800.00
01380             220.00    -7800.00
01381             240.00    -7800.00
01382             300.00    -8200.00
01383             280.00    -8400.00
01384             300.00    -8400.00
01385             320.00    -8400.00
01386             300.00    -8600.00
01387             300.00    -8400.00
01388             340.00    -8600.00
01389             380.00    -8800.00
01390             380.00    -8800.00
01391             380.00    -9000.00
01392             380.00    -8800.00
01393             400.00    -9000.00
01394             440.00    -9200.00
01395             480.00    -9200.00
01396             480.00    -9200.00
01397             480.00    -9200.00
01398             500.00    -9200.00
01399             520.00    -9400.00
01400             540.00    -9400.00
01401             560.00    -9400.00
01402             620.00    -9400.00
01403             640.00    -9600.00
01404             640.00    -9400.00
01405             700.00    -9600.00
01406             720.00    -9600.00
01407             760.00    -9800.00
01408             800.00    -9800.00
01409             820.00    -9600.00
01410             860.00    -9800.00
01411             880.00    -9800.00
01412             940.00    -9800.00
01413             980.00    -9800.00
01414            1040.00    -9800.00
01415            1120.00    -9800.00
01416            1180.00    -9800.00
01417            1200.00    -9800.00
01418            1260.00    -9800.00
01419            1300.00    -9800.00
01420            1360.00    -9800.00
01421            1420.00    -9800.00
01422            1460.00    -9600.00
01423            1500.00    -9600.00
01424            1520.00    -9600.00
01425            1540.00    -9400.00
01426            1580.00    -9400.00
01427            1580.00    -9400.00
01428            1600.00    -9400.00
01429            1600.00    -9200.00
01430            1600.00    -9400.00
01431            1560.00    -9200.00
01432            1540.00    -9400.00
01433            1520.00    -9000.00
01434            1500.00    -9000.00
01435            1460.00    -9000.00
01436            1420.00    -9000.00
01437            1360.00    -8800.00
01438            1280.00    -8600.00
01439            1260.00    -8600.00
01440            1220.00    -8600.00
01441            1180.00    -8400.00
01442            1120.00    -8400.00
01443            1060.00    -8400.00
01444             980.00    -8200.00
01445             960.00    -8200.00
01446             900.00    -7800.00
01447             860.00    -7800.00
01448             820.00    -7800.00
01449             780.00    -7600.00
01450             720.00    -7600.00
01451             700.00    -7400.00
01452             640.00    -7200.00
01453             620.00    -7000.00
01454             620.00    -7000.00
01455             560.00    -6800.00
01456             540.00    -6800.00
01457             500.00    -6600.00
01458             480.00    -6600.00
01459             460.00    -6400.00
01460             440.00    -6200.00
01461             400.00    -6200.00
01462             400.00    -6000.00
01463             380.00    -5800.00
01464             340.00    -5400.00
01465             320.00    -5400.00
01466             300.00    -5400.00
01467             300.00    -5200.00
01468             300.00    -5200.00
01469             280.00    -4800.00
01470             240.00    -4600.00
01471             240.00    -4600.00
01472             240.00    -4400.00
01473             220.00    -4400.00
01474             220.00    -4000.00
01475             220.00    -3800.00
01476             220.00    -3600.00
01477             180.00    -3600.00
01478             160.00    -3400.00
01479             160.00    -3200.00
01480             160.00    -3000.00
01481             160.00    -2800.00
01482             160.00    -2800.00
01483             140.00    -2600.00
01484             140.00    -2200.00
01485             140.00    -2200.00
01486             100.00    -2200.00
01487             140.00    -1800.00
01488             100.00    -1800.00
01489             100.00    -1400.00
01490              80.00    -1400.00
01491              80.00    -1000.00
01492              80.00     -800.00
01493              80.00     -600.00
01494              80.00     -600.00
01495              80.00     -400.00
01496              80.00     -200.00
01497              60.00      200.00
01498              60.00      200.00
01499             100.00      400.00
01500             160.00      600.00
01501             160.00      600.00
01502             140.00      800.00
01503             100.00     1000.00
01504             100.00     1200.00
01505             100.00     1200.00
01506             320.00     1400.00
01507             940.00     2000.00
01508             780.00     2000.00
01509            -260.00     2200.00
01510           -1020.00     2200.00
01511           -1180.00     2200.00
01512               0.00     3000.00
01513             940.00     2800.00
01514            -300.00     2800.00
01515            -100.00     3400.00
01516             420.00     3000.00
01517            -320.00     3800.00
01518               0.00     3800.00
01519               0.00     3400.00
01520               0.00     4400.00
01521             380.00     4000.00
01522            -320.00     4000.00
01523            -100.00     5000.00
01524             100.00     4400.00
01525            -240.00     5000.00
01526              60.00     5000.00
01527             -20.00     5000.00
01528             -20.00     5600.00
01529            -160.00     5000.00
01530             -80.00     5800.00
01531              80.00     5800.00
01532            -260.00     5800.00
01533             -60.00     6200.00
01534             -60.00     5800.00
01535            -140.00     6600.00
01536            -160.00     6400.00
01537            -180.00     6600.00
01538             -60.00     6800.00
01539            -140.00     6800.00
01540            -140.00     7000.00
01541            -180.00     7000.00
01542            -160.00     7200.00
01543            -220.00     7400.00
01544            -180.00     7400.00
01545            -180.00     7600.00
01546            -240.00     7600.00
01547            -240.00     8000.00
01548            -260.00     7800.00
01549            -240.00     8000.00
01550            -240.00     8200.00
01551            -260.00     8200.00
01552            -320.00     8200.00
01553            -320.00     8400.00
01554            -300.00     8600.00
01555            -320.00     8600.00
01556            -320.00     8600.00
01557            -380.00     8600.00
01558            -400.00     9000.00
01559            -420.00     9000.00
01560            -400.00     9000.00
01561            -420.00     9200.00
01562            -440.00     9200.00
01563            -460.00     9200.00
01564            -480.00     9400.00
01565            -540.00     9200.00
01566            -540.00     9400.00
01567            -540.00     9400.00
01568            -560.00     9400.00
01569            -580.00     9600.00
01570            -580.00     9800.00
01571            -640.00     9600.00
01572            -700.00     9800.00
01573            -720.00     9400.00
01574            -720.00     9800.00
01575            -780.00     9800.00
01576            -840.00     9800.00
01577            -860.00     9800.00
01578            -900.00     9800.00
01579            -940.00     9800.00
01580            -980.00     9800.00
01581           -1020.00     9800.00
01582           -1080.00     9800.00
01583           -1120.00     9800.00
01584           -1200.00     9800.00
01585           -1260.00     9800.00
01586           -1320.00     9600.00
01587           -1360.00     9800.00
01588           -1380.00     9800.00
01589           -1440.00     9800.00
01590           -1460.00     9400.00
01591           -1520.00     9600.00
01592           -1540.00     9800.00
01593           -1560.00     9400.00
01594           -1580.00     9400.00
01595           -1600.00     9400.00
01596           -1580.00     9400.00
01597           -1560.00     9200.00
01598           -1580.00     9200.00
01599           -1560.00     9200.00
01600           -1520.00     9000.00
01601           -1460.00     9200.00
01602           -1440.00     9000.00
01603           -1420.00     9000.00
01604           -1360.00     8800.00
01605           -1340.00     8800.00
01606           -1280.00     8600.00
01607           -1200.00     8600.00
01608           -1180.00     8600.00
01609           -1120.00     8400.00
01610           -1060.00     8400.00
01611           -1020.00     8200.00
01612            -980.00     8200.00
01613            -940.00     8000.00
01614            -880.00     7800.00
01615            -820.00     7600.00
01616            -780.00     7400.00
01617            -740.00     7600.00
01618            -720.00     7400.00
01619            -680.00     7400.00
01620            -640.00     7000.00
01621            -600.00     7000.00
01622            -560.00     7000.00
01623            -540.00     6600.00
01624            -500.00     6600.00
01625            -500.00     6600.00
01626            -480.00     6400.00
01627            -420.00     6200.00
01628            -420.00     6000.00
01629            -400.00     5800.00
01630            -380.00     5800.00
01631            -360.00     5600.00
01632            -340.00     5400.00
01633            -320.00     5400.00
01634            -320.00     5400.00
01635            -300.00     5000.00
01636            -280.00     5000.00
01637            -260.00     4600.00
01638            -260.00     4600.00
01639            -240.00     4400.00
01640            -240.00     4200.00
01641            -220.00     4200.00
01642            -220.00     3800.00
01643            -220.00     3600.00
01644            -180.00     3600.00
01645            -180.00     3400.00
01646            -180.00     3400.00
01647            -160.00     3000.00
01648            -160.00     2800.00
01649            -160.00     2800.00
01650            -140.00     2600.00
01651            -160.00     2200.00
01652            -140.00     2200.00
01653            -140.00     2000.00
01654            -100.00     1800.00
01655            -100.00     1600.00
01656            -100.00     1400.00
01657            -100.00     1200.00
01658            -100.00     1200.00
01659            -100.00     1000.00
01660             -80.00      800.00
01661            -100.00      600.00
01662             -60.00      400.00
01663             -80.00      200.00
01664             -80.00      200.00
01665             -60.00     -200.00
01666             -20.00     -400.00
01667              60.00     -600.00
01668              80.00     -600.00
01669              20.00     -800.00
01670               0.00    -1000.00
01671               0.00    -1200.00
01672              20.00    -1200.00
01673              80.00    -1600.00
01674             380.00    -1400.00
01675             820.00    -2200.00
01676             420.00    -2400.00
01677            -380.00    -2400.00
01678            -740.00    -2600.00
01679            -860.00    -2600.00
01680            -260.00    -2600.00
01681             640.00    -3000.00
01682             -80.00    -3000.00
01683            -100.00    -3000.00
01684             400.00    -3800.00
01685             -80.00    -3400.00
01686             140.00    -3600.00
01687             140.00    -4200.00
01688             -60.00    -4000.00
01689             380.00    -4600.00
01690             120.00    -4200.00
01691            -160.00    -5000.00
01692              20.00    -4800.00
01693             100.00    -5000.00
01694             120.00    -5400.00
01695              80.00    -5000.00
01696             160.00    -5400.00
01697              20.00    -5800.00
01698              80.00    -5400.00
01699             240.00    -6000.00
01700              60.00    -5800.00
01701             100.00    -6200.00
01702             180.00    -6400.00
01703             160.00    -6200.00
01704             120.00    -6800.00
01705             100.00    -6600.00
01706             220.00    -6800.00
01707             200.00    -7000.00
01708             160.00    -7000.00
01709             180.00    -7400.00
01710             220.00    -7200.00
01711             220.00    -7400.00
01712             220.00    -7600.00
01713             240.00    -7800.00
01714             200.00    -7800.00
01715             220.00    -7800.00
01716             260.00    -8200.00
01717             300.00    -8200.00
01718             260.00    -8400.00
01719             320.00    -8400.00
01720             300.00    -8400.00
01721             300.00    -8600.00
01722             320.00    -8600.00
01723             360.00    -8600.00
01724             380.00    -8800.00
01725             380.00    -9000.00
01726             380.00    -9000.00
01727             380.00    -9000.00
01728             420.00    -9000.00
01729             460.00    -9200.00
01730             480.00    -9200.00
01731             480.00    -9400.00
01732             500.00    -9400.00
01733             500.00    -9400.00
01734             540.00    -9400.00
01735             560.00    -9400.00
01736             620.00    -9600.00
01737             640.00    -9600.00
01738             640.00    -9600.00
01739             660.00    -9600.00
01740             700.00    -9600.00
01741             720.00    -9800.00
01742             800.00    -9800.00
01743             800.00    -9600.00
01744             820.00    -9800.00
01745             880.00    -9800.00
01746             920.00    -9800.00
01747             960.00    -9800.00
01748            1020.00    -9800.00
01749            1080.00    -9800.00
01750            1120.00    -9800.00
01751            1200.00    -9800.00
01752            1220.00    -9800.00
01753            1280.00    -9600.00
01754            1340.00    -9800.00
01755            1380.00    -9600.00
01756            1440.00    -9800.00
01757            1500.00    -9600.00
01758            1500.00    -9800.00
01759            1540.00    -9400.00
01760            1560.00    -9600.00
01761            1580.00    -9400.00
01762            1600.00    -9400.00
01763            1580.00    -9400.00
01764            1600.00    -9400.00
01765            1580.00    -9400.00
01766            1540.00    -9200.00
01767            1520.00    -9200.00
01768            1500.00    -9000.00
01769            1460.00    -9000.00
01770            1440.00    -9000.00
01771            1380.00    -8800.00
01772            1340.00    -9000.00
01773            1280.00    -8800.00
01774            1260.00    -8600.00
01775            1180.00    -8400.00
01776            1140.00    -8400.00
01777            1100.00    -8200.00
01778            1040.00    -8200.00
01779             980.00    -8200.00
01780             940.00    -8200.00
01781             880.00    -7800.00
01782             860.00    -7800.00
01783             800.00    -7600.00
01784             780.00    -7600.00
01785             720.00    -7400.00
01786             660.00    -7200.00
01787             640.00    -7200.00
01788             620.00    -7000.00
01789             580.00    -7000.00
01790             540.00    -6800.00
01791             500.00    -6600.00
01792             500.00    -6600.00
01793             460.00    -6400.00
01794             420.00    -6200.00
01795             420.00    -6200.00
01796             400.00    -6000.00
01797             380.00    -5800.00
01798             340.00    -5600.00
01799             320.00    -5400.00
01800             320.00    -5400.00
01801             300.00    -5200.00
01802             300.00    -5200.00
01803             280.00    -5000.00
01804             260.00    -4800.00
01805             240.00    -4600.00
01806             220.00    -4600.00
01807             220.00    -4400.00
01808             220.00    -4200.00
01809             200.00    -4200.00
01810             220.00    -3800.00
01811             180.00    -3600.00
01812             160.00    -3600.00
01813             160.00    -3200.00
01814             160.00    -3000.00
01815             160.00    -2800.00
01816             160.00    -2600.00
01817             160.00    -2600.00
01818             140.00    -2400.00
01819             140.00    -2200.00
01820             100.00    -2200.00
01821             120.00    -2000.00
01822             140.00    -1800.00
01823             120.00    -1400.00
01824             100.00    -1200.00
01825              80.00    -1200.00
01826              80.00     -800.00
01827              80.00     -800.00
01828              80.00     -600.00
01829              80.00     -400.00
01830              80.00     -200.00
01831              80.00        0.00
01832              80.00      200.00
01833              80.00      400.00
01834             140.00      400.00
01835             160.00      600.00
01836             140.00      800.00
01837             120.00     1000.00
01838             100.00     1000.00
01839             100.00     1400.00
01840             180.00     1400.00
01841             660.00     1800.00
01842            1020.00     2000.00
01843             240.00     2000.00
01844            -740.00     2000.00
01845           -1200.00     2200.00
01846            -740.00     2800.00
01847             780.00     3000.00
01848             340.00     2800.00
01849            -480.00     3000.00
01850             380.00     3000.00
01851              40.00     3400.00
01852            -260.00     4200.00
01853             140.00     3400.00
01854            -140.00     4000.00
01855             320.00     4600.00
01856              40.00     3800.00
01857            -380.00     4600.00
01858             140.00     4600.00
01859            -140.00     4600.00
01860            -100.00     5200.00
01861              60.00     4600.00
01862             -60.00     5400.00
01863             -80.00     5400.00
01864            -220.00     5600.00
01865             100.00     6200.00
01866            -120.00     5600.00
01867            -200.00     6200.00
01868             -20.00     6200.00
01869            -100.00     6400.00
01870            -140.00     6600.00
01871            -200.00     6400.00
01872            -100.00     7000.00
01873            -100.00     6600.00
01874            -140.00     7000.00
01875            -160.00     7000.00
01876            -180.00     7200.00
01877            -180.00     7400.00
01878            -220.00     7400.00
01879            -160.00     7600.00
01880            -240.00     7600.00
01881            -220.00     7800.00
01882            -260.00     7800.00
01883            -260.00     8000.00
01884            -240.00     8200.00
01885            -260.00     8200.00
01886            -260.00     8400.00
01887            -340.00     8200.00
01888            -300.00     8600.00
01889            -320.00     8600.00
01890            -300.00     8600.00
01891            -340.00     9000.00
01892            -380.00     8600.00
01893            -400.00     9000.00
01894            -400.00     9000.00
01895            -380.00     9000.00
01896            -420.00     9200.00
01897            -460.00     9200.00
01898            -480.00     9400.00
01899            -480.00     9200.00
01900            -540.00     9400.00
01901            -540.00     9400.00
01902            -540.00     9400.00
01903            -580.00     9400.00
01904            -580.00     9400.00
01905            -620.00     9600.00
01906            -700.00     9600.00
01907            -720.00     9600.00
01908            -720.00     9800.00
01909            -740.00     9800.00
01910            -800.00     9800.00
01911            -860.00     9800.00
01912            -860.00     9800.00
01913            -920.00     9800.00
01914            -980.00     9800.00
01915           -1000.00     9800.00
01916           -1060.00    10000.00
01917           -1100.00     9800.00
01918           -1140.00     9800.00
01919           -1220.00     9800.00
01920           -1280.00     9600.00
01921           -1340.00     9800.00
01922           -1360.00     9800.00
01923           -1420.00     9600.00
01924           -1460.00     9600.00
01925           -1520.00     9600.00
01926           -1540.00     9800.00
01927           -1560.00     9400.00
01928           -1580.00     9400.00
01929           -1580.00     9400.00
01930           -1600.00     9200.00
01931           -1580.00     9200.00
01932           -1580.00     9200.00
01933           -1580.00     9200.00
01934           -1540.00     9000.00
01935           -1520.00     9200.00
01936           -1440.00     9000.00
01937           -1440.00     9000.00
01938           -1400.00     8800.00
01939           -1360.00     8600.00
01940           -1320.00     8600.00
01941           -1260.00     8600.00
01942           -1200.00     8400.00
01943           -1140.00     8400.00
01944           -1120.00     8200.00
01945           -1040.00     8200.00
01946           -1020.00     8200.00
01947            -960.00     8200.00
01948            -900.00     7800.00
01949            -860.00     7600.00
01950            -800.00     7800.00
01951            -780.00     7600.00
01952            -740.00     7400.00
01953            -700.00     7400.00
01954            -660.00     7000.00
01955            -600.00     7000.00
01956            -580.00     7000.00
01957            -560.00     6800.00
01958            -540.00     6800.00
01959            -500.00     6600.00
01960            -460.00     6600.00
01961            -460.00     6200.00
01962            -420.00     6200.00
01963            -400.00     6000.00
01964            -380.00     5800.00
01965            -340.00     5800.00
01966            -360.00     5600.00
01967            -340.00     5400.00
01968            -320.00     5200.00
01969            -300.00     5200.00
01970            -280.00     5000.00
01971            -260.00     4800.00
01972            -260.00     4600.00
01973            -240.00     4400.00
01974            -240.00     4200.00
01975            -220.00     4200.00
01976            -220.00     4000.00
01977            -180.00     3800.00
01978            -180.00     3600.00
01979            -180.00     3400.00
01980            -180.00     3400.00
01981            -160.00     3200.00
01982            -160.00     3000.00
01983            -160.00     2800.00
01984            -160.00     2600.00
01985            -160.00     2400.00
01986            -160.00     2200.00
01987            -140.00     2000.00
01988            -100.00     2000.00
01989            -100.00     1800.00
01990            -100.00     1400.00
01991            -100.00     1400.00
01992            -100.00     1200.00
01993            -100.00     1000.00
01994             -80.00     1000.00
01995            -100.00      600.00
01996             -80.00      400.00
01997             -80.00      200.00
01998             -60.00      200.00
01999             -60.00     -200.00
02000             -60.00     -400.00
02001               0.00     -400.00
02002              60.00     -600.00
02003              60.00     -800.00
02004              20.00    -1000.00
02005              20.00    -1000.00
02006              20.00    -1200.00
02007              60.00    -1400.00
02008             180.00    -1600.00
02009             640.00    -1800.00
02010             720.00    -2200.00
02011             -20.00    -2400.00
02012            -660.00    -2600.00
02013            -820.00    -2600.00
02014            -700.00    -2400.00
02015             380.00    -2800.00
02016             400.00    -3400.00
02017            -320.00    -2800.00
02018             260.00    -3600.00
02019             160.00    -3600.00
02020            -100.00    -3400.00
02021             240.00    -4200.00
02022             -60.00    -4000.00
02023             160.00    -4200.00
02024             320.00    -4600.00
02025            -100.00    -4400.00
02026             -60.00    -4800.00
02027              80.00    -4800.00
02028             160.00    -5000.00
02029              60.00    -5200.00
02030             140.00    -5200.00
02031             100.00    -5800.00
02032               0.00    -5600.00
02033             240.00    -5800.00
02034             160.00    -6000.00
02035              60.00    -6000.00
02036             160.00    -6200.00
02037             160.00    -6200.00
02038             160.00    -6600.00
02039             100.00    -6600.00
02040             160.00    -6800.00
02041             240.00    -7000.00
02042             180.00    -7000.00
02043             160.00    -7200.00
02044             180.00    -7400.00
02045             220.00    -7400.00
02046             220.00    -7600.00
02047             240.00    -7800.00
02048             220.00    -7600.00
02049             220.00    -7800.00
02050             260.00    -7800.00
02051             300.00    -8200.00
02052             260.00    -8200.00
02053             300.00    -8400.00
02054             320.00    -8400.00
02055             300.00    -8400.00
02056             300.00    -8600.00
02057             320.00    -8600.00
02058             360.00    -8600.00
02059             360.00    -8800.00
02060             360.00    -9000.00
02061             380.00    -9000.00
02062             400.00    -9000.00
02063             420.00    -9000.00
02064             480.00    -9200.00
02065             460.00    -9200.00
02066             480.00    -9400.00
02067             500.00    -9200.00
02068             500.00    -9400.00
02069             540.00    -9400.00
02070             580.00    -9400.00
02071             620.00    -9400.00
02072             640.00    -9400.00
02073             640.00    -9600.00
02074             700.00    -9600.00
02075             700.00    -9800.00
02076             740.00    -9800.00
02077             800.00    -9800.00
02078             820.00    -9800.00
02079             860.00    -9800.00
02080             900.00    -9600.00
02081             940.00    -9800.00
02082             980.00    -9800.00
02083            1040.00    -9800.00
02084            1100.00    -9800.00
02085            1180.00    -9800.00
02086            1200.00    -9800.00
02087            1260.00    -9800.00
02088            1300.00    -9800.00
02089            1360.00    -9800.00
02090            1420.00    -9600.00
02091            1500.00    -9800.00
02092            1500.00    -9600.00
02093            1520.00    -9600.00
02094            1560.00    -9400.00
02095            1580.00    -9400.00
02096            1580.00    -9400.00
02097            1600.00    -9200.00
02098            1600.00    -9400.00
02099            1600.00    -9400.00
02100            1560.00    -9200.00
02101            1520.00    -9200.00
02102            1500.00    -9000.00
02103            1500.00    -9000.00
02104            1460.00    -9000.00
02105            1420.00    -9000.00
02106            1360.00    -8800.00
02107            1300.00    -9000.00
02108            1260.00    -8600.00
02109            1200.00    -8600.00
02110            1180.00    -8600.00
02111            1120.00    -8400.00
02112            1060.00    -8200.00
02113            1020.00    -8200.00
02114             940.00    -8200.00
02115             920.00    -7800.00
02116             860.00    -7800.00
02117             800.00    -7800.00
02118             800.00    -7600.00
02119             720.00    -7400.00
02120             700.00    -7200.00
02121             640.00    -7200.00
02122             620.00    -7000.00
02123             580.00    -7000.00
02124             560.00    -6800.00
02125             540.00    -6800.00
02126             480.00    -6600.00
02127             460.00    -6600.00
02128             440.00    -6200.00
02129             400.00    -6200.00
02130             400.00    -6200.00
02131             380.00    -6000.00
02132             360.00    -5800.00
02133             340.00    -5800.00
02134             320.00    -5400.00
02135             300.00    -5200.00
02136             300.00    -5200.00
02137             280.00    -5000.00
02138             300.00    -5000.00
02139             260.00    -4600.00
02140             220.00    -4600.00
02141             220.00    -4400.00
02142             220.00    -4200.00
02143             220.00    -4200.00
02144             220.00    -3800.00
02145             220.00    -3600.00
02146             180.00    -3400.00
02147             180.00    -3200.00
02148             160.00    -3200.00
02149             160.00    -3000.00
02150             160.00    -2800.00
02151             140.00    -2800.00
02152             140.00    -2400.00
02153             140.00    -2200.00
02154             140.00    -2200.00
02155             120.00    -2000.00
02156             120.00    -1800.00
02157             100.00    -1800.00
02158             100.00    -1400.00
02159             100.00    -1200.00
02160              80.00    -1000.00
02161              80.00     -800.00
02162             100.00     -600.00
02163              80.00     -600.00
02164              80.00     -400.00
02165              80.00     -400.00
02166              60.00      200.00
02167              80.00      200.00
02168             100.00      400.00
02169             160.00      600.00
02170             160.00      600.00
02171             140.00     1000.00
02172             120.00     1000.00
02173             100.00     1200.00
02174             140.00     1400.00
02175             360.00     1800.00
02176             980.00     2000.00
02177             720.00     2000.00
02178            -340.00     2200.00
02179           -1040.00     2200.00
02180           -1140.00     2200.00
02181             140.00     3000.00
02182             900.00     2800.00
02183            -340.00     2800.00
02184               0.00     3400.00
02185             400.00     3000.00
02186            -320.00     3800.00
02187              60.00     3800.00
02188             -20.00     3400.00
02189              60.00     4400.00
02190             380.00     3800.00
02191            -380.00     4200.00
02192             -80.00     5000.00
02193              60.00     4400.00
02194            -240.00     5000.00
02195              60.00     5000.00
02196             -20.00     5200.00
02197             -20.00     5600.00
02198            -200.00     5000.00
02199             -60.00     6000.00
02200              60.00     5800.00
02201            -260.00     5800.00
02202             -20.00     6200.00
02203             -80.00     6000.00
02204            -160.00     6600.00
02205            -160.00     6400.00
02206            -160.00     6800.00
02207             -80.00     6800.00
02208            -140.00     6600.00
02209            -120.00     7000.00
02210            -180.00     7200.00
02211            -160.00     7400.00
02212            -200.00     7400.00
02213            -160.00     7600.00
02214            -180.00     7600.00
02215            -240.00     7600.00
02216            -220.00     8000.00
02217            -260.00     7800.00
02218            -240.00     8200.00
02219            -240.00     8000.00
02220            -240.00     8400.00
02221            -320.00     8400.00
02222            -320.00     8400.00
02223            -300.00     8600.00
02224            -320.00     8600.00
02225            -320.00     8600.00
02226            -340.00     8600.00
02227            -400.00     9000.00
02228            -400.00     8800.00
02229            -380.00     9000.00
02230            -400.00     9200.00
02231            -420.00     9200.00
02232            -460.00     9200.00
02233            -480.00     9400.00
02234            -500.00     9200.00
02235            -540.00     9400.00
02236            -520.00     9400.00
02237            -560.00     9600.00
02238            -580.00     9600.00
02239            -620.00     9400.00
02240            -660.00     9600.00
02241            -700.00     9800.00
02242            -700.00     9800.00
02243            -720.00     9800.00
02244            -780.00     9800.00
02245            -820.00     9800.00
02246            -860.00     9800.00
02247            -880.00     9800.00
02248            -960.00     9800.00
02249            -980.00     9800.00
02250           -1040.00     9800.00
02251           -1060.00     9800.00
02252           -1140.00     9800.00
02253           -1200.00     9800.00
02254           -1260.00     9800.00
02255           -1340.00     9800.00
02256           -1360.00     9600.00
02257           -1380.00     9800.00
02258           -1440.00     9600.00
02259           -1500.00     9400.00
02260           -1520.00     9400.00
02261           -1540.00     9600.00
02262           -1580.00     9400.00
02263           -1600.00     9400.00
02264           -1580.00     9400.00
02265           -1600.00     9400.00
02266           -1580.00     9400.00
02267           -1560.00     9200.00
02268           -1540.00     9200.00
02269           -1540.00     9000.00
02270           -1500.00     9200.00
02271           -1440.00     9000.00
02272           -1420.00     9000.00
02273           -1380.00     8600.00
02274           -1320.00     8600.00
02275           -1280.00     8600.00
02276           -1220.00     8600.00
02277           -1180.00     8600.00
02278           -1120.00     8400.00
02279           -1060.00     8400.00
02280           -1040.00     8200.00
02281            -980.00     8200.00
02282            -940.00     8000.00
02283            -880.00     7800.00
02284            -820.00     7800.00
02285            -780.00     7800.00
02286            -740.00     7400.00
02287            -720.00     7400.00
02288            -680.00     7400.00
02289            -640.00     7200.00
02290            -580.00     7000.00
02291            -560.00     7000.00
02292            -540.00     6800.00
02293            -500.00     6600.00
02294            -480.00     6600.00
02295            -460.00     6200.00
02296            -420.00     6200.00
02297            -400.00     6200.00
02298            -380.00     6000.00
02299            -380.00     5800.00
02300            -340.00     5600.00
02301            -340.00     5600.00
02302            -320.00     5600.00
02303            -300.00     5200.00
02304            -260.00     5000.00
02305            -260.00     5000.00
02306            -260.00     4600.00
02307            -260.00     4600.00
02308            -240.00     4400.00
02309            -220.00     4400.00
02310            -220.00     4200.00
02311            -180.00     3800.00
02312            -180.00     3800.00
02313            -180.00     3600.00
02314            -180.00     3400.00
02315            -180.00     3400.00
02316            -160.00     3000.00
02317            -140.00     3000.00
02318            -160.00     2600.00
02319            -140.00     2600.00
02320            -160.00     2400.00
02321            -160.00     2000.00
02322            -100.00     2000.00
02323            -100.00     1800.00
02324            -100.00     1800.00
02325            -100.00     1400.00
02326            -100.00     1400.00
02327            -100.00     1200.00
02328            -100.00      800.00
02329            -100.00      800.00
02330             -80.00      600.00
02331             -80.00      400.00
02332             -80.00      200.00
02333             -80.00        0.00
02334             -60.00     -200.00
02335             -20.00     -400.00
02336              60.00     -600.00
02337              60.00     -600.00
02338              20.00     -800.00
02339              20.00    -1000.00
02340              20.00    -1000.00
02341              20.00    -1200.00
02342             100.00    -1400.00
02343             420.00    -1400.00
02344             820.00    -2000.00
02345             380.00    -2400.00
02346            -440.00    -2600.00
02347            -760.00    -2800.00
02348            -860.00    -2600.00
02349            -160.00    -2600.00
02350             640.00    -3000.00
02351            -100.00    -3000.00
02352             -80.00    -3000.00
02353             400.00    -3800.00
02354            -100.00    -3200.00
02355             140.00    -3800.00
02356              60.00    -4200.00
02357             -60.00    -4000.00
02358             460.00    -4400.00
02359             140.00    -4400.00
02360             -80.00    -4800.00
02361              60.00    -4800.00
02362             100.00    -4800.00
02363              60.00    -5400.00
02364             -20.00    -5200.00
02365             100.00    -5400.00
02366              40.00    -5400.00
02367             180.00    -5800.00
02368             300.00    -6000.00
02369              80.00    -6000.00
02370             140.00    -6200.00
02371             180.00    -6200.00
02372             160.00    -6400.00
02373             100.00    -6800.00
02374             120.00    -6600.00
02375             180.00    -6800.00
02376             180.00    -7000.00
02377             160.00    -7000.00
02378             200.00    -7400.00
02379             240.00    -7200.00
02380             220.00    -7600.00
02381             240.00    -7400.00
02382             220.00    -7800.00
02383             160.00    -7800.00
02384             220.00    -7800.00
02385             240.00    -8000.00
02386             260.00    -8200.00
02387             260.00    -8400.00
02388             320.00    -8400.00
02389             320.00    -8400.00
02390             320.00    -8400.00
02391             340.00    -8600.00
02392             360.00    -8600.00
02393             340.00    -9000.00
02394             320.00    -9000.00
02395             340.00    -9000.00
02396             380.00    -9000.00
02397             420.00    -9000.00
02398             480.00    -9200.00
02399             500.00    -9200.00
02400             480.00    -9200.00
02401             480.00    -9400.00
02402             480.00    -9400.00
02403             500.00    -9400.00
02404             540.00    -9400.00
02405             580.00    -9400.00
02406             620.00    -9600.00
02407             640.00    -9400.00
02408             700.00    -9400.00
02409             700.00    -9800.00
02410             740.00    -9800.00
02411             780.00    -9800.00
02412             800.00    -9800.00
02413             820.00    -9800.00
02414             860.00    -9800.00
02415             940.00    -9800.00
02416             960.00    -9800.00
02417            1020.00    -9800.00
02418            1100.00    -9800.00
02419            1140.00    -9800.00
02420            1200.00    -9800.00
02421            1240.00    -9800.00
02422            1300.00    -9600.00
02423            1340.00    -9800.00
02424            1420.00    -9800.00
02425            1460.00    -9400.00
02426            1500.00    -9600.00
02427            1520.00    -9600.00
02428            1540.00    -9600.00
02429            1580.00    -9400.00
02430            1580.00    -9400.00
02431            1600.00    -9400.00
02432            1600.00    -9400.00
02433            1600.00    -9200.00
02434            1580.00    -9200.00
02435            1580.00    -9200.00
02436            1520.00    -9000.00
02437            1500.00    -9000.00
02438            1500.00    -9000.00
02439            1440.00    -8800.00
02440            1420.00    -9000.00
02441            1340.00    -8800.00
02442            1280.00    -8600.00
02443            1220.00    -8600.00
02444            1200.00    -8600.00
02445            1140.00    -8400.00
02446            1100.00    -8400.00
02447            1020.00    -8400.00
02448             980.00    -8200.00
02449             940.00    -7800.00
02450             880.00    -8000.00
02451             860.00    -7800.00
02452             800.00    -7600.00
02453             740.00    -7600.00
02454             700.00    -7400.00
02455             660.00    -7200.00
02456             640.00    -7200.00
02457             620.00    -7000.00
02458             560.00    -7000.00
02459             540.00    -6800.00
02460             500.00    -6800.00
02461             480.00    -6600.00
02462             420.00    -6200.00
02463             420.00    -6200.00
02464             400.00    -6200.00
02465             400.00    -6000.00
02466             380.00    -6000.00
02467             340.00    -5800.00
02468             320.00    -5400.00
02469             300.00    -5400.00
02470             300.00    -5400.00
02471             280.00    -5000.00
02472             280.00    -5000.00
02473             260.00    -4800.00
02474             240.00    -4600.00
02475             220.00    -4400.00
02476             220.00    -4200.00
02477             220.00    -4200.00
02478             200.00    -3800.00
02479             180.00    -3800.00
02480             180.00    -3600.00
02481             180.00    -3400.00
02482             160.00    -3400.00
02483             160.00    -3000.00
02484             160.00    -3000.00
02485             140.00    -2800.00
02486             160.00    -2600.00
02487             140.00    -2400.00
02488             100.00    -2200.00
02489             140.00    -2200.00
02490             100.00    -1800.00
02491             140.00    -1800.00
02492             100.00    -1600.00
02493             100.00    -1400.00
02494             100.00    -1000.00
02495              80.00     -800.00
02496              80.00     -800.00
02497             100.00     -600.00
02498              80.00     -400.00
02499              80.00     -200.00
02500              80.00        0.00
02501              80.00      200.00
02502              80.00      400.00
02503             140.00      400.00
02504             160.00      600.00
02505             160.00     1000.00
02506             140.00     1000.00
02507             120.00     1000.00
02508             100.00     1200.00
02509             180.00     1400.00
02510             720.00     1800.00
02511             980.00     2000.00
02512             160.00     2000.00
02513            -800.00     2200.00
02514           -1200.00     2200.00
02515            -640.00     2800.00
02516             860.00     3000.00
02517             220.00     2600.00
02518            -420.00     3400.00
02519             420.00     3000.00
02520             -20.00     3400.00
02521            -220.00     4200.00
02522             140.00     3400.00
02523            -100.00     4200.00
02524             340.00     4400.00
02525             -60.00     3800.00
02526            -380.00     5000.00
02527             140.00     4600.00
02528            -180.00     4600.00
02529             -60.00     5200.00
02530              60.00     5000.00
02531             -60.00     5600.00
02532            -100.00     5200.00
02533            -180.00     5400.00
02534             100.00     6000.00
02535            -160.00     5600.00
02536            -160.00     6200.00
02537               0.00     6000.00
02538            -140.00     6200.00
02539            -140.00     6600.00
02540            -220.00     6600.00
02541            -100.00     7000.00
02542            -100.00     6600.00
02543            -140.00     6800.00
02544            -160.00     7000.00
02545            -160.00     7200.00
02546            -180.00     7400.00
02547            -220.00     7400.00
02548            -160.00     7600.00
02549            -240.00     7600.00
02550            -240.00     7800.00
02551            -260.00     8000.00
02552            -220.00     8200.00
02553            -240.00     8000.00
02554            -240.00     8200.00
02555            -300.00     8400.00
02556            -340.00     8400.00
02557            -300.00     8600.00
02558            -320.00     8600.00
02559            -320.00     8600.00
02560            -320.00     9000.00
02561            -380.00     9000.00
02562            -400.00     9000.00
02563            -380.00     9000.00
02564            -380.00     9200.00
02565            -420.00     9400.00
02566            -440.00     9200.00
02567            -480.00     9400.00
02568            -480.00     9400.00
02569            -540.00     9400.00
02570            -540.00     9400.00
02571            -540.00     9400.00
02572            -560.00     9400.00
02573            -580.00     9600.00
02574            -640.00     9600.00
02575            -680.00     9800.00
02576            -720.00     9800.00
02577            -700.00     9600.00
02578            -740.00     9800.00
02579            -800.00     9800.00
02580            -820.00     9800.00
02581            -880.00     9800.00
02582            -920.00     9800.00
02583            -980.00     9800.00
02584           -1020.00     9800.00
02585           -1060.00     9800.00
02586           -1120.00     9800.00
02587           -1180.00     9800.00
02588           -1220.00     9600.00
02589           -1300.00     9800.00
02590           -1360.00     9800.00
02591           -1380.00     9400.00
02592           -1420.00     9600.00
02593           -1500.00     9600.00
02594           -1520.00     9800.00
02595           -1540.00     9800.00
02596           -1560.00     9600.00
02597           -1580.00     9400.00
02598           -1600.00     9400.00
02599           -1600.00     9200.00
02600           -1580.00     9400.00
02601           -1600.00     9200.00
02602           -1560.00     9200.00
02603           -1540.00     9200.00
02604           -1520.00     9000.00
02605           -1460.00     9000.00
02606           -1440.00     8800.00
02607           -1380.00     8800.00
02608           -1360.00     8600.00
02609           -1300.00     8600.00
02610           -1220.00     8600.00
02611           -1200.00     8600.00
02612           -1140.00     8400.00
02613           -1100.00     8400.00
02614           -1040.00     8400.00
02615            -980.00     8200.00
02616            -960.00     8200.00
02617            -900.00     7800.00
02618            -860.00     7800.00
02619            -800.00     7600.00
02620            -740.00     7800.00
02621            -720.00     7400.00
02622            -700.00     7200.00
02623            -640.00     7200.00
02624            -600.00     7000.00
02625            -580.00     7000.00
02626            -560.00     6800.00
02627            -520.00     6600.00
02628            -480.00     6600.00
02629            -480.00     6600.00
02630            -420.00     6200.00
02631            -420.00     6200.00
02632            -400.00     6000.00
02633            -380.00     5800.00
02634            -340.00     5800.00
02635            -340.00     5600.00
02636            -320.00     5400.00
02637            -320.00     5400.00
02638            -300.00     5200.00
02639            -300.00     5000.00
02640            -260.00     5000.00
02641            -260.00     4800.00
02642            -240.00     4400.00
02643            -240.00     4400.00
02644            -220.00     4200.00
02645            -220.00     4000.00
02646            -220.00     3800.00
02647            -180.00     3600.00
02648            -180.00     3400.00
02649            -160.00     3400.00
02650            -180.00     3200.00
02651            -160.00     3000.00
02652            -160.00     2800.00
02653            -160.00     2600.00
02654            -160.00     2200.00
02655            -160.00     2200.00
02656            -140.00     2000.00
02657            -100.00     1800.00
02658            -120.00     1800.00
02659            -100.00     1400.00
02660            -100.00     1400.00
02661            -100.00     1200.00
02662            -100.00     1000.00
02663            -100.00      800.00
02664             -80.00      600.00
02665             -80.00      600.00
02666             -60.00      200.00
02667             -80.00        0.00
02668             -60.00     -200.00
02669             -20.00     -400.00
02670               0.00     -400.00
02671              60.00     -600.00
02672              60.00     -800.00
02673              20.00    -1000.00
02674              20.00    -1200.00
02675               0.00    -1200.00
02676              40.00    -1200.00
02677             220.00    -1600.00
02678             720.00    -1800.00
02679             700.00    -2200.00
02680             -80.00    -2200.00
02681            -660.00    -2600.00
02682            -820.00    -2600.00
02683            -640.00    -2400.00
02684             460.00    -2800.00
02685             300.00    -3400.00
02686            -320.00    -2800.00
02687             320.00    -3600.00
02688             140.00    -3400.00
02689             -60.00    -3400.00
02690             240.00    -4200.00
02691             -60.00    -3800.00
02692             240.00    -4200.00
02693             300.00    -4400.00
02694            -120.00    -4400.00
02695             -60.00    -5000.00
02696              80.00    -4600.00
02697             160.00    -5200.00
02698              60.00    -5200.00
02699             140.00    -5400.00
02700             100.00    -5800.00
02701              20.00    -5400.00
02702             240.00    -5800.00
02703             140.00    -5800.00
02704              60.00    -6000.00
02705             160.00    -6400.00
02706             180.00    -6200.00
02707             140.00    -6600.00
02708             100.00    -6600.00
02709             160.00    -6800.00
02710             220.00    -7000.00
02711             180.00    -7000.00
02712             160.00    -7200.00
02713             200.00    -7000.00
02714             220.00    -7400.00
02715             220.00    -7600.00
02716             240.00    -7600.00
02717             220.00    -7800.00
02718             220.00    -7800.00
02719             240.00    -8000.00
02720             300.00    -8200.00
02721             240.00    -8400.00
02722             300.00    -8400.00
02723             320.00    -8400.00
02724             300.00    -8600.00
02725             320.00    -8600.00
02726             320.00    -8600.00
02727             360.00    -8600.00
02728             380.00    -9000.00
02729             340.00    -9000.00
02730             380.00    -9000.00
02731             380.00    -9000.00
02732             440.00    -9000.00
02733             480.00    -9200.00
02734             480.00    -9200.00
02735             480.00    -9400.00
02736             500.00    -9400.00
02737             520.00    -9400.00
02738             540.00    -9400.00
02739             580.00    -9400.00
02740             620.00    -9600.00
02741             640.00    -9600.00
02742             660.00    -9800.00
02743             700.00    -9400.00
02744             720.00    -9600.00
02745             780.00    -9800.00
02746             820.00    -9800.00
02747             840.00    -9800.00
02748             860.00    -9800.00
02749             900.00    -9800.00
02750             940.00    -9800.00
02751            1000.00    -9800.00
02752            1040.00    -9800.00
02753            1120.00    -9800.00
02754            1180.00    -9800.00
02755            1220.00    -9600.00
02756            1260.00    -9800.00
02757            1340.00    -9600.00
02758            1360.00    -9800.00
02759            1440.00    -9600.00
02760            1500.00    -9600.00
02761            1500.00    -9600.00
02762            1520.00    -9400.00
02763            1560.00    -9400.00
02764            1600.00    -9400.00
02765            1600.00    -9400.00
02766            1600.00    -9200.00
02767            1600.00    -9400.00
02768            1600.00    -9200.00
02769            1580.00    -9000.00
02770            1540.00    -9200.00
02771            1500.00    -9000.00
02772            1500.00    -9000.00
02773            1460.00    -9000.00
02774            1420.00    -9000.00
02775            1360.00    -8800.00
02776            1300.00    -8600.00
02777            1260.00    -8600.00
02778            1200.00    -8600.00
02779            1160.00    -8400.00
02780            1120.00    -8400.00
02781            1060.00    -8200.00
02782            1000.00    -8200.00
02783             960.00    -8200.00
02784             900.00    -7800.00
02785             860.00    -7800.00
02786             800.00    -7800.00
02787             780.00    -7600.00
02788             720.00    -7400.00
02789             680.00    -7400.00
02790             640.00    -7200.00
02791             620.00    -7000.00
02792             560.00    -7000.00
02793             540.00    -7000.00
02794             540.00    -6800.00
02795             480.00    -6600.00
02796             460.00    -6400.00
02797             420.00    -6600.00
02798             420.00    -6200.00
02799             400.00    -6200.00
02800             380.00    -6200.00
02801             340.00    -5800.00
02802             320.00    -5600.00
02803             320.00    -5400.00
02804             300.00    -5400.00
02805             300.00    -5000.00
02806             300.00    -5200.00
02807             260.00    -5000.00
02808             240.00    -4800.00
02809             220.00    -4600.00
02810             220.00    -4400.00
02811             240.00    -4200.00
02812             220.00    -4200.00
02813             220.00    -3800.00
02814             180.00    -3600.00
02815             160.00    -3600.00
02816             180.00    -3400.00
02817             160.00    -3000.00
02818             160.00    -3000.00
02819             160.00    -2800.00
02820             160.00    -2600.00
02821             140.00    -2400.00
02822             140.00    -2200.00
02823             140.00    -2200.00
02824             140.00    -1800.00
02825             100.00    -1800.00
02826             120.00    -1400.00
02827             100.00    -1400.00
02828             100.00    -1200.00
02829              80.00    -1200.00
02830              80.00     -800.00
02831             100.00     -600.00
02832             100.00     -600.00
02833              80.00     -400.00
02834              80.00     -200.00
02835              80.00      200.00
02836              80.00      200.00
02837             120.00      200.00
02838             160.00      600.00
02839             160.00      800.00
02840             140.00      800.00
02841             100.00     1000.00
02842             100.00     1200.00
02843             140.00     1400.00
02844             420.00     1600.00
02845            1020.00     2000.00
02846             620.00     2000.00
02847            -420.00     2200.00
02848           -1060.00     2000.00
02849           -1120.00     2200.00
02850             240.00     3000.00
02851             820.00     2800.00
02852            -420.00     3000.00
02853              60.00     3200.00
02854             320.00     3000.00
02855            -340.00     4000.00
02856              80.00     3800.00
02857             -80.00     3600.00
02858             100.00     4600.00
02859             320.00     3800.00
02860            -400.00     4200.00
02861             -20.00     5000.00
02862               0.00     4600.00
02863            -220.00     5200.00
02864              60.00     4800.00
02865             -60.00     5200.00
02866             -40.00     5600.00
02867            -220.00     5000.00
02868             -20.00     6200.00
02869               0.00     5600.00
02870            -260.00     5800.00
02871             -20.00     6200.00
02872            -100.00     6000.00
02873            -140.00     6600.00
02874            -160.00     6200.00
02875            -160.00     6800.00
02876             -80.00     6800.00
02877            -140.00     6600.00
02878            -140.00     7000.00
02879            -180.00     7000.00
02880            -180.00     7400.00
02881            -220.00     7400.00
02882            -160.00     7600.00
02883            -180.00     7600.00
02884            -240.00     7800.00
02885            -220.00     8000.00
02886            -260.00     7800.00
02887            -220.00     8200.00
02888            -240.00     8200.00
02889            -240.00     8400.00
02890            -320.00     8400.00
02891            -320.00     8400.00
02892            -300.00     8600.00
02893            -320.00     8600.00
02894            -320.00     8600.00
02895            -340.00     9000.00
02896            -400.00     9000.00
02897            -400.00     9000.00
02898            -380.00     9000.00
02899            -400.00     9000.00
02900            -420.00     9200.00
02901            -480.00     9400.00
02902            -480.00     9400.00
02903            -500.00     9400.00
02904            -520.00     9400.00
02905            -520.00     9400.00
02906            -560.00     9400.00
02907            -580.00     9600.00
02908            -600.00     9400.00
02909            -660.00     9800.00
02910            -700.00     9800.00
02911            -720.00     9800.00
02912            -720.00     9800.00
02913            -780.00     9800.00
02914            -840.00     9800.00
02915            -880.00     9800.00
02916            -900.00     9800.00
02917            -960.00     9800.00
02918            -980.00     9800.00
02919           -1040.00     9800.00
02920           -1100.00     9800.00
02921           -1140.00     9800.00
02922           -1200.00     9800.00
02923           -1280.00     9800.00
02924           -1320.00     9800.00
02925           -1380.00     9800.00
02926           -1400.00     9800.00
02927           -1440.00     9600.00
02928           -1500.00     9600.00
02929           -1540.00     9600.00
02930           -1540.00     9400.00
02931           -1600.00     9400.00
02932           -1580.00     9400.00
02933           -1580.00     9400.00
02934           -1600.00     9400.00
02935           -1580.00     9400.00
02936           -1580.00     9200.00
02937           -1560.00     9200.00
02938           -1540.00     9000.00
02939           -1460.00     9000.00
02940           -1440.00     9000.00
02941           -1420.00     9000.00
02942           -1380.00     8600.00
02943           -1320.00     8600.00
02944           -1280.00     8600.00
02945           -1220.00     8400.00
02946           -1140.00     8600.00
02947           -1120.00     8400.00
02948           -1060.00     8200.00
02949           -1040.00     8200.00
02950            -980.00     8200.00
02951            -900.00     8000.00
02952            -860.00     7800.00
02953            -800.00     7600.00
02954            -760.00     7800.00
02955            -740.00     7600.00
02956            -720.00     7400.00
02957            -660.00     7200.00
02958            -640.00     7200.00
02959            -580.00     7000.00
02960            -560.00     6800.00
02961            -540.00     6800.00
02962            -500.00     6600.00
02963            -480.00     6600.00
02964            -460.00     6400.00
02965            -420.00     6200.00
02966            -420.00     6000.00
02967            -380.00     6000.00
02968            -360.00     5800.00
02969            -340.00     5600.00
02970            -340.00     5600.00
02971            -320.00     5400.00
02972            -300.00     5200.00
02973            -280.00     5000.00
02974            -260.00     5000.00
02975            -260.00     4600.00
02976            -260.00     4600.00
02977            -240.00     4400.00
02978            -240.00     4200.00
02979            -240.00     4000.00
02980            -220.00     3800.00
02981            -220.00     3800.00
02982            -180.00     3600.00
02983            -180.00     3400.00
02984            -160.00     3200.00
02985            -160.00     3000.00
02986            -160.00     3000.00
02987            -160.00     2800.00
02988            -160.00     2400.00
02989            -160.00     2200.00
02990            -140.00     2200.00
02991            -140.00     1800.00
02992            -100.00     1800.00
02993            -100.00     1600.00
02994            -100.00     1400.00
02995            -100.00     1200.00
02996            -100.00     1000.00
02997            -100.00     1000.00
02998            -100.00      600.00
02999            -100.00      600.00
03000             -80.00      400.00
03001             -80.00      200.00
03002             -80.00        0.00
03003             -60.00     -200.00
03004               0.00     -200.00
03005              60.00     -400.00
03006              60.00     -600.00
03007              40.00     -600.00
03008               0.00    -1000.00
03009              20.00    -1200.00
03010              40.00    -1400.00
03011             100.00    -1400.00
03012             480.00    -1600.00
03013             860.00    -2200.00
03014             320.00    -2400.00
03015            -480.00    -2400.00
03016            -780.00    -2600.00
03017            -820.00    -2400.00
03018             -80.00    -2600.00
03019             640.00    -3000.00
03020            -200.00    -3000.00
03021               0.00    -3400.00
03022             380.00    -3800.00
03023            -120.00    -3400.00
03024             180.00    -3800.00
03025              80.00    -4200.00
03026               0.00    -4000.00
03027             380.00    -4400.00
03028              40.00    -4400.00
03029            -140.00    -4800.00
03030              40.00    -4600.00
03031             140.00    -5000.00
03032             100.00    -5400.00
03033             100.00    -5200.00
03034             160.00    -5400.00
03035              20.00    -5400.00
03036             140.00    -5800.00
03037             240.00    -6000.00
03038              60.00    -5800.00
03039             140.00    -6200.00
03040             180.00    -6200.00
03041             160.00    -6400.00
03042             100.00    -6600.00
03043             100.00    -6600.00
03044             220.00    -7000.00
03045             200.00    -7000.00
03046             160.00    -7200.00
03047             180.00    -7400.00
03048             220.00    -7200.00
03049             220.00    -7600.00
03050             220.00    -7600.00
03051             220.00    -7800.00
03052             220.00    -7800.00
03053             240.00    -7800.00
03054             260.00    -8000.00
03055             280.00    -8200.00
03056             260.00    -8200.00
03057             320.00    -8400.00
03058             300.00    -8400.00
03059             300.00    -8600.00
03060             320.00    -8600.00
03061             360.00    -8800.00
03062             340.00    -8800.00
03063             360.00    -9000.00
03064             380.00    -9000.00
03065             380.00    -9000.00
03066             420.00    -9200.00
03067             460.00    -9200.00
03068             480.00    -9200.00
03069             480.00    -9200.00
03070             480.00    -9200.00
03071             500.00    -9400.00
03072             540.00    -9400.00
03073             560.00    -9400.00
03074             620.00    -9400.00
03075             640.00    -9400.00
03076             640.00    -9400.00
03077             660.00    -9600.00
03078             700.00    -9600.00
03079             740.00    -9800.00
03080             800.00    -9600.00
03081             820.00    -9800.00
03082             860.00    -9800.00
03083             880.00    -9800.00
03084             960.00    -9800.00
03085             980.00    -9800.00
03086            1020.00    -9800.00
03087            1100.00    -9600.00
03088            1140.00    -9800.00
03089            1180.00    -9600.00
03090            1260.00    -9800.00
03091            1280.00    -9800.00
03092            1340.00    -9600.00
03093            1420.00    -9800.00
03094            1460.00    -9600.00
03095            1500.00    -9600.00
03096            1520.00    -9800.00
03097            1560.00    -9600.00
03098            1580.00    -9400.00
03099            1580.00    -9400.00
03100            1600.00    -9400.00
03101            1620.00    -9400.00
03102            1600.00    -9400.00
03103            1580.00    -9200.00
03104            1540.00    -9200.00
03105            1520.00    -9200.00
03106            1500.00    -9200.00
03107            1460.00    -9200.00
03108            1440.00    -8800.00
03109            1380.00    -9000.00
03110            1300.00    -8800.00
03111            1280.00    -8600.00
03112            1220.00    -8600.00
03113            1180.00    -8600.00
03114            1140.00    -8400.00
03115            1080.00    -8400.00
03116            1020.00    -8200.00
03117             960.00    -8200.00
03118             940.00    -8200.00
03119             860.00    -7800.00
03120             840.00    -7800.00
03121             780.00    -7600.00
03122             720.00    -7600.00
03123             700.00    -7400.00
03124             640.00    -7200.00
03125             620.00    -7200.00
03126             600.00    -7000.00
03127             560.00    -6800.00
03128             540.00    -6800.00
03129             500.00    -6800.00
03130             480.00    -6600.00
03131             460.00    -6400.00
03132             420.00    -6400.00
03133             400.00    -6200.00
03134             380.00    -6000.00
03135             380.00    -5800.00
03136             340.00    -5600.00
03137             320.00    -5400.00
03138             320.00    -5400.00
03139             300.00    -5200.00
03140             300.00    -5200.00
03141             260.00    -5000.00
03142             240.00    -4800.00
03143             240.00    -4600.00
03144             220.00    -4400.00
03145             220.00    -4200.00
03146             220.00    -4200.00
03147             220.00    -3800.00
03148             180.00    -3800.00
03149             180.00    -3600.00
03150             180.00    -3400.00
03151             160.00    -3400.00
03152             160.00    -3000.00
03153             160.00    -3000.00
03154             160.00    -2600.00
03155             140.00    -2600.00
03156             140.00    -2400.00
03157             140.00    -2200.00
03158             140.00    -2000.00
03159             140.00    -2000.00
03160             140.00    -1600.00
03161             140.00    -1400.00
03162              80.00    -1200.00
03163             100.00    -1200.00
03164              80.00     -800.00
03165              80.00     -600.00
03166              80.00     -600.00
03167              80.00     -400.00
03168              80.00     -200.00
03169              80.00        0.00
03170              80.00      200.00
03171             100.00      200.00
03172             160.00      600.00
03173             160.00      600.00
03174             140.00      800.00
03175             120.00     1000.00
03176             100.00     1200.00
03177             100.00     1200.00
03178             220.00     1400.00
03179             800.00     1800.00
03180             960.00     1800.00
03181              60.00     2200.00
03182            -880.00     2000.00
03183           -1220.00     2200.00
03184            -500.00     2800.00
03185             900.00     3000.00
03186              80.00     2600.00
03187            -380.00     3400.00
03188             460.00     3000.00
03189            -120.00     3400.00
03190            -180.00     4200.00
03191             100.00     3400.00
03192            -120.00     4200.00
03193             380.00     4400.00
03194            -100.00     3800.00
03195            -320.00     5000.00
03196             160.00     4600.00
03197            -220.00     4800.00
03198             -20.00     5200.00
03199              20.00     4800.00
03200             -60.00     5800.00
03201            -100.00     5200.00
03202            -180.00     5600.00
03203             100.00     6000.00
03204            -180.00     5800.00
03205            -140.00     6200.00
03206               0.00     6200.00
03207            -140.00     6200.00
03208            -140.00     6600.00
03209            -180.00     6600.00
03210             -80.00     7000.00
03211            -100.00     6600.00
03212            -140.00     7000.00
03213            -160.00     7200.00
03214            -180.00     7400.00
03215            -200.00     7400.00
03216            -180.00     7400.00
03217            -140.00     7800.00
03218            -240.00     7800.00
03219            -220.00     7800.00
03220            -240.00     7800.00
03221            -240.00     8200.00
03222            -240.00     8200.00
03223            -240.00     8400.00
03224            -260.00     8400.00
03225            -340.00     8400.00
03226            -300.00     8600.00
03227            -320.00     8600.00
03228            -300.00     8800.00
03229            -340.00     9000.00
03230            -380.00     9000.00
03231            -400.00     9000.00
03232            -380.00     9000.00
03233            -380.00     9000.00
03234            -420.00     9200.00
03235            -460.00     9200.00
03236            -480.00     9400.00
03237            -500.00     9200.00
03238            -560.00     9400.00
03239            -540.00     9400.00
03240            -560.00     9400.00
03241            -580.00     9600.00
03242            -620.00     9600.00
03243            -640.00     9800.00
03244            -700.00     9600.00
03245            -720.00     9800.00
03246            -720.00     9800.00
03247            -740.00     9600.00
03248            -820.00     9800.00
03249            -860.00     9800.00
03250            -880.00     9800.00
03251            -940.00     9800.00
03252            -960.00     9800.00
03253           -1020.00     9800.00
03254           -1060.00     9800.00
03255           -1120.00     9800.00
03256           -1180.00     9800.00
03257           -1260.00     9800.00
03258           -1320.00     9800.00
03259           -1360.00     9800.00
03260           -1380.00     9800.00
03261           -1420.00     9800.00
03262           -1480.00     9600.00
03263           -1520.00     9600.00
03264           -1540.00     9400.00
03265           -1580.00     9400.00
03266           -1580.00     9400.00
03267           -1580.00     9200.00
03268           -1580.00     9400.00
03269           -1580.00     9400.00
03270           -1580.00     9200.00
03271           -1540.00     9400.00
03272           -1540.00     9000.00
03273           -1500.00     9000.00
03274           -1440.00     9200.00
03275           -1420.00     8800.00
03276           -1380.00     8800.00
03277           -1360.00     8600.00
03278           -1280.00     8600.00
03279           -1220.00     8600.00
03280           -1180.00     8400.00
03281           -1140.00     8400.00
03282           -1080.00     8400.00
03283           -1040.00     8200.00
03284            -980.00     8200.00
03285            -960.00     8200.00
03286            -880.00     7800.00
03287            -820.00     7800.00
03288            -800.00     7800.00
03289            -740.00     7600.00
03290            -720.00     7600.00
03291            -700.00     7400.00
03292            -640.00     7000.00
03293            -600.00     7000.00
03294            -580.00     7000.00
03295            -540.00     6800.00
03296            -500.00     6600.00
03297            -480.00     6600.00
03298            -460.00     6200.00
03299            -440.00     6200.00
03300            -420.00     6200.00
03301            -400.00     6000.00
03302            -380.00     5800.00
03303            -340.00     5800.00
03304            -340.00     5600.00
03305            -340.00     5400.00
03306            -320.00     5200.00
03307            -300.00     5000.00
03308            -300.00     5000.00
03309            -300.00     4600.00
03310            -260.00     4600.00
03311            -260.00     4600.00
03312            -240.00     4200.00
03313            -240.00     4200.00
03314            -220.00     4000.00
03315            -220.00     3800.00
03316            -220.00     3600.00
03317            -180.00     3600.00
03318            -200.00     3400.00
03319            -180.00     3200.00
03320            -160.00     3000.00
03321            -160.00     2800.00
03322            -160.00     2600.00
03323            -160.00     2400.00
03324            -160.00     2200.00
03325            -140.00     2000.00
03326            -140.00     1800.00
03327            -100.00     1800.00
03328            -100.00     1600.00
03329            -100.00     1400.00
03330            -100.00     1400.00
03331            -100.00     1000.00
03332            -100.00     1000.00
03333            -100.00      600.00
03334             -80.00      600.00
03335             -80.00      400.00
03336             -60.00      200.00
03337             -60.00     -200.00
03338             -20.00     -200.00
03339              20.00     -400.00
03340              60.00     -600.00
03341              60.00     -600.00
03342              20.00    -1000.00
03343               0.00     -800.00
03344              20.00    -1200.00
03345              60.00    -1400.00
03346             260.00    -1400.00
03347             740.00    -1800.00
03348             660.00    -2200.00
03349            -160.00    -2200.00
03350            -700.00    -2600.00
03351            -820.00    -2600.00
03352            -560.00    -2200.00
03353             540.00    -2800.00
03354             220.00    -3400.00
03355            -260.00    -3000.00
03356             360.00    -3600.00
03357              80.00    -3400.00
03358             -20.00    -3400.00
03359             220.00    -4200.00
03360             -80.00    -3800.00
03361             240.00    -4400.00
03362             260.00    -4400.00
03363            -140.00    -4600.00
03364             -20.00    -4800.00
03365              80.00    -4600.00
03366             140.00    -5200.00
03367              60.00    -5200.00
03368             140.00    -5200.00
03369              80.00    -5800.00
03370              20.00    -5400.00
03371             240.00    -5800.00
03372             120.00    -5800.00
03373              60.00    -6200.00
03374             180.00    -6400.00
03375             160.00    -6200.00
03376             140.00    -6600.00
03377              80.00    -6600.00
03378             160.00    -6800.00
03379             220.00    -7000.00
03380             160.00    -7000.00
03381             160.00    -7200.00
03382             180.00    -7200.00
03383             220.00    -7400.00
03384             220.00    -7600.00
03385             240.00    -7600.00
03386             220.00    -7800.00
03387             220.00    -8000.00
03388             260.00    -8200.00
03389             280.00    -8200.00
03390             260.00    -8400.00
03391             300.00    -8400.00
03392             300.00    -8400.00
03393             300.00    -8400.00
03394             320.00    -8600.00
03395             340.00    -8600.00
03396             360.00    -8600.00
03397             380.00    -9000.00
03398             380.00    -9000.00
03399             400.00    -9000.00
03400             400.00    -9000.00
03401             460.00    -9200.00
03402             480.00    -9200.00
03403             480.00    -9200.00
03404             480.00    -9200.00
03405             500.00    -9400.00
03406             540.00    -9400.00
03407             540.00    -9400.00
03408             580.00    -9400.00
03409             620.00    -9400.00
03410             660.00    -9600.00
03411             660.00    -9400.00
03412             720.00    -9600.00
03413             720.00    -9800.00
03414             780.00    -9600.00
03415             800.00    -9800.00
03416             860.00    -9800.00
03417             860.00    -9800.00
03418             900.00    -9800.00
03419             960.00    -9800.00
03420            1020.00    -9800.00
03421            1060.00    -9600.00
03422            1120.00    -9800.00
03423            1180.00    -9800.00
03424            1220.00    -9800.00
03425            1280.00    -9600.00
03426            1340.00    -9600.00
03427            1380.00    -9800.00
03428            1440.00    -9400.00
03429            1500.00    -9600.00
03430            1520.00    -9600.00
03431            1540.00    -9400.00
03432            1580.00    -9400.00
03433            1580.00    -9400.00
03434            1580.00    -9400.00
03435            1600.00    -9400.00
03436            1600.00    -9400.00
03437            1580.00    -9400.00
03438            1540.00    -9200.00
03439            1520.00    -9200.00
03440            1500.00    -9200.00
03441            1460.00    -9000.00
03442            1460.00    -9000.00
03443            1380.00    -8800.00
03444            1360.00    -8800.00
03445            1280.00    -8600.00
03446            1260.00    -8600.00
03447            1180.00    -8600.00
03448            1140.00    -8400.00
03449            1120.00    -8400.00
03450            1040.00    -8200.00
03451             980.00    -8200.00
03452             960.00    -8200.00
03453             880.00    -8000.00
03454             860.00    -7800.00
03455             800.00    -7800.00
03456             760.00    -7600.00
03457             720.00    -7400.00
03458             680.00    -7200.00
03459             640.00    -7200.00
03460             620.00    -7000.00
03461             580.00    -7000.00
03462             540.00    -7000.00
03463             520.00    -6600.00
03464             480.00    -6600.00
03465             460.00    -6400.00
03466             420.00    -6400.00
03467             420.00    -6200.00
03468             400.00    -6000.00
03469             380.00    -6000.00
03470             340.00    -5800.00
03471             320.00    -5800.00
03472             320.00    -5400.00
03473             300.00    -5400.00
03474             300.00    -5000.00
03475             300.00    -5200.00
03476             260.00    -4800.00
03477             260.00    -4600.00
03478             240.00    -4400.00
03479             220.00    -4400.00
03480             220.00    -4200.00
03481             220.00    -4000.00
03482             220.00    -3800.00
03483             180.00    -3600.00
03484             180.00    -3600.00
03485             180.00    -3400.00
03486             160.00    -3000.00
03487             160.00    -3000.00
03488             160.00    -2800.00
03489             160.00    -2600.00
03490             140.00    -2400.00
03491             140.00    -2200.00
03492             140.00    -2000.00
03493             140.00    -2000.00
03494             140.00    -1800.00
03495             140.00    -1600.00
03496             100.00    -1400.00
03497             100.00    -1200.00
03498              80.00    -1000.00
03499              80.00     -800.00
03500              80.00     -600.00
03501              80.00     -400.00
03502              80.00     -400.00
03503              60.00     -200.00
03504              80.00      200.00
03505              80.00      200.00
03506             120.00      400.00
03507             160.00      600.00
03508             160.00      800.00
03509             140.00      800.00
03510             100.00     1000.00
03511              80.00     1200.00
03512             140.00     1400.00
03513             460.00     1600.00
03514            1020.00     2000.00
03515             540.00     2000.00
03516            -540.00     2200.00
03517           -1120.00     2200.00
03518           -1060.00     2400.00
03519             400.00     3000.00
03520             740.00     2800.00
03521            -480.00     3000.00
03522             140.00     3200.00
03523             280.00     3000.00
03524            -340.00     4000.00
03525             100.00     3600.00
03526             -80.00     3400.00
03527             160.00     4600.00
03528             260.00     3800.00
03529            -420.00     4400.00
03530              20.00     5000.00
03531             -20.00     4400.00
03532            -180.00     5200.00
03533              80.00     5000.00
03534             -60.00     5200.00
03535             -40.00     5600.00
03536            -240.00     5400.00
03537               0.00     6000.00
03538               0.00     5800.00
03539            -260.00     6000.00
03540               0.00     6200.00
03541             -80.00     6200.00
03542            -120.00     6600.00
03543            -180.00     6400.00
03544            -160.00     6800.00
03545             -80.00     6800.00
03546            -160.00     6800.00
03547            -120.00     7200.00
03548            -180.00     7000.00
03549            -180.00     7400.00
03550            -200.00     7400.00
03551            -160.00     7600.00
03552            -180.00     7600.00
03553            -220.00     7600.00
03554            -240.00     8000.00
03555            -260.00     7800.00
03556            -220.00     8200.00
03557            -240.00     8200.00
03558            -260.00     8400.00
03559            -320.00     8400.00
03560            -320.00     8600.00
03561            -300.00     8600.00
03562            -320.00     8600.00
03563            -320.00     8800.00
03564            -340.00     8600.00
03565            -400.00     9000.00
03566            -400.00     9000.00
03567            -380.00     9200.00
03568            -420.00     9000.00
03569            -440.00     9200.00
03570            -460.00     9400.00
03571            -480.00     9200.00
03572            -500.00     9400.00
03573            -540.00     9400.00
03574            -540.00     9400.00
03575            -580.00     9600.00
03576            -580.00     9400.00
03577            -640.00     9800.00
03578            -700.00     9600.00
03579            -720.00     9400.00
03580            -720.00     9800.00
03581            -720.00     9800.00
03582            -800.00     9800.00
03583            -840.00     9800.00
03584            -880.00     9800.00
03585            -900.00     9800.00
03586            -960.00     9800.00
03587           -1000.00     9800.00
03588           -1040.00     9800.00
03589           -1100.00     9800.00
03590           -1140.00     9800.00
03591           -1200.00     9800.00
03592           -1280.00     9800.00
03593           -1320.00     9800.00
03594           -1380.00     9800.00
03595           -1380.00     9800.00
03596           -1440.00     9800.00
03597           -1500.00     9600.00
03598           -1540.00     9600.00
03599           -1540.00     9400.00
03600           -1580.00     9400.00
03601           -1600.00     9600.00
03602           -1580.00     9400.00
03603           -1580.00     9400.00
03604           -1580.00     9400.00
03605           -1580.00     9200.00
03606           -1540.00     9200.00
03607           -1520.00     9000.00
03608           -1440.00     9000.00
03609           -1440.00     9000.00
03610           -1420.00     9000.00
03611           -1380.00     9000.00
03612           -1300.00     8600.00
03613           -1280.00     8800.00
03614           -1200.00     8600.00
03615           -1140.00     8400.00
03616           -1120.00     8400.00
03617           -1040.00     8200.00
03618           -1020.00     8200.00
03619            -960.00     8200.00
03620            -920.00     7800.00
03621            -880.00     7800.00
03622            -800.00     7800.00
03623            -780.00     7600.00
03624            -740.00     7400.00
03625            -700.00     7400.00
03626            -660.00     7400.00
03627            -620.00     7000.00
03628            -580.00     7000.00
03629            -560.00     6800.00
03630            -540.00     6600.00
03631            -500.00     6600.00
03632            -480.00     6400.00
03633            -460.00     6200.00
03634            -420.00     6200.00
03635            -420.00     6000.00
03636            -380.00     6000.00
03637            -380.00     5800.00
03638            -360.00     5600.00
03639            -340.00     5400.00
03640            -320.00     5400.00
03641            -300.00     5200.00
03642            -260.00     5000.00
03643            -300.00     5000.00
03644            -260.00     4800.00
03645            -260.00     4600.00
03646            -240.00     4400.00
03647            -240.00     4200.00
03648            -240.00     4200.00
03649            -220.00     3800.00
03650            -180.00     3600.00
03651            -180.00     3600.00
03652            -180.00     3400.00
03653            -160.00     3400.00
03654            -160.00     3000.00
03655            -160.00     2800.00
03656            -160.00     2800.00
03657            -160.00     2400.00
03658            -140.00     2400.00
03659            -140.00     2200.00
03660            -120.00     2000.00
03661            -100.00     1800.00
03662            -100.00     1800.00
03663            -100.00     1400.00
03664            -100.00     1200.00
03665            -100.00     1000.00
03666            -100.00     1000.00
03667             -80.00      800.00
03668            -100.00      600.00
03669             -80.00      400.00
03670             -80.00      200.00
03671             -60.00      200.00
03672             -60.00     -200.00
03673               0.00     -200.00
03674              80.00     -600.00
03675              80.00     -600.00
03676              20.00     -800.00
03677              20.00    -1000.00
03678              20.00    -1200.00
03679              20.00    -1200.00
03680             140.00    -1400.00
03681             500.00    -1800.00
03682             820.00    -2000.00
03683             240.00    -2200.00
03684            -540.00    -2600.00
03685            -780.00    -2600.00
03686            -820.00    -2400.00
03687              40.00    -2400.00
03688             580.00    -3400.00
03689            -260.00    -2800.00
03690              80.00    -3400.00
03691             320.00    -3600.00
03692            -120.00    -3200.00
03693             220.00    -3800.00
03694              60.00    -4000.00
03695              20.00    -4200.00
03696             400.00    -4400.00
03697             -20.00    -4400.00
03698            -140.00    -5000.00
03699              60.00    -4800.00
03700             140.00    -5000.00
03701             100.00    -5400.00
03702              80.00    -5200.00
03703             140.00    -5600.00
03704               0.00    -5800.00
03705             160.00    -5800.00
03706             220.00    -6000.00
03707              20.00    -6000.00
03708             140.00    -6400.00
03709             160.00    -6200.00
03710             160.00    -6400.00
03711             100.00    -6800.00
03712             140.00    -6600.00
03713             220.00    -7000.00
03714             200.00    -7000.00
03715             160.00    -7200.00
03716             160.00    -7200.00
03717             220.00    -7400.00
03718             220.00    -7400.00
03719             240.00    -7600.00
03720             220.00    -7600.00
03721             220.00    -7800.00
03722             220.00    -8000.00
03723             280.00    -8200.00
03724             280.00    -8200.00
03725             260.00    -8400.00
03726             300.00    -8400.00
03727             320.00    -8400.00
03728             300.00    -8600.00
03729             340.00    -8600.00
03730             380.00    -8600.00
03731             360.00    -8800.00
03732             380.00    -9000.00
03733             380.00    -9000.00
03734             400.00    -9000.00
03735             420.00    -9000.00
03736             480.00    -9200.00
03737             480.00    -9200.00
03738             480.00    -9400.00
03739             500.00    -9400.00
03740             500.00    -9400.00
03741             540.00    -9400.00
03742             560.00    -9400.00
03743             620.00    -9400.00
03744             640.00    -9600.00
03745             640.00    -9600.00
03746             680.00    -9800.00
03747             720.00    -9800.00
03748             740.00    -9600.00
03749             800.00    -9800.00
03750             820.00    -9800.00
03751             860.00    -9800.00
03752             880.00    -9800.00
03753             940.00    -9800.00
03754             980.00    -9800.00
03755            1040.00    -9800.00
03756            1120.00    -9800.00
03757            1160.00    -9800.00
03758            1200.00    -9800.00
03759            1260.00    -9800.00
03760            1300.00    -9600.00
03761            1360.00    -9600.00
03762            1420.00    -9800.00
03763            1460.00    -9600.00
03764            1500.00    -9800.00
03765            1500.00    -9600.00
03766            1540.00    -9400.00
03767            1560.00    -9400.00
03768            1580.00    -9400.00
03769            1600.00    -9400.00
03770            1600.00    -9400.00
03771            1600.00    -9200.00
03772            1560.00    -9200.00
03773            1540.00    -9200.00
03774            1520.00    -9200.00
03775            1480.00    -9000.00
03776            1460.00    -9000.00
03777            1440.00    -9000.00
03778            1360.00    -9000.00
03779            1340.00    -8800.00
03780            1260.00    -8600.00
03781            1220.00    -8600.00
03782            1180.00    -8400.00
03783            1120.00    -8400.00
03784            1060.00    -8400.00
03785            1020.00    -8200.00
03786             960.00    -8200.00
03787             900.00    -8000.00
03788             880.00    -7800.00
03789             840.00    -7800.00
03790             800.00    -7600.00
03791             740.00    -7600.00
03792             700.00    -7200.00
03793             640.00    -7400.00
03794             640.00    -7000.00
03795             600.00    -7000.00
03796             560.00    -6800.00
03797             540.00    -6800.00
03798             500.00    -6600.00
03799             480.00    -6600.00
03800             460.00    -6200.00
03801             420.00    -6200.00
03802             400.00    -6200.00
03803             400.00    -5800.00
03804             380.00    -5800.00
03805             340.00    -5600.00
03806             320.00    -5600.00
03807             320.00    -5200.00
03808             300.00    -5200.00
03809             300.00    -5000.00
03810             300.00    -4800.00
03811             260.00    -5000.00
03812             240.00    -4600.00
03813             220.00    -4400.00
03814             220.00    -4200.00
03815             220.00    -4000.00
03816             220.00    -3800.00
03817             180.00    -3600.00
03818             180.00    -3600.00
03819             180.00    -3400.00
03820             160.00    -3200.00
03821             160.00    -3000.00
03822             180.00    -2800.00
03823             160.00    -2800.00
03824             160.00    -2600.00
03825             140.00    -2400.00
03826             100.00    -2200.00
03827             120.00    -2000.00
03828             120.00    -2000.00
03829             100.00    -1800.00
03830             120.00    -1600.00
03831             100.00    -1200.00
03832              80.00    -1000.00
03833              80.00    -1000.00
03834              80.00     -800.00
03835              80.00     -600.00
03836              80.00     -400.00
03837              80.00     -200.00
03838              80.00        0.00
03839              60.00      200.00
03840              80.00      400.00
03841             160.00      600.00
03842             160.00      600.00
03843             140.00      600.00
03844             100.00     1000.00
03845             100.00     1000.00
03846             100.00     1200.00
03847             220.00     1600.00
03848             840.00     1800.00
03849             900.00     2000.00
03850             -40.00     2000.00
03851            -900.00     2000.00
03852           -1220.00     2200.00
03853            -360.00     2800.00
03854             960.00     3000.00
03855             -20.00     2800.00
03856            -300.00     3400.00
03857             480.00     3000.00
03858            -180.00     3600.00
03859            -120.00     4000.00
03860              80.00     3400.00
03861             -80.00     4400.00
03862             400.00     4200.00
03863            -180.00     3800.00
03864            -260.00     5000.00
03865             160.00     4600.00
03866            -220.00     4600.00
03867               0.00     5000.00
03868              20.00     5000.00
03869             -20.00     5800.00
03870            -140.00     5200.00
03871            -160.00     5800.00
03872             100.00     6000.00
03873            -180.00     5800.00
03874            -100.00     6200.00
03875               0.00     6000.00
03876            -140.00     6600.00
03877            -140.00     6600.00
03878            -180.00     6600.00
03879             -60.00     7000.00
03880            -120.00     6600.00
03881            -100.00     7000.00
03882            -160.00     7200.00
03883            -180.00     7000.00
03884            -180.00     7400.00
03885            -180.00     7600.00
03886            -160.00     7600.00
03887            -240.00     7600.00
03888            -220.00     8000.00
03889            -260.00     7800.00
03890            -240.00     8200.00
03891            -240.00     8200.00
03892            -240.00     8200.00
03893            -300.00     8400.00
03894            -340.00     8400.00
03895            -300.00     8600.00
03896            -320.00     8600.00
03897            -320.00     8600.00
03898            -340.00     8600.00
03899            -380.00     8800.00
03900            -420.00     9000.00
03901            -380.00     9000.00
03902            -400.00     9200.00
03903            -420.00     9200.00
03904            -460.00     9200.00
03905            -480.00     9200.00
03906            -500.00     9400.00
03907            -540.00     9400.00
03908            -540.00     9400.00
03909            -560.00     9400.00
03910            -580.00     9600.00
03911            -580.00     9600.00
03912            -640.00     9800.00
03913            -720.00     9600.00
03914            -720.00     9800.00
03915            -720.00     9800.00
03916            -740.00     9800.00
03917            -820.00     9800.00
03918            -860.00     9800.00
03919            -900.00     9800.00
03920            -940.00     9800.00
03921            -960.00     9800.00
03922           -1020.00     9800.00
03923           -1060.00     9800.00
03924           -1120.00     9800.00
03925           -1180.00     9800.00
03926           -1240.00     9800.00
03927           -1300.00     9800.00
03928           -1340.00     9800.00
03929           -1380.00     9800.00
03930           -1420.00     9800.00
03931           -1460.00     9400.00
03932           -1520.00     9800.00
03933           -1540.00     9400.00
03934           -1560.00     9600.00
03935           -1580.00     9400.00
03936           -1600.00     9400.00
03937           -1580.00     9400.00
03938           -1580.00     9200.00
03939           -1580.00     9200.00
03940           -1540.00     9200.00
03941           -1540.00     9200.00
03942           -1500.00     9000.00
03943           -1460.00     9000.00
03944           -1420.00     9000.00
03945           -1380.00     9000.00
03946           -1340.00     8800.00
03947           -1300.00     8600.00
03948           -1220.00     8400.00
03949           -1180.00     8600.00
03950           -1140.00     8400.00
03951           -1060.00     8400.00
03952           -1040.00     8200.00
03953            -980.00     8200.00
03954            -920.00     8000.00
03955            -900.00     7800.00
03956            -860.00     7800.00
03957            -780.00     7600.00
03958            -740.00     7600.00
03959            -720.00     7400.00
03960            -660.00     7400.00
03961            -660.00     7200.00
03962            -600.00     7000.00
03963            -580.00     7000.00
03964            -560.00     6800.00
03965            -500.00     6600.00
03966            -500.00     6600.00
03967            -460.00     6400.00
03968            -460.00     6200.00
03969            -420.00     6000.00
03970            -400.00     6000.00
03971            -380.00     5800.00
03972            -360.00     5800.00
03973            -340.00     5400.00
03974            -320.00     5400.00
03975            -320.00     5200.00
03976            -300.00     5000.00
03977            -260.00     5000.00
03978            -280.00     4800.00
03979            -260.00     4600.00
03980            -260.00     4400.00
03981            -260.00     4200.00
03982            -240.00     4200.00
03983            -220.00     4000.00
03984            -220.00     3800.00
03985            -180.00     3800.00
03986            -180.00     3400.00
03987            -160.00     3400.00
03988            -180.00     3000.00
03989            -160.00     2800.00
03990            -160.00     3000.00
03991            -140.00     2400.00
03992            -160.00     2600.00
03993            -140.00     2200.00
03994            -120.00     2000.00
03995            -100.00     1800.00
03996            -100.00     1800.00
03997            -100.00     1400.00
03998            -100.00     1400.00
03999            -100.00     1000.00
04000             -80.00     1000.00
04001             -80.00      800.00
04002             -80.00      600.00
04003             -80.00      400.00
04004             -60.00      200.00
04005             -60.00      200.00
04006             -60.00     -200.00
04007             -20.00     -200.00
04008              60.00     -400.00
04009              80.00     -600.00
04010              60.00     -800.00
04011              20.00     -800.00
04012              20.00    -1000.00
04013               0.00    -1200.00
04014              60.00    -1200.00
04015             300.00    -1600.00
04016             780.00    -1800.00
04017             620.00    -2200.00
04018            -240.00    -2200.00
04019            -720.00    -2600.00
04020            -860.00    -2600.00
04021            -480.00    -2400.00
04022             560.00    -3000.00
04023             120.00    -3000.00
04024            -260.00    -3000.00
04025             380.00    -3800.00
04026               0.00    -3400.00
04027               0.00    -3400.00
04028             220.00    -4200.00
04029             -80.00    -3800.00
04030             300.00    -4400.00
04031             220.00    -4400.00
04032            -180.00    -4600.00
04033             -20.00    -5000.00
04034             100.00    -4800.00
04035             140.00    -5200.00
04036              60.00    -5200.00
04037             140.00    -5400.00
04038              60.00    -5800.00
04039              40.00    -5600.00
04040             240.00    -6000.00
04041             100.00    -5800.00
04042              60.00    -6000.00
04043             180.00    -6400.00
04044             160.00    -6200.00
04045             140.00    -6600.00
04046              80.00    -6800.00
04047             180.00    -6800.00
04048             220.00    -7000.00
04049             160.00    -7000.00
04050             160.00    -7400.00
04051             220.00    -7000.00
04052             220.00    -7400.00
04053             220.00    -7600.00
04054             220.00    -7600.00
04055             220.00    -7800.00
04056             220.00    -7800.00
04057             260.00    -8200.00
04058             300.00    -8000.00
04059             260.00    -8400.00
04060             300.00    -8400.00
04061             300.00    -8200.00
04062             280.00    -8400.00
04063             320.00    -8600.00
04064             340.00    -8600.00
04065             380.00    -8600.00
04066             380.00    -8800.00
04067             380.00    -9000.00
04068             380.00    -9000.00
04069             420.00    -9000.00
04070             460.00    -9200.00
04071             480.00    -9200.00
04072             480.00    -9400.00
04073             500.00    -9200.00
04074             500.00    -9400.00
04075             540.00    -9400.00
04076             560.00    -9400.00
04077             600.00    -9400.00
04078             640.00    -9400.00
04079             640.00    -9400.00
04080             660.00    -9600.00
04081             700.00    -9800.00
04082             720.00    -9800.00
04083             780.00    -9800.00
04084             820.00    -9800.00
04085             860.00    -9800.00
04086             880.00    -9800.00
04087             900.00    -9800.00
04088             960.00    -9800.00
04089             980.00    -9800.00
04090            1060.00    -9800.00
04091            1140.00    -9800.00
04092            1180.00    -9800.00
04093            1200.00    -9800.00
04094            1280.00    -9600.00
04095            1320.00    -9800.00
04096            1380.00    -9600.00
04097            1440.00    -9800.00
04098            1500.00    -9800.00
04099            1500.00    -9600.00
04100            1520.00    -9600.00
04101            1540.00    -9400.00
04102            1580.00    -9400.00
04103            1600.00    -9400.00
04104            1600.00    -9400.00
04105            1580.00    -9200.00
04106            1580.00    -9400.00
04107            1540.00    -9200.00
04108            1520.00    -9200.00
04109            1500.00    -9000.00
04110            1460.00    -9200.00
04111            1440.00    -9000.00
04112            1420.00    -9000.00
04113            1340.00    -8800.00
04114            1280.00    -8800.00
04115            1240.00    -8600.00
04116            1200.00    -8600.00
04117            1160.00    -8400.00
04118            1120.00    -8400.00
04119            1040.00    -8400.00
04120             980.00    -8200.00
04121             940.00    -8200.00
04122             880.00    -7800.00
04123             860.00    -7800.00
04124             800.00    -7800.00
04125             780.00    -7600.00
04126             720.00    -7400.00
04127             700.00    -7200.00
04128             640.00    -7000.00
04129             620.00    -7000.00
04130             580.00    -7000.00
04131             560.00    -7000.00
04132             540.00    -6800.00
04133             480.00    -6600.00
04134             460.00    -6600.00
04135             460.00    -6200.00
04136             420.00    -6200.00
04137             380.00    -6000.00
04138             380.00    -6000.00
04139             340.00    -5800.00
04140             340.00    -5800.00
04141             320.00    -5400.00
04142             300.00    -5200.00
04143             300.00    -5000.00
04144             300.00    -5000.00
04145             260.00    -5000.00
04146             240.00    -4600.00
04147             240.00    -4400.00
04148             220.00    -4400.00
04149             220.00    -4200.00
04150             200.00    -4000.00
04151             220.00    -3800.00
04152             180.00    -3600.00
04153             180.00    -3400.00
04154             160.00    -3400.00
04155             160.00    -3400.00
04156             160.00    -3000.00
04157             160.00    -2800.00
04158             140.00    -2600.00
04159             140.00    -2400.00
04160             140.00    -2200.00
04161             120.00    -2000.00
04162             120.00    -2000.00
04163             120.00    -1800.00
04164             100.00    -1400.00
04165             100.00    -1400.00
04166             100.00    -1200.00
04167              80.00    -1000.00
04168              80.00     -800.00
04169              80.00     -600.00
04170              80.00     -600.00
04171              60.00     -400.00
04172              80.00     -200.00
04173              60.00        0.00
04174              80.00      200.00
04175             140.00      400.00
04176             160.00      600.00
04177             160.00      800.00
04178             140.00     1000.00
04179             100.00     1200.00
04180             100.00     1200.00
04181             140.00     1400.00
04182             540.00     1800.00
04183            1040.00     2000.00
04184             460.00     2000.00
04185            -620.00     2000.00
04186           -1140.00     2200.00
04187            -980.00     2400.00
04188             540.00     3000.00
04189             640.00     2800.00
04190            -500.00     3000.00
04191             240.00     3000.00
04192             220.00     3000.00
04193            -340.00     4200.00
04194             140.00     3600.00
04195            -100.00     3800.00
04196             220.00     4600.00
04197             220.00     3800.00
04198            -420.00     4400.00
04199              60.00     4800.00
04200             -60.00     4400.00
04201            -160.00     5200.00
04202              80.00     4800.00
04203             -60.00     5400.00
04204             -60.00     5600.00
04205            -220.00     5200.00
04206              40.00     6000.00
04207             -60.00     5800.00
04208            -260.00     6000.00
04209               0.00     6200.00
04210            -100.00     6200.00
04211            -100.00     6600.00
04212            -180.00     6600.00
04213            -100.00     6800.00
04214             -80.00     6800.00
04215            -140.00     6800.00
04216            -160.00     7000.00
04217            -180.00     7000.00
04218            -160.00     7400.00
04219            -220.00     7200.00
04220            -160.00     7600.00
04221            -220.00     7600.00
04222            -240.00     7800.00
04223            -240.00     7800.00
04224            -260.00     8000.00
04225            -220.00     8200.00
04226            -260.00     8400.00
04227            -260.00     8200.00
04228            -320.00     8400.00
04229            -320.00     8400.00
04230            -320.00     8600.00
04231            -320.00     8600.00
04232            -320.00     8800.00
04233            -380.00     8800.00
04234            -400.00     9000.00
04235            -420.00     9000.00
04236            -380.00     9000.00
04237            -420.00     9200.00
04238            -440.00     9200.00
04239            -460.00     9200.00
04240            -480.00     9400.00
04241            -520.00     9400.00
04242            -560.00     9400.00
04243            -540.00     9400.00
04244            -580.00     9600.00
04245            -580.00     9600.00
04246            -620.00     9400.00
04247            -680.00     9800.00
04248            -720.00     9600.00
04249            -700.00     9800.00
04250            -720.00     9800.00
04251            -800.00     9800.00
04252            -840.00     9800.00
04253            -880.00     9800.00
04254            -900.00     9800.00
04255            -960.00     9800.00
04256            -980.00     9800.00
04257           -1040.00     9800.00
04258           -1080.00     9800.00
04259           -1140.00     9800.00
04260           -1200.00     9800.00
04261           -1280.00     9800.00
04262           -1320.00     9800.00
04263           -1360.00     9800.00
04264           -1400.00     9800.00
04265           -1440.00     9800.00
04266           -1500.00     9400.00
04267           -1540.00     9600.00
04268           -1540.00     9400.00
04269           -1580.00     9400.00
04270           -1580.00     9400.00
04271           -1580.00     9400.00
04272           -1580.00     9400.00
04273           -1580.00     9200.00
04274           -1580.00     9200.00
04275           -1540.00     9200.00
04276           -1500.00     9200.00
04277           -1460.00     9200.00
04278           -1440.00     9000.00
04279           -1420.00     9000.00
04280           -1360.00     8800.00
04281           -1340.00     8600.00
04282           -1260.00     8600.00
04283           -1200.00     8400.00
04284           -1140.00     8400.00
04285           -1120.00     8400.00
04286           -1060.00     8200.00
04287           -1020.00     8200.00
04288            -960.00     8200.00
04289            -900.00     7800.00
04290            -860.00     7800.00
04291            -820.00     7800.00
04292            -780.00     7600.00
04293            -740.00     7400.00
04294            -720.00     7400.00
04295            -660.00     7200.00
04296            -620.00     7000.00
04297            -580.00     7000.00
04298            -560.00     6800.00
04299            -540.00     6800.00
04300            -500.00     6600.00
04301            -480.00     6600.00
04302            -460.00     6200.00
04303            -420.00     6200.00
04304            -420.00     6000.00
04305            -400.00     6000.00
04306            -380.00     5800.00
04307            -340.00     5800.00
04308            -340.00     5400.00
04309            -320.00     5200.00
04310            -300.00     5200.00
04311            -260.00     5000.00
04312            -260.00     5000.00
04313            -260.00     4600.00
04314            -260.00     4400.00
04315            -240.00     4400.00
04316            -240.00     4200.00
04317            -220.00     4000.00
04318            -200.00     3800.00
04319            -200.00     3600.00
04320            -220.00     3600.00
04321            -180.00     3400.00
04322            -160.00     3400.00
04323            -160.00     3000.00
04324            -160.00     3000.00
04325            -160.00     2600.00
04326            -140.00     2600.00
04327            -160.00     2200.00
04328            -140.00     2200.00
04329            -120.00     2000.00
04330            -100.00     1800.00
04331            -100.00     1800.00
04332            -100.00     1200.00
04333            -100.00     1200.00
04334            -100.00     1000.00
04335            -100.00     1000.00
04336             -80.00      800.00
04337             -80.00      600.00
04338             -60.00      400.00
04339             -80.00      200.00
04340             -60.00      200.00
04341             -60.00     -200.00
04342               0.00     -400.00
04343              60.00     -400.00
04344              80.00     -800.00
04345              20.00     -800.00
04346              20.00     -800.00
04347              20.00    -1200.00
04348              20.00    -1200.00
04349             140.00    -1400.00
04350             560.00    -1800.00
04351             800.00    -2200.00
04352             160.00    -2200.00
04353            -580.00    -2400.00
04354            -800.00    -2600.00
04355            -800.00    -2600.00
04356             160.00    -2600.00
04357             540.00    -3400.00
04358            -300.00    -3000.00
04359             160.00    -3400.00
04360             300.00    -3600.00
04361            -140.00    -3200.00
04362             220.00    -4000.00
04363              20.00    -4200.00
04364              60.00    -4200.00
04365             380.00    -4400.00
04366             -40.00    -4400.00
04367            -100.00    -5000.00
04368              60.00    -4600.00
04369             140.00    -5000.00
04370              80.00    -5400.00
04371             100.00    -5200.00
04372             140.00    -5600.00
04373               0.00    -5600.00
04374             180.00    -6000.00
04375             220.00    -6000.00
04376              20.00    -6000.00
04377             160.00    -6400.00
04378             180.00    -6200.00
04379             160.00    -6600.00
04380             100.00    -6800.00
04381             140.00    -6600.00
04382             220.00    -6800.00
04383             180.00    -7000.00
04384             160.00    -7200.00
04385             180.00    -7000.00
04386             220.00    -7200.00
04387             220.00    -7600.00
04388             240.00    -7600.00
04389             220.00    -7600.00
04390             220.00    -7800.00
04391             240.00    -7800.00
04392             280.00    -8200.00
04393             280.00    -8200.00
04394             280.00    -8400.00
04395             320.00    -8400.00
04396             300.00    -8400.00
04397             300.00    -8600.00
04398             340.00    -8600.00
04399             340.00    -8800.00
04400             360.00    -8800.00
04401             380.00    -8800.00
04402             380.00    -9000.00
04403             380.00    -9000.00
04404             420.00    -9000.00
04405             480.00    -9200.00
04406             480.00    -9200.00
04407             480.00    -9200.00
04408             500.00    -9400.00
04409             520.00    -9400.00
04410             540.00    -9400.00
04411             580.00    -9400.00
04412             620.00    -9400.00
04413             640.00    -9400.00
04414             640.00    -9400.00
04415             660.00    -9800.00
04416             700.00    -9800.00
04417             740.00    -9800.00
04418             800.00    -9600.00
04419             820.00    -9800.00
04420             860.00    -9800.00
04421             880.00    -9800.00
04422             940.00    -9600.00
04423             980.00    -9800.00
04424            1020.00    -9800.00
04425            1120.00    -9600.00
04426            1140.00    -9800.00
04427            1180.00    -9800.00
04428            1260.00    -9800.00
04429            1300.00    -9800.00
04430            1360.00    -9800.00
04431            1420.00    -9400.00
04432            1460.00    -9800.00
04433            1500.00    -9400.00
04434            1520.00    -9400.00
04435            1540.00    -9600.00
04436            1580.00    -9400.00
04437            1580.00    -9400.00
04438            1600.00    -9400.00
04439            1600.00    -9400.00
04440            1600.00    -9400.00
04441            1560.00    -9200.00
04442            1540.00    -9200.00
04443            1520.00    -9200.00
04444            1500.00    -9000.00
04445            1460.00    -9200.00
04446            1420.00    -9000.00
04447            1360.00    -8800.00
04448            1300.00    -8800.00
04449            1260.00    -8600.00
04450            1220.00    -8400.00
04451            1180.00    -8600.00
04452            1140.00    -8400.00
04453            1060.00    -8400.00
04454            1020.00    -8200.00
04455             960.00    -8200.00
04456             920.00    -8000.00
04457             860.00    -8000.00
04458             860.00    -7800.00
04459             800.00    -7600.00
04460             740.00    -7400.00
04461             700.00    -7400.00
04462             660.00    -7200.00
04463             640.00    -7000.00
04464             580.00    -7000.00
04465             560.00    -6800.00
04466             540.00    -6800.00
04467             480.00    -6600.00
04468             480.00    -6600.00
04469             460.00    -6400.00
04470             420.00    -6200.00
04471             400.00    -6200.00
04472             400.00    -6000.00
04473             380.00    -5800.00
04474             340.00    -5800.00
04475             320.00    -5600.00
04476             300.00    -5400.00
04477             300.00    -5200.00
04478             300.00    -5000.00
04479             280.00    -5000.00
04480             260.00    -5000.00
04481             240.00    -4600.00
04482             220.00    -4400.00
04483             220.00    -4400.00
04484             200.00    -4200.00
04485             220.00    -3800.00
04486             180.00    -3800.00
04487             180.00    -3600.00
04488             180.00    -3400.00
04489             160.00    -3400.00
04490             160.00    -3000.00
04491             160.00    -2800.00
04492             140.00    -2600.00
04493             140.00    -2600.00
04494             140.00    -2400.00
04495             120.00    -2200.00
04496             100.00    -2000.00
04497             140.00    -2000.00
04498             100.00    -1800.00
04499             100.00    -1400.00
04500             100.00    -1200.00
04501              80.00    -1200.00
04502              80.00     -800.00
04503              80.00     -600.00
04504              80.00     -600.00
04505              80.00     -200.00
04506              60.00     -200.00
04507              80.00        0.00
04508              80.00      200.00
04509             100.00      400.00
04510             140.00      600.00
04511             160.00      600.00
04512             140.00     1000.00
04513             140.00     1000.00
04514             100.00     1200.00
04515             100.00     1400.00
04516             260.00     1600.00
04517             900.00     1800.00
04518             860.00     2000.00
04519            -140.00     2200.00
04520            -960.00     2200.00
04521           -1200.00     2200.00
04522            -220.00     3000.00
04523             960.00     3000.00
04524            -160.00     2800.00
04525            -220.00     3400.00
04526             480.00     3000.00
04527            -260.00     3800.00
04528             -60.00     3800.00
04529              60.00     3400.00
04530             -60.00     4400.00
04531             420.00     4200.00
04532            -260.00     4000.00
04533            -220.00     5000.00
04534             140.00     4600.00
04535            -240.00     5000.00
04536              20.00     4800.00
04537               0.00     5000.00
04538             -20.00     5800.00
04539            -160.00     5200.00
04540            -100.00     5800.00
04541              80.00     6000.00
04542            -240.00     5800.00
04543            -100.00     6200.00
04544             -60.00     6000.00
04545            -140.00     6600.00
04546            -160.00     6400.00
04547            -180.00     6600.00
04548             -80.00     7000.00
04549            -140.00     6800.00
04550            -140.00     7000.00
04551            -180.00     7000.00
04552            -180.00     7400.00
04553            -220.00     7400.00
04554            -180.00     7400.00
04555            -160.00     7600.00
04556            -260.00     7600.00
04557            -220.00     7800.00
04558            -260.00     8000.00
04559            -240.00     8000.00
04560            -240.00     8200.00
04561            -240.00     8200.00
04562            -300.00     8200.00
04563            -340.00     8400.00
04564            -300.00     8600.00
04565            -320.00     8600.00
04566            -320.00     8600.00
04567            -340.00     9000.00
04568            -380.00     9000.00
04569            -400.00     9000.00
04570            -380.00     9000.00
04571            -400.00     9200.00
04572            -420.00     9200.00
04573            -460.00     9200.00
04574            -480.00     9200.00
04575            -500.00     9400.00
04576            -540.00     9600.00
04577            -540.00     9400.00
04578            -560.00     9400.00
04579            -580.00     9600.00
04580            -580.00     9400.00
04581            -640.00     9800.00
04582            -700.00     9600.00
04583            -720.00     9800.00
04584            -700.00     9800.00
04585            -740.00     9600.00
04586            -820.00     9800.00
04587            -860.00     9800.00
04588            -900.00     9800.00
04589            -940.00     9800.00
04590            -960.00     9800.00
04591           -1020.00     9800.00
04592           -1060.00     9800.00
04593           -1120.00     9800.00
04594           -1180.00     9800.00
04595           -1240.00     9800.00
04596           -1300.00     9800.00
04597           -1360.00     9800.00
04598           -1380.00     9800.00
04599           -1440.00     9800.00
04600           -1460.00     9400.00
04601           -1520.00     9600.00
04602           -1540.00     9400.00
04603           -1580.00     9600.00
04604           -1580.00     9400.00
04605           -1580.00     9400.00
04606           -1600.00     9400.00
04607           -1560.00     9200.00
04608           -1540.00     9200.00
04609           -1580.00     9200.00
04610           -1540.00     9200.00
04611           -1500.00     9200.00
04612           -1440.00     9000.00
04613           -1420.00     9000.00
04614           -1380.00     8800.00
04615           -1340.00     8600.00
04616           -1300.00     8600.00
04617           -1220.00     8600.00
04618           -1180.00     8400.00
04619           -1120.00     8400.00
04620           -1100.00     8200.00
04621           -1040.00     8200.00
04622            -980.00     8200.00
04623            -940.00     8000.00
04624            -900.00     7800.00
04625            -820.00     7800.00
04626            -800.00     7600.00
04627            -740.00     7600.00
04628            -740.00     7400.00
04629            -680.00     7400.00
04630            -640.00     7000.00
04631            -580.00     7000.00
04632            -580.00     6800.00
04633            -540.00     6600.00
04634            -540.00     6600.00
04635            -480.00     6400.00
04636            -460.00     6400.00
04637            -440.00     6200.00
04638            -420.00     6200.00
04639            -400.00     6000.00
04640            -360.00     5800.00
04641            -360.00     5800.00
04642            -340.00     5400.00
04643            -320.00     5400.00
04644            -320.00     5200.00
04645            -260.00     5200.00
04646            -280.00     5000.00
04647            -260.00     5000.00
04648            -260.00     4600.00
04649            -260.00     4400.00
04650            -220.00     4200.00
04651            -220.00     4200.00
04652            -220.00     3800.00
04653            -220.00     3800.00
04654            -180.00     3600.00
04655            -200.00     3400.00
04656            -180.00     3400.00
04657            -160.00     3200.00
04658            -160.00     3000.00
04659            -160.00     2800.00
04660            -140.00     2600.00
04661            -160.00     2200.00
04662            -140.00     2200.00
04663            -140.00     2000.00
04664            -100.00     1800.00
04665            -100.00     1800.00
04666            -100.00     1400.00
04667            -100.00     1200.00
04668            -100.00     1200.00
04669            -100.00     1000.00
04670            -100.00      800.00
04671             -80.00      600.00
04672            -100.00      400.00
04673             -60.00      200.00
04674             -60.00        0.00
04675             -20.00     -200.00
04676               0.00     -200.00
04677              60.00     -400.00
04678              80.00     -600.00
04679              20.00     -800.00
04680             -60.00    -1000.00
04681             -20.00    -1000.00
04682               0.00    -1400.00
04683              60.00    -1400.00
04684             340.00    -1600.00
04685             860.00    -2000.00
04686             580.00    -2200.00
04687            -260.00    -2200.00
04688            -740.00    -2600.00
04689            -880.00    -2600.00
04690            -420.00    -2400.00
04691             560.00    -3000.00
04692              20.00    -3000.00
04693            -200.00    -3000.00
04694             400.00    -3800.00
04695               0.00    -3400.00
04696              80.00    -3600.00
04697             200.00    -4200.00
04698             -60.00    -4000.00
04699             320.00    -4400.00
04700             160.00    -4400.00
04701            -180.00    -4600.00
04702             -20.00    -4800.00
04703             100.00    -4600.00
04704             140.00    -5200.00
04705              80.00    -5200.00
04706             160.00    -5400.00
04707              80.00    -5600.00
04708              60.00    -5600.00
04709             240.00    -6000.00
04710              60.00    -5800.00
04711              60.00    -6200.00
04712             160.00    -6400.00
04713             160.00    -6200.00
04714             140.00    -6800.00
04715             120.00    -6600.00
04716             220.00    -6800.00
04717             220.00    -7000.00
04718             180.00    -7000.00
04719             160.00    -7400.00
04720             180.00    -7200.00
04721             220.00    -7400.00
04722             220.00    -7600.00
04723             240.00    -7600.00
04724             220.00    -7800.00
04725             240.00    -7800.00
04726             300.00    -8200.00
04727             300.00    -8200.00
04728             260.00    -8400.00
04729             300.00    -8200.00
04730             320.00    -8400.00
04731             280.00    -8400.00
04732             320.00    -8600.00
04733             340.00    -8600.00
04734             380.00    -8600.00
04735             380.00    -8800.00
04736             380.00    -9000.00
04737             400.00    -9000.00
04738             400.00    -9000.00
04739             460.00    -9000.00
04740             460.00    -9200.00
04741             460.00    -9200.00
04742             480.00    -9400.00
04743             500.00    -9200.00
04744             540.00    -9400.00
04745             560.00    -9400.00
04746             600.00    -9400.00
04747             640.00    -9400.00
04748             640.00    -9400.00
04749             640.00    -9800.00
04750             680.00    -9600.00
04751             700.00    -9800.00
04752             760.00    -9800.00
04753             800.00    -9600.00
04754             840.00    -9800.00
04755             860.00    -9800.00
04756             940.00    -9800.00
04757             960.00    -9800.00
04758            1000.00    -9800.00
04759            1060.00    -9800.00
04760            1120.00    -9800.00
04761            1180.00    -9800.00
04762            1240.00    -9800.00
04763            1280.00    -9800.00
04764            1340.00    -9800.00
04765            1420.00    -9600.00
04766            1440.00    -9800.00
04767            1500.00    -9800.00
04768            1500.00    -9600.00
04769            1520.00    -9400.00
04770            1580.00    -9400.00
04771            1580.00    -9400.00
04772            1600.00    -9400.00
04773            1600.00    -9400.00
04774            1600.00    -9400.00
04775            1580.00    -9400.00
04776            1560.00    -9200.00
04777            1520.00    -9200.00
04778            1500.00    -9000.00
04779            1500.00    -9200.00
04780            1440.00    -9000.00
04781            1420.00    -9000.00
04782            1340.00    -8600.00
04783            1280.00    -8600.00
04784            1260.00    -8600.00
04785            1200.00    -8600.00
04786            1140.00    -8400.00
04787            1100.00    -8400.00
04788            1040.00    -8200.00
04789             980.00    -8200.00
04790             940.00    -8200.00
04791             880.00    -8000.00
04792             860.00    -7800.00
04793             820.00    -7600.00
04794             780.00    -7600.00
04795             720.00    -7200.00
04796             660.00    -7400.00
04797             640.00    -7200.00
04798             620.00    -7000.00
04799             580.00    -7000.00
04800             540.00    -7000.00
04801             520.00    -6800.00
04802             480.00    -6600.00
04803             460.00    -6600.00
04804             440.00    -6400.00
04805             400.00    -6200.00
04806             400.00    -6000.00
04807             380.00    -5800.00
04808             340.00    -5800.00
04809             340.00    -5800.00
04810             300.00    -5400.00
04811             300.00    -5400.00
04812             280.00    -5200.00
04813             300.00    -5000.00
04814             240.00    -4800.00
04815             240.00    -4600.00
04816             220.00    -4600.00
04817             220.00    -4400.00
04818             220.00    -4400.00
04819             220.00    -4200.00
04820             200.00    -3800.00
04821             180.00    -3800.00
04822             180.00    -3600.00
04823             160.00    -3400.00
04824             160.00    -3200.00
04825             160.00    -3000.00
04826             160.00    -2800.00
04827             160.00    -2600.00
04828             140.00    -2400.00
04829             140.00    -2200.00
04830             100.00    -2200.00
04831             140.00    -2000.00
04832             140.00    -1800.00
04833             100.00    -1400.00
04834             100.00    -1400.00
04835             100.00    -1200.00
04836             100.00     -800.00
04837              80.00     -800.00
04838              80.00     -600.00
04839              80.00     -400.00
04840              80.00     -200.00
04841              80.00        0.00
04842              80.00      200.00
04843              80.00      400.00
04844             140.00      400.00
04845             160.00      600.00
04846             160.00      800.00
04847             140.00     1000.00
04848             140.00     1000.00
04849             100.00     1200.00
04850             160.00     1400.00
04851             600.00     1800.00
04852            1040.00     2000.00
04853             380.00     2000.00
04854            -660.00     2200.00
04855           -1140.00     2000.00
04856            -880.00     2600.00
04857             660.00     3000.00
04858             520.00     2800.00
04859            -500.00     3000.00
04860             320.00     3200.00
04861             140.00     3200.00
04862            -320.00     4200.00
04863             140.00     3400.00
04864            -140.00     3800.00
04865             260.00     4600.00
04866             140.00     3800.00
04867            -420.00     4600.00
04868             100.00     4800.00
04869            -100.00     4400.00
04870            -140.00     5000.00
04871              80.00     4600.00
04872             -60.00     5400.00
04873             -60.00     5400.00
04874            -220.00     5200.00
04875              60.00     6000.00
04876            -100.00     5400.00
04877            -240.00     6000.00
04878             -20.00     6200.00
04879            -120.00     6200.00
04880            -120.00     6400.00
04881            -200.00     6200.00
04882            -100.00     7000.00
04883            -100.00     6800.00
04884            -140.00     6800.00
04885            -160.00     7000.00
04886            -180.00     7200.00
04887            -160.00     7400.00
04888            -220.00     7400.00
04889            -160.00     7400.00
04890            -220.00     7600.00
04891            -240.00     7800.00
04892            -240.00     7800.00
04893            -260.00     8000.00
04894            -240.00     8200.00
04895            -260.00     8400.00
04896            -260.00     8200.00
04897            -340.00     8400.00
04898            -320.00     8600.00
04899            -300.00     8600.00
04900            -300.00     8600.00
04901            -340.00     8800.00
04902            -380.00     9000.00
04903            -400.00     9000.00
04904            -400.00     9000.00
04905            -380.00     9200.00
04906            -420.00     9200.00
04907            -440.00     9200.00
04908            -460.00     9200.00
04909            -480.00     9400.00
04910            -500.00     9400.00
04911            -540.00     9400.00
04912            -540.00     9600.00
04913            -560.00     9400.00
04914            -580.00     9600.00
04915            -620.00     9400.00
04916            -660.00     9800.00
04917            -720.00     9800.00
04918            -720.00     9800.00
04919            -720.00     9800.00
04920            -800.00     9800.00
04921            -840.00     9800.00
04922            -880.00     9800.00
04923            -900.00     9800.00
04924            -960.00     9800.00
04925            -980.00     9800.00
04926           -1040.00     9800.00
04927           -1100.00     9600.00
04928           -1140.00     9800.00
04929           -1200.00     9800.00
04930           -1280.00     9800.00
04931           -1340.00     9600.00
04932           -1360.00     9800.00
04933           -1420.00     9800.00
04934           -1460.00     9600.00
04935           -1500.00     9600.00
04936           -1540.00     9800.00
04937           -1560.00     9400.00
04938           -1580.00     9400.00
04939           -1580.00     9400.00
04940           -1600.00     9400.00
04941           -1580.00     9200.00
04942           -1560.00     9400.00
04943           -1580.00     9200.00
04944           -1540.00     9200.00
04945           -1520.00     9000.00
04946           -1460.00     9000.00
04947           -1440.00     8800.00
04948           -1400.00     8800.00
04949           -1360.00     8600.00
04950           -1300.00     8600.00
04951           -1260.00     8600.00
04952           -1200.00     8400.00
04953           -1140.00     8400.00
04954           -1120.00     8200.00
04955           -1060.00     8400.00
04956           -1000.00     8000.00
04957            -960.00     8000.00
04958            -900.00     7800.00
04959            -860.00     7800.00
04960            -800.00     7800.00
04961            -780.00     7600.00
04962            -740.00     7600.00
04963            -700.00     7400.00
04964            -640.00     7200.00
04965            -620.00     7000.00
04966            -580.00     7000.00
04967            -560.00     7000.00
04968            -540.00     6800.00
04969            -500.00     6600.00
04970            -480.00     6600.00
04971            -440.00     6200.00
04972            -420.00     6200.00
04973            -400.00     6000.00
04974            -380.00     5800.00
04975            -360.00     5800.00
04976            -340.00     5600.00
04977            -340.00     5400.00
04978            -320.00     5400.00
04979            -260.00     5200.00
04980            -280.00     5000.00
04981            -260.00     5000.00
04982            -260.00     4600.00
04983            -240.00     4400.00
04984            -240.00     4400.00
04985            -220.00     4200.00
04986            -220.00     3800.00
04987            -220.00     3800.00
04988            -180.00     3600.00
04989            -220.00     3600.00
04990            -180.00     3400.00
04991            -160.00     3000.00
04992            -160.00     3000.00
04993            -140.00     3000.00
04994            -140.00     2400.00
04995            -160.00     2400.00
04996            -140.00     2200.00
04997            -120.00     2000.00
04998            -140.00     1800.00
04999            -100.00     1800.00
05000            -100.00     1400.00
