Unit:(mV)
                     CH1         CH2
Frequency              ? 299.026 kHz
00001              -8.00     -720.00
00002               0.00     -800.00
00003              88.00     -880.00
00004             472.00    -1040.00
00005             736.00    -1360.00
00006             232.00    -1360.00
00007            -904.00    -1440.00
00008           -1016.00    -1280.00
00009              -8.00    -1440.00
00010             984.00    -1920.00
00011            -232.00    -1520.00
00012            -288.00    -1840.00
00013             584.00    -2400.00
00014             152.00    -1760.00
00015            -128.00    -1920.00
00016              88.00    -2720.00
00017               8.00    -2320.00
00018             344.00    -2080.00
00019             232.00    -2800.00
00020            -312.00    -2800.00
00021             128.00    -2400.00
00022             184.00    -2880.00
00023            -152.00    -3040.00
00024             344.00    -3040.00
00025             232.00    -2880.00
00026            -296.00    -3280.00
00027             280.00    -3520.00
00028             416.00    -3120.00
00029            -112.00    -3360.00
00030              40.00    -3920.00
00031             336.00    -3600.00
00032             192.00    -3440.00
00033               0.00    -4080.00
00034             128.00    -3920.00
00035             280.00    -3760.00
00036             168.00    -4160.00
00037             136.00    -4320.00
00038             264.00    -4000.00
00039             192.00    -4240.00
00040             128.00    -4560.00
00041             280.00    -4320.00
00042             288.00    -4400.00
00043             104.00    -4720.00
00044             192.00    -4640.00
00045             360.00    -4640.00
00046             216.00    -4720.00
00047             208.00    -4880.00
00048             344.00    -4800.00
00049             288.00    -4880.00
00050             216.00    -5040.00
00051             312.00    -4960.00
00052             344.00    -4960.00
00053             288.00    -5200.00
00054             320.00    -5200.00
00055             352.00    -5200.00
00056             304.00    -5280.00
00057             320.00    -5360.00
00058             416.00    -5280.00
00059             392.00    -5360.00
00060             352.00    -5440.00
00061             408.00    -5360.00
00062             416.00    -5360.00
00063             384.00    -5520.00
00064             424.00    -5520.00
00065             488.00    -5520.00
00066             456.00    -5600.00
00067             472.00    -5680.00
00068             512.00    -5600.00
00069             496.00    -5600.00
00070             488.00    -5680.00
00071             568.00    -5680.00
00072             584.00    -5600.00
00073             568.00    -5680.00
00074             584.00    -5680.00
00075             640.00    -5680.00
00076             608.00    -5680.00
00077             632.00    -5760.00
00078             696.00    -5680.00
00079             720.00    -5680.00
00080             704.00    -5760.00
00081             736.00    -5680.00
00082             768.00    -5600.00
00083             760.00    -5680.00
00084             792.00    -5680.00
00085             840.00    -5600.00
00086             848.00    -5600.00
00087             832.00    -5600.00
00088             864.00    -5600.00
00089             872.00    -5440.00
00090             872.00    -5520.00
00091             896.00    -5440.00
00092             920.00    -5440.00
00093             904.00    -5360.00
00094             896.00    -5440.00
00095             904.00    -5360.00
00096             896.00    -5360.00
00097             888.00    -5280.00
00098             896.00    -5280.00
00099             904.00    -5200.00
00100             880.00    -5200.00
00101             864.00    -5040.00
00102             856.00    -5040.00
00103             840.00    -5040.00
00104             832.00    -5040.00
00105             832.00    -4960.00
00106             816.00    -4880.00
00107             784.00    -4800.00
00108             776.00    -4720.00
00109             760.00    -4720.00
00110             736.00    -4640.00
00111             728.00    -4560.00
00112             728.00    -4560.00
00113             680.00    -4400.00
00114             664.00    -4400.00
00115             640.00    -4320.00
00116             608.00    -4240.00
00117             600.00    -4080.00
00118             600.00    -4000.00
00119             568.00    -4000.00
00120             544.00    -3920.00
00121             512.00    -3840.00
00122             504.00    -3760.00
00123             480.00    -3680.00
00124             472.00    -3600.00
00125             448.00    -3520.00
00126             440.00    -3440.00
00127             408.00    -3360.00
00128             408.00    -3280.00
00129             376.00    -3120.00
00130             360.00    -3120.00
00131             352.00    -2960.00
00132             352.00    -2880.00
00133             328.00    -2800.00
00134             312.00    -2800.00
00135             296.00    -2640.00
00136             280.00    -2480.00
00137             280.00    -2480.00
00138             264.00    -2320.00
00139             248.00    -2320.00
00140             232.00    -2160.00
00141             224.00    -2080.00
00142             216.00    -1920.00
00143             192.00    -1840.00
00144             200.00    -1760.00
00145             192.00    -1680.00
00146             192.00    -1520.00
00147             168.00    -1440.00
00148             152.00    -1360.00
00149             152.00    -1200.00
00150             152.00    -1120.00
00151             136.00    -1040.00
00152             136.00     -880.00
00153             128.00     -800.00
00154             104.00     -720.00
00155              96.00     -560.00
00156              96.00     -400.00
00157              88.00     -320.00
00158              88.00     -240.00
00159              88.00     -160.00
00160              80.00      -80.00
00161              64.00       80.00
00162              64.00      160.00
00163              88.00      240.00
00164             128.00      400.00
00165             128.00      480.00
00166             104.00      480.00
00167              72.00      640.00
00168              64.00      720.00
00169              56.00      880.00
00170             160.00      960.00
00171             712.00     1200.00
00172             824.00     1360.00
00173            -104.00     1440.00
00174           -1016.00     1200.00
00175           -1016.00     1360.00
00176             952.00     1760.00
00177             840.00     1840.00
00178            -800.00     1680.00
00179              32.00     1680.00
00180             864.00     2000.00
00181            -576.00     2480.00
00182            -512.00     2000.00
00183             456.00     2000.00
00184              64.00     2960.00
00185             -96.00     2480.00
00186            -200.00     1920.00
00187            -184.00     3200.00
00188             200.00     3120.00
00189            -416.00     2240.00
00190            -200.00     3120.00
00191             488.00     3360.00
00192            -456.00     2880.00
00193            -408.00     3280.00
00194             424.00     3360.00
00195            -296.00     3520.00
00196            -384.00     3440.00
00197              96.00     3360.00
00198            -128.00     4000.00
00199            -200.00     3760.00
00200            -248.00     3520.00
00201            -136.00     4240.00
00202             -64.00     4000.00
00203            -280.00     3840.00
00204             -96.00     4320.00
00205            -136.00     4320.00
00206            -312.00     4240.00
00207            -184.00     4320.00
00208            -160.00     4560.00
00209            -216.00     4560.00
00210            -280.00     4320.00
00211            -240.00     4800.00
00212            -200.00     4800.00
00213            -312.00     4640.00
00214            -192.00     4960.00
00215            -224.00     4880.00
00216            -352.00     4880.00
00217            -288.00     4960.00
00218            -280.00     5040.00
00219            -288.00     5200.00
00220            -296.00     5200.00
00221            -328.00     5280.00
00222            -360.00     5280.00
00223            -360.00     5280.00
00224            -312.00     5440.00
00225            -344.00     5440.00
00226            -408.00     5360.00
00227            -360.00     5440.00
00228            -392.00     5520.00
00229            -448.00     5520.00
00230            -424.00     5520.00
00231            -424.00     5600.00
00232            -448.00     5600.00
00233            -456.00     5600.00
00234            -440.00     5680.00
00235            -512.00     5680.00
00236            -560.00     5680.00
00237            -504.00     5680.00
00238            -504.00     5760.00
00239            -576.00     5680.00
00240            -608.00     5680.00
00241            -576.00     5840.00
00242            -616.00     5760.00
00243            -664.00     5760.00
00244            -640.00     5760.00
00245            -656.00     5840.00
00246            -712.00     5680.00
00247            -712.00     5840.00
00248            -720.00     5840.00
00249            -792.00     5760.00
00250            -816.00     5680.00
00251            -792.00     5680.00
00252            -800.00     5760.00
00253            -848.00     5680.00
00254            -856.00     5680.00
00255            -864.00     5680.00
00256            -888.00     5600.00
00257            -896.00     5600.00
00258            -880.00     5600.00
00259            -896.00     5520.00
00260            -912.00     5520.00
00261            -904.00     5520.00
00262            -920.00     5520.00
00263            -928.00     5360.00
00264            -920.00     5360.00
00265            -888.00     5280.00
00266            -888.00     5280.00
00267            -888.00     5280.00
00268            -888.00     5200.00
00269            -888.00     5200.00
00270            -864.00     5040.00
00271            -832.00     5040.00
00272            -832.00     4960.00
00273            -824.00     4960.00
00274            -808.00     4880.00
00275            -784.00     4880.00
00276            -768.00     4800.00
00277            -744.00     4720.00
00278            -728.00     4640.00
00279            -704.00     4560.00
00280            -680.00     4480.00
00281            -680.00     4480.00
00282            -672.00     4400.00
00283            -640.00     4240.00
00284            -608.00     4160.00
00285            -584.00     4240.00
00286            -576.00     4000.00
00287            -552.00     4000.00
00288            -536.00     3920.00
00289            -520.00     3840.00
00290            -504.00     3760.00
00291            -472.00     3680.00
00292            -456.00     3680.00
00293            -448.00     3440.00
00294            -424.00     3440.00
00295            -416.00     3360.00
00296            -408.00     3280.00
00297            -384.00     3120.00
00298            -360.00     3120.00
00299            -344.00     2960.00
00300            -344.00     2880.00
00301            -328.00     2800.00
00302            -320.00     2720.00
00303            -296.00     2640.00
00304            -280.00     2480.00
00305            -264.00     2400.00
00306            -264.00     2320.00
00307            -248.00     2160.00
00308            -232.00     2160.00
00309            -232.00     2000.00
00310            -224.00     1920.00
00311            -200.00     1760.00
00312            -192.00     1760.00
00313            -184.00     1680.00
00314            -184.00     1520.00
00315            -184.00     1440.00
00316            -168.00     1360.00
00317            -152.00     1200.00
00318            -144.00     1120.00
00319            -136.00     1040.00
00320            -136.00      880.00
00321            -128.00      720.00
00322            -128.00      720.00
00323            -112.00      560.00
00324            -104.00      400.00
00325             -96.00      320.00
00326             -88.00      240.00
00327             -64.00       80.00
00328             -72.00       80.00
00329             -64.00      -80.00
00330             -40.00     -160.00
00331               8.00     -240.00
00332              40.00     -400.00
00333              24.00     -480.00
00334               0.00     -560.00
00335               0.00     -720.00
00336              -8.00     -800.00
00337              32.00     -880.00
00338             264.00     -960.00
00339             712.00    -1200.00
00340             544.00    -1360.00
00341            -360.00    -1440.00
00342           -1016.00    -1440.00
00343            -792.00    -1200.00
00344             888.00    -1760.00
00345             448.00    -1760.00
00346            -520.00    -1520.00
00347             232.00    -2320.00
00348             544.00    -2080.00
00349            -152.00    -1680.00
00350              -8.00    -2480.00
00351              88.00    -2640.00
00352             128.00    -2000.00
00353             392.00    -2480.00
00354            -112.00    -3040.00
00355            -168.00    -2480.00
00356             296.00    -2640.00
00357             -72.00    -2960.00
00358              80.00    -3040.00
00359             448.00    -2960.00
00360            -168.00    -3120.00
00361             -32.00    -3440.00
00362             488.00    -3360.00
00363              96.00    -3120.00
00364            -120.00    -3760.00
00365             256.00    -3760.00
00366             296.00    -3440.00
00367              40.00    -3920.00
00368              40.00    -4080.00
00369             248.00    -3760.00
00370             232.00    -3920.00
00371             104.00    -4320.00
00372             224.00    -4080.00
00373             232.00    -4000.00
00374             136.00    -4400.00
00375             200.00    -4400.00
00376             328.00    -4320.00
00377             168.00    -4560.00
00378             120.00    -4720.00
00379             320.00    -4560.00
00380             280.00    -4720.00
00381             168.00    -4880.00
00382             296.00    -4880.00
00383             344.00    -4800.00
00384             216.00    -4960.00
00385             256.00    -5040.00
00386             352.00    -4880.00
00387             312.00    -5040.00
00388             288.00    -5200.00
00389             352.00    -5200.00
00390             328.00    -5200.00
00391             296.00    -5360.00
00392             384.00    -5360.00
00393             424.00    -5280.00
00394             360.00    -5360.00
00395             376.00    -5520.00
00396             424.00    -5440.00
00397             392.00    -5520.00
00398             400.00    -5520.00
00399             472.00    -5440.00
00400             472.00    -5520.00
00401             456.00    -5680.00
00402             504.00    -5600.00
00403             512.00    -5600.00
00404             480.00    -5600.00
00405             536.00    -5680.00
00406             584.00    -5680.00
00407             568.00    -5680.00
00408             568.00    -5760.00
00409             632.00    -5680.00
00410             632.00    -5680.00
00411             616.00    -5760.00
00412             672.00    -5760.00
00413             720.00    -5680.00
00414             704.00    -5760.00
00415             728.00    -5760.00
00416             768.00    -5680.00
00417             760.00    -5600.00
00418             768.00    -5680.00
00419             824.00    -5600.00
00420             856.00    -5600.00
00421             840.00    -5600.00
00422             856.00    -5600.00
00423             872.00    -5520.00
00424             864.00    -5440.00
00425             880.00    -5520.00
00426             912.00    -5440.00
00427             904.00    -5440.00
00428             896.00    -5440.00
00429             904.00    -5360.00
00430             904.00    -5360.00
00431             888.00    -5360.00
00432             896.00    -5280.00
00433             912.00    -5200.00
00434             896.00    -5200.00
00435             872.00    -5200.00
00436             864.00    -5040.00
00437             856.00    -5040.00
00438             832.00    -5040.00
00439             832.00    -4960.00
00440             832.00    -4880.00
00441             792.00    -4880.00
00442             776.00    -4720.00
00443             760.00    -4720.00
00444             728.00    -4720.00
00445             728.00    -4560.00
00446             728.00    -4560.00
00447             696.00    -4400.00
00448             672.00    -4400.00
00449             640.00    -4320.00
00450             616.00    -4240.00
00451             600.00    -4160.00
00452             592.00    -4080.00
00453             576.00    -4000.00
00454             552.00    -3920.00
00455             520.00    -3920.00
00456             512.00    -3760.00
00457             488.00    -3680.00
00458             472.00    -3680.00
00459             456.00    -3600.00
00460             448.00    -3440.00
00461             424.00    -3440.00
00462             408.00    -3360.00
00463             384.00    -3280.00
00464             360.00    -3120.00
00465             352.00    -3040.00
00466             352.00    -2880.00
00467             336.00    -2800.00
00468             320.00    -2800.00
00469             296.00    -2640.00
00470             288.00    -2640.00
00471             264.00    -2400.00
00472             280.00    -2400.00
00473             256.00    -2320.00
00474             248.00    -2160.00
00475             232.00    -2160.00
00476             224.00    -2000.00
00477             216.00    -1840.00
00478             192.00    -1760.00
00479             192.00    -1680.00
00480             192.00    -1520.00
00481             184.00    -1440.00
00482             160.00    -1360.00
00483             152.00    -1280.00
00484             136.00    -1120.00
00485             136.00    -1040.00
00486             152.00     -960.00
00487             128.00     -880.00
00488             120.00     -720.00
00489             112.00     -640.00
00490              96.00     -560.00
00491              96.00     -400.00
00492              88.00     -320.00
00493              88.00     -160.00
00494              88.00      -80.00
00495              72.00       80.00
00496              64.00      160.00
00497              72.00      240.00
00498             112.00      320.00
00499             128.00      400.00
00500             120.00      480.00
00501              88.00      560.00
00502              64.00      720.00
00503              56.00      800.00
00504              80.00      880.00
00505             448.00     1040.00
00506             904.00     1360.00
00507             408.00     1360.00
00508           -1016.00     1360.00
00509           -1016.00     1200.00
00510               8.00     1680.00
00511             984.00     2000.00
00512            -360.00     1760.00
00513            -576.00     1680.00
00514             840.00     1680.00
00515              24.00     2480.00
00516            -768.00     2320.00
00517             152.00     1760.00
00518             280.00     2640.00
00519             -32.00     2880.00
00520            -160.00     1920.00
00521            -280.00     2640.00
00522             128.00     3440.00
00523            -120.00     2400.00
00524            -488.00     2640.00
00525             384.00     3440.00
00526              32.00     3040.00
00527            -704.00     3120.00
00528             248.00     3360.00
00529              96.00     3440.00
00530            -536.00     3600.00
00531              -8.00     3360.00
00532              -8.00     3760.00
00533            -192.00     4000.00
00534            -216.00     3360.00
00535            -232.00     4000.00
00536             -24.00     4240.00
00537            -200.00     3760.00
00538            -216.00     4080.00
00539             -40.00     4240.00
00540            -280.00     4240.00
00541            -256.00     4400.00
00542            -144.00     4400.00
00543            -200.00     4640.00
00544            -248.00     4400.00
00545            -264.00     4640.00
00546            -184.00     4880.00
00547            -280.00     4640.00
00548            -264.00     4800.00
00549            -168.00     5040.00
00550            -312.00     4880.00
00551            -320.00     4960.00
00552            -264.00     5040.00
00553            -288.00     5120.00
00554            -296.00     5200.00
00555            -320.00     5200.00
00556            -352.00     5360.00
00557            -360.00     5200.00
00558            -328.00     5360.00
00559            -312.00     5440.00
00560            -392.00     5360.00
00561            -384.00     5440.00
00562            -368.00     5520.00
00563            -424.00     5520.00
00564            -440.00     5520.00
00565            -424.00     5520.00
00566            -440.00     5680.00
00567            -464.00     5600.00
00568            -440.00     5680.00
00569            -472.00     5680.00
00570            -552.00     5680.00
00571            -544.00     5680.00
00572            -488.00     5840.00
00573            -544.00     5680.00
00574            -608.00     5680.00
00575            -576.00     5680.00
00576            -600.00     5840.00
00577            -664.00     5840.00
00578            -648.00     5680.00
00579            -640.00     5840.00
00580            -696.00     5760.00
00581            -728.00     5760.00
00582            -704.00     5760.00
00583            -744.00     5680.00
00584            -808.00     5680.00
00585            -800.00     5680.00
00586            -792.00     5760.00
00587            -824.00     5680.00
00588            -856.00     5680.00
00589            -864.00     5680.00
00590            -872.00     5680.00
00591            -896.00     5600.00
00592            -888.00     5600.00
00593            -888.00     5520.00
00594            -904.00     5520.00
00595            -904.00     5520.00
00596            -904.00     5520.00
00597            -920.00     5360.00
00598            -928.00     5360.00
00599            -896.00     5360.00
00600            -888.00     5280.00
00601            -896.00     5280.00
00602            -888.00     5280.00
00603            -896.00     5200.00
00604            -872.00     5120.00
00605            -848.00     5120.00
00606            -832.00     5040.00
00607            -824.00     4960.00
00608            -808.00     4880.00
00609            -792.00     4880.00
00610            -776.00     4800.00
00611            -768.00     4720.00
00612            -744.00     4640.00
00613            -712.00     4640.00
00614            -696.00     4560.00
00615            -672.00     4480.00
00616            -672.00     4320.00
00617            -656.00     4320.00
00618            -616.00     4240.00
00619            -584.00     4240.00
00620            -576.00     4080.00
00621            -576.00     4080.00
00622            -544.00     4000.00
00623            -528.00     3920.00
00624            -512.00     3840.00
00625            -488.00     3680.00
00626            -456.00     3600.00
00627            -456.00     3600.00
00628            -424.00     3440.00
00629            -416.00     3360.00
00630            -408.00     3280.00
00631            -392.00     3200.00
00632            -360.00     3120.00
00633            -352.00     3040.00
00634            -344.00     2960.00
00635            -344.00     2880.00
00636            -320.00     2720.00
00637            -312.00     2640.00
00638            -288.00     2480.00
00639            -272.00     2480.00
00640            -264.00     2320.00
00641            -256.00     2240.00
00642            -256.00     2160.00
00643            -232.00     2080.00
00644            -232.00     1920.00
00645            -224.00     1840.00
00646            -200.00     1760.00
00647            -192.00     1600.00
00648            -184.00     1520.00
00649            -184.00     1440.00
00650            -168.00     1360.00
00651            -168.00     1200.00
00652            -136.00     1120.00
00653            -136.00     1040.00
00654            -128.00      880.00
00655            -136.00      800.00
00656            -128.00      720.00
00657            -120.00      560.00
00658            -104.00      480.00
00659            -104.00      400.00
00660             -88.00      320.00
00661             -72.00      160.00
00662             -72.00       80.00
00663             -72.00      -80.00
00664             -56.00     -160.00
00665               0.00     -240.00
00666              32.00     -320.00
00667              24.00     -400.00
00668               8.00     -560.00
00669               0.00     -640.00
00670               0.00     -720.00
00671               8.00     -880.00
00672             128.00     -880.00
00673             552.00    -1040.00
00674             712.00    -1360.00
00675             104.00    -1440.00
00676           -1016.00    -1440.00
00677           -1016.00    -1280.00
00678             264.00    -1520.00
00679             984.00    -1920.00
00680            -384.00    -1440.00
00681            -168.00    -2000.00
00682             648.00    -2400.00
00683              32.00    -1680.00
00684            -104.00    -2000.00
00685             104.00    -2720.00
00686               8.00    -2160.00
00687             384.00    -2080.00
00688             152.00    -2960.00
00689            -328.00    -2720.00
00690             216.00    -2480.00
00691             104.00    -2880.00
00692            -128.00    -3040.00
00693             416.00    -2960.00
00694             120.00    -2960.00
00695            -264.00    -3280.00
00696             360.00    -3440.00
00697             352.00    -3120.00
00698            -136.00    -3520.00
00699             104.00    -3920.00
00700             344.00    -3520.00
00701             152.00    -3600.00
00702               0.00    -4080.00
00703             168.00    -3920.00
00704             264.00    -3760.00
00705             152.00    -4240.00
00706             152.00    -4240.00
00707             264.00    -4080.00
00708             184.00    -4240.00
00709             136.00    -4560.00
00710             288.00    -4320.00
00711             256.00    -4400.00
00712              96.00    -4640.00
00713             224.00    -4640.00
00714             344.00    -4560.00
00715             192.00    -4720.00
00716             216.00    -4880.00
00717             352.00    -4720.00
00718             264.00    -4880.00
00719             216.00    -5040.00
00720             320.00    -4960.00
00721             336.00    -4960.00
00722             280.00    -5200.00
00723             328.00    -5200.00
00724             360.00    -5120.00
00725             296.00    -5280.00
00726             344.00    -5360.00
00727             424.00    -5280.00
00728             384.00    -5360.00
00729             360.00    -5440.00
00730             408.00    -5360.00
00731             408.00    -5440.00
00732             384.00    -5520.00
00733             440.00    -5520.00
00734             488.00    -5440.00
00735             464.00    -5600.00
00736             472.00    -5600.00
00737             520.00    -5520.00
00738             488.00    -5600.00
00739             504.00    -5680.00
00740             576.00    -5680.00
00741             584.00    -5680.00
00742             552.00    -5680.00
00743             600.00    -5680.00
00744             640.00    -5680.00
00745             616.00    -5760.00
00746             640.00    -5760.00
00747             712.00    -5680.00
00748             712.00    -5600.00
00749             704.00    -5840.00
00750             760.00    -5680.00
00751             768.00    -5680.00
00752             760.00    -5680.00
00753             800.00    -5680.00
00754             856.00    -5600.00
00755             840.00    -5600.00
00756             840.00    -5600.00
00757             872.00    -5600.00
00758             872.00    -5520.00
00759             872.00    -5520.00
00760             896.00    -5440.00
00761             920.00    -5440.00
00762             904.00    -5440.00
00763             896.00    -5440.00
00764             896.00    -5360.00
00765             896.00    -5280.00
00766             888.00    -5280.00
00767             904.00    -5200.00
00768             904.00    -5200.00
00769             880.00    -5200.00
00770             864.00    -5040.00
00771             856.00    -5040.00
00772             832.00    -4960.00
00773             832.00    -4960.00
00774             832.00    -4960.00
00775             808.00    -4800.00
00776             776.00    -4800.00
00777             768.00    -4720.00
00778             744.00    -4640.00
00779             736.00    -4640.00
00780             712.00    -4560.00
00781             704.00    -4480.00
00782             680.00    -4400.00
00783             656.00    -4320.00
00784             632.00    -4320.00
00785             600.00    -4240.00
00786             592.00    -4160.00
00787             584.00    -4080.00
00788             568.00    -4000.00
00789             536.00    -3920.00
00790             512.00    -3840.00
00791             504.00    -3680.00
00792             480.00    -3680.00
00793             472.00    -3600.00
00794             456.00    -3520.00
00795             440.00    -3440.00
00796             408.00    -3360.00
00797             392.00    -3280.00
00798             376.00    -3120.00
00799             360.00    -3040.00
00800             352.00    -2960.00
00801             352.00    -2880.00
00802             320.00    -2800.00
00803             312.00    -2720.00
00804             296.00    -2640.00
00805             280.00    -2480.00
00806             264.00    -2480.00
00807             264.00    -2320.00
00808             248.00    -2160.00
00809             232.00    -2160.00
00810             224.00    -2080.00
00811             216.00    -1920.00
00812             200.00    -1840.00
00813             200.00    -1760.00
00814             192.00    -1680.00
00815             184.00    -1520.00
00816             168.00    -1360.00
00817             152.00    -1360.00
00818             152.00    -1200.00
00819             144.00    -1040.00
00820             136.00     -960.00
00821             136.00     -880.00
00822             120.00     -800.00
00823             120.00     -720.00
00824             104.00     -560.00
00825             104.00     -480.00
00826              88.00     -320.00
00827              96.00     -240.00
00828              88.00     -160.00
00829              88.00      -80.00
00830              64.00       80.00
00831              64.00      160.00
00832              88.00      240.00
00833             128.00      400.00
00834             128.00      480.00
00835              96.00      560.00
00836              72.00      640.00
00837              56.00      720.00
00838              56.00      800.00
00839             208.00     1040.00
00840             784.00     1200.00
00841             736.00     1280.00
00842            -320.00     1360.00
00843           -1016.00     1200.00
00844            -952.00     1440.00
00845             984.00     1840.00
00846             536.00     1840.00
00847            -832.00     1680.00
00848             280.00     1680.00
00849             704.00     2160.00
00850            -680.00     2640.00
00851            -352.00     1840.00
00852             464.00     2160.00
00853              32.00     3040.00
00854            -120.00     2240.00
00855            -224.00     2000.00
00856            -104.00     3360.00
00857             152.00     2960.00
00858            -480.00     2320.00
00859             -56.00     3280.00
00860             440.00     3280.00
00861            -592.00     2960.00
00862            -232.00     3280.00
00863             408.00     3360.00
00864            -392.00     3600.00
00865            -288.00     3440.00
00866              96.00     3360.00
00867            -160.00     4000.00
00868            -192.00     3680.00
00869            -256.00     3600.00
00870             -96.00     4400.00
00871             -96.00     3920.00
00872            -288.00     3920.00
00873             -72.00     4400.00
00874            -168.00     4240.00
00875            -304.00     4320.00
00876            -160.00     4320.00
00877            -168.00     4560.00
00878            -224.00     4560.00
00879            -288.00     4480.00
00880            -216.00     4880.00
00881            -216.00     4720.00
00882            -312.00     4720.00
00883            -184.00     4960.00
00884            -248.00     4880.00
00885            -352.00     4960.00
00886            -280.00     4960.00
00887            -280.00     5120.00
00888            -288.00     5120.00
00889            -304.00     5120.00
00890            -344.00     5280.00
00891            -360.00     5200.00
00892            -360.00     5280.00
00893            -312.00     5440.00
00894            -360.00     5360.00
00895            -400.00     5360.00
00896            -376.00     5360.00
00897            -416.00     5520.00
00898            -448.00     5600.00
00899            -424.00     5520.00
00900            -424.00     5600.00
00901            -464.00     5600.00
00902            -456.00     5600.00
00903            -456.00     5680.00
00904            -520.00     5680.00
00905            -568.00     5600.00
00906            -504.00     5760.00
00907            -512.00     5840.00
00908            -600.00     5680.00
00909            -600.00     5680.00
00910            -576.00     5760.00
00911            -632.00     5840.00
00912            -664.00     5760.00
00913            -640.00     5840.00
00914            -672.00     5760.00
00915            -728.00     5680.00
00916            -712.00     5760.00
00917            -720.00     5760.00
00918            -792.00     5680.00
00919            -808.00     5680.00
00920            -776.00     5680.00
00921            -808.00     5680.00
00922            -856.00     5680.00
00923            -856.00     5680.00
00924            -864.00     5680.00
00925            -896.00     5600.00
00926            -896.00     5600.00
00927            -896.00     5600.00
00928            -896.00     5520.00
00929            -904.00     5520.00
00930            -904.00     5520.00
00931            -920.00     5520.00
00932            -928.00     5360.00
00933            -912.00     5360.00
00934            -888.00     5360.00
00935            -888.00     5280.00
00936            -888.00     5280.00
00937            -888.00     5200.00
00938            -888.00     5200.00
00939            -864.00     5120.00
00940            -832.00     5040.00
00941            -824.00     4960.00
00942            -808.00     4960.00
00943            -808.00     4880.00
00944            -776.00     4880.00
00945            -776.00     4800.00
00946            -760.00     4720.00
00947            -720.00     4640.00
00948            -704.00     4640.00
00949            -680.00     4480.00
00950            -680.00     4400.00
00951            -664.00     4320.00
00952            -640.00     4240.00
00953            -608.00     4240.00
00954            -576.00     4160.00
00955            -576.00     4080.00
00956            -552.00     4000.00
00957            -536.00     3920.00
00958            -520.00     3760.00
00959            -504.00     3760.00
00960            -480.00     3680.00
00961            -456.00     3600.00
00962            -440.00     3520.00
00963            -416.00     3360.00
00964            -416.00     3360.00
00965            -408.00     3200.00
00966            -384.00     3120.00
00967            -352.00     3040.00
00968            -344.00     2960.00
00969            -352.00     2880.00
00970            -328.00     2800.00
00971            -320.00     2720.00
00972            -296.00     2640.00
00973            -280.00     2480.00
00974            -264.00     2400.00
00975            -264.00     2320.00
00976            -256.00     2160.00
00977            -232.00     2160.00
00978            -232.00     2000.00
00979            -232.00     1840.00
00980            -208.00     1760.00
00981            -192.00     1680.00
00982            -192.00     1520.00
00983            -184.00     1520.00
00984            -184.00     1360.00
00985            -168.00     1360.00
00986            -152.00     1200.00
00987            -136.00     1120.00
00988            -136.00      960.00
00989            -136.00      800.00
00990            -128.00      720.00
00991            -128.00      640.00
00992            -104.00      560.00
00993            -104.00      400.00
00994             -96.00      320.00
00995             -80.00      240.00
00996             -64.00       80.00
00997             -72.00       80.00
00998             -72.00     -160.00
00999             -24.00     -240.00
01000              24.00     -240.00
01001              32.00     -400.00
01002              24.00     -560.00
01003               8.00     -560.00
01004               0.00     -720.00
01005               0.00     -800.00
01006              56.00     -880.00
01007             344.00    -1040.00
01008             744.00    -1200.00
01009             456.00    -1360.00
01010            -536.00    -1360.00
01011           -1016.00    -1360.00
01012            -520.00    -1360.00
01013             984.00    -1840.00
01014             208.00    -1680.00
01015            -472.00    -1520.00
01016             376.00    -2480.00
01017             424.00    -1840.00
01018            -160.00    -1680.00
01019              24.00    -2640.00
01020              64.00    -2560.00
01021             208.00    -2000.00
01022             352.00    -2640.00
01023            -200.00    -2960.00
01024             -72.00    -2480.00
01025             280.00    -2800.00
01026            -128.00    -3040.00
01027             168.00    -3040.00
01028             408.00    -2960.00
01029            -232.00    -3120.00
01030              64.00    -3520.00
01031             480.00    -3280.00
01032              24.00    -3200.00
01033             -88.00    -3840.00
01034             296.00    -3680.00
01035             272.00    -3360.00
01036               8.00    -3920.00
01037              64.00    -4080.00
01038             264.00    -3680.00
01039             216.00    -4000.00
01040             120.00    -4320.00
01041             248.00    -4080.00
01042             224.00    -4160.00
01043             120.00    -4560.00
01044             224.00    -4400.00
01045             312.00    -4320.00
01046             136.00    -4640.00
01047             136.00    -4720.00
01048             352.00    -4560.00
01049             256.00    -4720.00
01050             168.00    -4880.00
01051             312.00    -4880.00
01052             320.00    -4800.00
01053             216.00    -4960.00
01054             280.00    -5040.00
01055             352.00    -4960.00
01056             288.00    -5200.00
01057             296.00    -5200.00
01058             360.00    -5200.00
01059             328.00    -5200.00
01060             312.00    -5360.00
01061             392.00    -5280.00
01062             408.00    -5280.00
01063             352.00    -5440.00
01064             392.00    -5440.00
01065             424.00    -5440.00
01066             392.00    -5520.00
01067             408.00    -5520.00
01068             480.00    -5440.00
01069             472.00    -5520.00
01070             456.00    -5680.00
01071             512.00    -5600.00
01072             512.00    -5440.00
01073             488.00    -5680.00
01074             544.00    -5680.00
01075             600.00    -5600.00
01076             568.00    -5680.00
01077             576.00    -5680.00
01078             632.00    -5680.00
01079             632.00    -5680.00
01080             616.00    -5680.00
01081             680.00    -5680.00
01082             728.00    -5600.00
01083             704.00    -5680.00
01084             736.00    -5680.00
01085             768.00    -5680.00
01086             760.00    -5680.00
01087             776.00    -5680.00
01088             832.00    -5600.00
01089             856.00    -5600.00
01090             832.00    -5600.00
01091             864.00    -5680.00
01092             880.00    -5600.00
01093             864.00    -5520.00
01094             888.00    -5520.00
01095             904.00    -5440.00
01096             904.00    -5440.00
01097             896.00    -5440.00
01098             904.00    -5360.00
01099             896.00    -5280.00
01100             880.00    -5360.00
01101             896.00    -5280.00
01102             904.00    -5280.00
01103             888.00    -5200.00
01104             864.00    -5200.00
01105             856.00    -5040.00
01106             840.00    -5040.00
01107             832.00    -5040.00
01108             832.00    -4880.00
01109             824.00    -4880.00
01110             792.00    -4880.00
01111             768.00    -4720.00
01112             752.00    -4720.00
01113             728.00    -4640.00
01114             728.00    -4560.00
01115             720.00    -4480.00
01116             696.00    -4480.00
01117             664.00    -4400.00
01118             640.00    -4320.00
01119             616.00    -4240.00
01120             600.00    -4240.00
01121             600.00    -4080.00
01122             576.00    -4080.00
01123             544.00    -4000.00
01124             520.00    -3920.00
01125             512.00    -3760.00
01126             488.00    -3760.00
01127             472.00    -3680.00
01128             456.00    -3520.00
01129             440.00    -3440.00
01130             416.00    -3440.00
01131             408.00    -3280.00
01132             384.00    -3280.00
01133             360.00    -3120.00
01134             360.00    -3040.00
01135             352.00    -2960.00
01136             328.00    -2800.00
01137             312.00    -2800.00
01138             296.00    -2640.00
01139             280.00    -2560.00
01140             272.00    -2480.00
01141             280.00    -2320.00
01142             256.00    -2240.00
01143             248.00    -2160.00
01144             224.00    -2080.00
01145             216.00    -2000.00
01146             216.00    -1840.00
01147             200.00    -1760.00
01148             200.00    -1680.00
01149             192.00    -1520.00
01150             176.00    -1440.00
01151             152.00    -1360.00
01152             152.00    -1280.00
01153             136.00    -1120.00
01154             136.00    -1040.00
01155             136.00     -960.00
01156             128.00     -800.00
01157             120.00     -720.00
01158             104.00     -560.00
01159              96.00     -480.00
01160              88.00     -320.00
01161              88.00     -320.00
01162              88.00     -160.00
01163              80.00      -80.00
01164              64.00       80.00
01165              64.00      160.00
01166              72.00      240.00
01167             112.00      240.00
01168             128.00      400.00
01169             120.00      480.00
01170              88.00      560.00
01171              64.00      720.00
01172              56.00      800.00
01173              96.00      960.00
01174             536.00     1120.00
01175             896.00     1360.00
01176             248.00     1440.00
01177           -1016.00     1360.00
01178           -1016.00     1200.00
01179             344.00     1680.00
01180             984.00     1920.00
01181            -576.00     1760.00
01182            -392.00     1680.00
01183             928.00     1840.00
01184            -208.00     2480.00
01185            -712.00     2160.00
01186             288.00     1760.00
01187             192.00     2800.00
01188             -56.00     2800.00
01189            -168.00     2000.00
01190            -264.00     2800.00
01191             192.00     3440.00
01192            -224.00     2320.00
01193            -432.00     2800.00
01194             456.00     3440.00
01195            -136.00     2960.00
01196            -640.00     3120.00
01197             352.00     3360.00
01198             -40.00     3440.00
01199            -512.00     3600.00
01200              56.00     3280.00
01201             -56.00     3760.00
01202            -192.00     4000.00
01203            -216.00     3360.00
01204            -200.00     4160.00
01205             -32.00     4240.00
01206            -240.00     3760.00
01207            -168.00     4240.00
01208             -64.00     4320.00
01209            -296.00     4240.00
01210            -224.00     4320.00
01211            -152.00     4400.00
01212            -192.00     4640.00
01213            -264.00     4400.00
01214            -256.00     4720.00
01215            -184.00     4880.00
01216            -296.00     4640.00
01217            -248.00     4960.00
01218            -184.00     4960.00
01219            -344.00     4880.00
01220            -296.00     5040.00
01221            -264.00     5040.00
01222            -296.00     5200.00
01223            -296.00     5120.00
01224            -320.00     5200.00
01225            -344.00     5360.00
01226            -360.00     5200.00
01227            -320.00     5360.00
01228            -320.00     5360.00
01229            -400.00     5280.00
01230            -384.00     5440.00
01231            -384.00     5520.00
01232            -440.00     5520.00
01233            -448.00     5520.00
01234            -424.00     5600.00
01235            -448.00     5680.00
01236            -456.00     5600.00
01237            -448.00     5680.00
01238            -488.00     5680.00
01239            -568.00     5680.00
01240            -536.00     5680.00
01241            -488.00     5840.00
01242            -568.00     5760.00
01243            -608.00     5680.00
01244            -576.00     5760.00
01245            -608.00     5760.00
01246            -664.00     5760.00
01247            -648.00     5680.00
01248            -640.00     5840.00
01249            -704.00     5760.00
01250            -728.00     5760.00
01251            -712.00     5840.00
01252            -768.00     5680.00
01253            -808.00     5680.00
01254            -800.00     5680.00
01255            -792.00     5760.00
01256            -832.00     5680.00
01257            -864.00     5680.00
01258            -864.00     5680.00
01259            -872.00     5600.00
01260            -896.00     5600.00
01261            -888.00     5600.00
01262            -896.00     5520.00
01263            -920.00     5520.00
01264            -904.00     5520.00
01265            -904.00     5520.00
01266            -920.00     5360.00
01267            -920.00     5360.00
01268            -896.00     5360.00
01269            -888.00     5360.00
01270            -888.00     5280.00
01271            -888.00     5200.00
01272            -888.00     5120.00
01273            -864.00     5120.00
01274            -840.00     5040.00
01275            -832.00     5040.00
01276            -824.00     4880.00
01277            -808.00     4880.00
01278            -792.00     4880.00
01279            -776.00     4800.00
01280            -768.00     4720.00
01281            -736.00     4640.00
01282            -704.00     4640.00
01283            -696.00     4560.00
01284            -680.00     4480.00
01285            -664.00     4400.00
01286            -648.00     4320.00
01287            -616.00     4240.00
01288            -584.00     4160.00
01289            -576.00     4080.00
01290            -568.00     4000.00
01291            -544.00     4000.00
01292            -520.00     3920.00
01293            -512.00     3760.00
01294            -488.00     3680.00
01295            -472.00     3600.00
01296            -448.00     3520.00
01297            -424.00     3440.00
01298            -424.00     3360.00
01299            -416.00     3280.00
01300            -392.00     3120.00
01301            -376.00     3120.00
01302            -344.00     2960.00
01303            -344.00     2960.00
01304            -336.00     2800.00
01305            -320.00     2720.00
01306            -312.00     2640.00
01307            -288.00     2480.00
01308            -280.00     2400.00
01309            -264.00     2320.00
01310            -256.00     2160.00
01311            -248.00     2080.00
01312            -232.00     2080.00
01313            -232.00     2000.00
01314            -224.00     1840.00
01315            -200.00     1680.00
01316            -192.00     1600.00
01317            -184.00     1520.00
01318            -184.00     1440.00
01319            -168.00     1360.00
01320            -152.00     1200.00
01321            -136.00     1120.00
01322            -136.00     1040.00
01323            -128.00      880.00
01324            -136.00      800.00
01325            -128.00      720.00
01326            -104.00      560.00
01327            -104.00      400.00
01328             -96.00      320.00
01329             -96.00      240.00
01330             -72.00      160.00
01331             -72.00       80.00
01332             -72.00      -80.00
01333             -40.00     -160.00
01334               8.00     -240.00
01335              32.00     -320.00
01336              16.00     -480.00
01337               0.00     -560.00
01338               0.00     -640.00
01339               0.00     -800.00
01340              24.00     -800.00
01341             168.00     -960.00
01342             616.00    -1120.00
01343             672.00    -1360.00
01344             -40.00    -1440.00
01345           -1016.00    -1440.00
01346           -1016.00    -1280.00
01347             504.00    -1680.00
01348             864.00    -1840.00
01349            -488.00    -1440.00
01350             -40.00    -2080.00
01351             672.00    -2320.00
01352             -48.00    -1600.00
01353             -64.00    -2160.00
01354              96.00    -2800.00
01355               8.00    -2080.00
01356             408.00    -2240.00
01357              72.00    -2960.00
01358            -296.00    -2720.00
01359             264.00    -2480.00
01360              40.00    -2960.00
01361             -88.00    -3040.00
01362             456.00    -2880.00
01363              24.00    -3040.00
01364            -200.00    -3360.00
01365             416.00    -3440.00
01366             264.00    -3200.00
01367            -160.00    -3600.00
01368             160.00    -3840.00
01369             328.00    -3360.00
01370             112.00    -3680.00
01371               0.00    -4160.00
01372             192.00    -3840.00
01373             256.00    -3760.00
01374             136.00    -4240.00
01375             184.00    -4240.00
01376             256.00    -4000.00
01377             152.00    -4320.00
01378             152.00    -4480.00
01379             312.00    -4320.00
01380             224.00    -4400.00
01381              96.00    -4720.00
01382             264.00    -4640.00
01383             336.00    -4640.00
01384             176.00    -4880.00
01385             256.00    -4960.00
01386             352.00    -4800.00
01387             248.00    -4880.00
01388             224.00    -5040.00
01389             328.00    -4960.00
01390             328.00    -5040.00
01391             280.00    -5200.00
01392             344.00    -5200.00
01393             352.00    -5040.00
01394             296.00    -5360.00
01395             360.00    -5360.00
01396             424.00    -5280.00
01397             376.00    -5360.00
01398             376.00    -5440.00
01399             424.00    -5520.00
01400             416.00    -5440.00
01401             384.00    -5520.00
01402             456.00    -5520.00
01403             488.00    -5520.00
01404             464.00    -5600.00
01405             488.00    -5600.00
01406             520.00    -5520.00
01407             480.00    -5600.00
01408             512.00    -5680.00
01409             576.00    -5680.00
01410             576.00    -5680.00
01411             552.00    -5680.00
01412             608.00    -5680.00
01413             640.00    -5680.00
01414             608.00    -5680.00
01415             648.00    -5760.00
01416             712.00    -5680.00
01417             712.00    -5680.00
01418             720.00    -5760.00
01419             760.00    -5760.00
01420             768.00    -5680.00
01421             760.00    -5680.00
01422             800.00    -5680.00
01423             856.00    -5600.00
01424             840.00    -5680.00
01425             840.00    -5600.00
01426             872.00    -5520.00
01427             872.00    -5520.00
01428             872.00    -5520.00
01429             896.00    -5520.00
01430             912.00    -5440.00
01431             896.00    -5440.00
01432             896.00    -5360.00
01433             896.00    -5360.00
01434             888.00    -5360.00
01435             888.00    -5360.00
01436             904.00    -5280.00
01437             896.00    -5200.00
01438             872.00    -5200.00
01439             864.00    -5040.00
01440             840.00    -5040.00
01441             840.00    -4960.00
01442             832.00    -4960.00
01443             832.00    -4880.00
01444             800.00    -4880.00
01445             776.00    -4720.00
01446             768.00    -4720.00
01447             744.00    -4640.00
01448             728.00    -4640.00
01449             720.00    -4560.00
01450             704.00    -4480.00
01451             672.00    -4400.00
01452             648.00    -4400.00
01453             632.00    -4240.00
01454             608.00    -4240.00
01455             600.00    -4080.00
01456             584.00    -4080.00
01457             568.00    -4000.00
01458             536.00    -3920.00
01459             520.00    -3840.00
01460             496.00    -3760.00
01461             472.00    -3680.00
01462             472.00    -3600.00
01463             456.00    -3520.00
01464             432.00    -3440.00
01465             416.00    -3360.00
01466             392.00    -3280.00
01467             376.00    -3120.00
01468             360.00    -3040.00
01469             360.00    -2880.00
01470             352.00    -2800.00
01471             320.00    -2800.00
01472             312.00    -2720.00
01473             288.00    -2560.00
01474             280.00    -2480.00
01475             272.00    -2400.00
01476             264.00    -2320.00
01477             256.00    -2160.00
01478             232.00    -2080.00
01479             216.00    -2000.00
01480             200.00    -1920.00
01481             200.00    -1840.00
01482             192.00    -1680.00
01483             192.00    -1600.00
01484             184.00    -1520.00
01485             168.00    -1360.00
01486             152.00    -1280.00
01487             152.00    -1200.00
01488             136.00    -1040.00
01489             136.00     -960.00
01490             128.00     -880.00
01491             120.00     -800.00
01492              96.00     -720.00
01493              96.00     -560.00
01494              96.00     -400.00
01495              88.00     -320.00
01496              88.00     -160.00
01497              80.00      -80.00
01498              72.00       80.00
01499              64.00       80.00
01500              64.00      160.00
01501              96.00      320.00
01502             128.00      400.00
01503             120.00      480.00
01504              96.00      560.00
01505              72.00      720.00
01506              56.00      720.00
01507              64.00      880.00
01508             280.00     1040.00
01509             856.00     1200.00
01510             640.00     1360.00
01511            -568.00     1360.00
01512           -1016.00     1120.00
01513            -648.00     1600.00
01514             984.00     1840.00
01515             200.00     1760.00
01516            -792.00     1760.00
01517             504.00     1600.00
01518             504.00     2320.00
01519            -744.00     2480.00
01520            -184.00     1760.00
01521             432.00     2320.00
01522               0.00     3040.00
01523            -136.00     2160.00
01524            -248.00     2240.00
01525              -8.00     3440.00
01526              88.00     2720.00
01527            -520.00     2400.00
01528             120.00     3360.00
01529             328.00     3200.00
01530            -672.00     2960.00
01531             -56.00     3280.00
01532             328.00     3360.00
01533            -480.00     3600.00
01534            -184.00     3440.00
01535              72.00     3440.00
01536            -168.00     4080.00
01537            -192.00     3440.00
01538            -256.00     3680.00
01539             -64.00     4400.00
01540            -128.00     3760.00
01541            -264.00     4000.00
01542             -40.00     4320.00
01543            -216.00     4240.00
01544            -296.00     4320.00
01545            -152.00     4400.00
01546            -176.00     4640.00
01547            -232.00     4560.00
01548            -288.00     4480.00
01549            -192.00     4880.00
01550            -232.00     4720.00
01551            -296.00     4720.00
01552            -168.00     4960.00
01553            -280.00     4960.00
01554            -352.00     4960.00
01555            -272.00     4960.00
01556            -288.00     5120.00
01557            -296.00     5120.00
01558            -320.00     5040.00
01559            -344.00     5280.00
01560            -360.00     5200.00
01561            -360.00     5280.00
01562            -312.00     5440.00
01563            -376.00     5360.00
01564            -408.00     5360.00
01565            -376.00     5520.00
01566            -416.00     5520.00
01567            -448.00     5520.00
01568            -424.00     5520.00
01569            -424.00     5600.00
01570            -464.00     5600.00
01571            -456.00     5600.00
01572            -456.00     5680.00
01573            -536.00     5680.00
01574            -560.00     5680.00
01575            -488.00     5760.00
01576            -520.00     5760.00
01577            -608.00     5680.00
01578            -584.00     5760.00
01579            -584.00     5760.00
01580            -640.00     5840.00
01581            -664.00     5760.00
01582            -640.00     5680.00
01583            -680.00     5760.00
01584            -720.00     5680.00
01585            -712.00     5840.00
01586            -736.00     5760.00
01587            -808.00     5680.00
01588            -808.00     5680.00
01589            -792.00     5680.00
01590            -808.00     5680.00
01591            -848.00     5600.00
01592            -856.00     5680.00
01593            -872.00     5600.00
01594            -896.00     5600.00
01595            -896.00     5600.00
01596            -888.00     5520.00
01597            -904.00     5520.00
01598            -904.00     5520.00
01599            -904.00     5520.00
01600            -912.00     5520.00
01601            -920.00     5360.00
01602            -904.00     5360.00
01603            -888.00     5360.00
01604            -888.00     5280.00
01605            -896.00     5200.00
01606            -896.00     5200.00
01607            -872.00     5120.00
01608            -856.00     5040.00
01609            -832.00     5040.00
01610            -824.00     4960.00
01611            -808.00     4880.00
01612            -800.00     4880.00
01613            -776.00     4800.00
01614            -768.00     4720.00
01615            -744.00     4800.00
01616            -712.00     4640.00
01617            -704.00     4560.00
01618            -680.00     4480.00
01619            -672.00     4400.00
01620            -672.00     4320.00
01621            -632.00     4240.00
01622            -608.00     4240.00
01623            -576.00     4160.00
01624            -568.00     4080.00
01625            -552.00     4000.00
01626            -536.00     3920.00
01627            -512.00     3840.00
01628            -504.00     3680.00
01629            -480.00     3600.00
01630            -472.00     3600.00
01631            -440.00     3440.00
01632            -424.00     3360.00
01633            -416.00     3280.00
01634            -408.00     3200.00
01635            -384.00     3120.00
01636            -352.00     3040.00
01637            -344.00     2960.00
01638            -352.00     2880.00
01639            -328.00     2800.00
01640            -320.00     2640.00
01641            -296.00     2560.00
01642            -264.00     2480.00
01643            -232.00     2320.00
01644            -248.00     2320.00
01645            -240.00     2240.00
01646            -224.00     2080.00
01647            -280.00     1920.00
01648            -288.00     1840.00
01649            -288.00     1760.00
01650            -200.00     1680.00
01651            -160.00     1520.00
01652             -96.00     1520.00
01653             -80.00     1360.00
01654            -104.00     1280.00
01655            -152.00     1120.00
01656            -200.00     1040.00
01657            -224.00      880.00
01658            -200.00      800.00
01659            -128.00      720.00
01660             -88.00      560.00
01661             -64.00      480.00
01662             -40.00      400.00
01663             -56.00      320.00
01664             -56.00      160.00
01665             -64.00       80.00
01666             -88.00      -80.00
01667            -104.00     -160.00
01668             -56.00     -240.00
01669               8.00     -240.00
01670              40.00     -400.00
01671              32.00     -480.00
01672              24.00     -640.00
01673              24.00     -720.00
01674              16.00     -800.00
01675              72.00     -880.00
01676             408.00     -960.00
01677             736.00    -1360.00
01678             320.00    -1440.00
01679            -744.00    -1440.00
01680           -1016.00    -1360.00
01681            -256.00    -1360.00
01682             984.00    -1840.00
01683               0.00    -1600.00
01684            -368.00    -1680.00
01685             504.00    -2400.00
01686             280.00    -1840.00
01687            -176.00    -1840.00
01688              32.00    -2720.00
01689              16.00    -2400.00
01690             264.00    -2000.00
01691             312.00    -2800.00
01692            -240.00    -2880.00
01693              56.00    -2480.00
01694             248.00    -2800.00
01695            -152.00    -3040.00
01696             248.00    -3040.00
01697             296.00    -3040.00
01698            -296.00    -3200.00
01699             184.00    -3520.00
01700             472.00    -3200.00
01701             -40.00    -3280.00
01702              -8.00    -3920.00
01703             320.00    -3600.00
01704             224.00    -3440.00
01705              -8.00    -4080.00
01706              96.00    -4080.00
01707             264.00    -3760.00
01708             192.00    -4080.00
01709             128.00    -4400.00
01710             264.00    -4080.00
01711             216.00    -4160.00
01712             120.00    -4560.00
01713             256.00    -4400.00
01714             296.00    -4400.00
01715             120.00    -4720.00
01716             168.00    -4720.00
01717             360.00    -4560.00
01718             232.00    -4720.00
01719             192.00    -4880.00
01720             336.00    -4800.00
01721             312.00    -4880.00
01722             200.00    -5040.00
01723             296.00    -5040.00
01724             352.00    -4960.00
01725             288.00    -5200.00
01726             320.00    -5200.00
01727             360.00    -5120.00
01728             328.00    -5280.00
01729             320.00    -5360.00
01730             408.00    -5280.00
01731             408.00    -5360.00
01732             360.00    -5440.00
01733             408.00    -5440.00
01734             424.00    -5360.00
01735             400.00    -5520.00
01736             424.00    -5600.00
01737             488.00    -5440.00
01738             472.00    -5600.00
01739             472.00    -5680.00
01740             512.00    -5600.00
01741             504.00    -5600.00
01742             480.00    -5680.00
01743             560.00    -5680.00
01744             600.00    -5680.00
01745             568.00    -5680.00
01746             584.00    -5760.00
01747             640.00    -5680.00
01748             616.00    -5680.00
01749             632.00    -5680.00
01750             680.00    -5680.00
01751             712.00    -5680.00
01752             704.00    -5680.00
01753             744.00    -5680.00
01754             768.00    -5680.00
01755             760.00    -5680.00
01756             776.00    -5680.00
01757             840.00    -5600.00
01758             856.00    -5600.00
01759             840.00    -5600.00
01760             856.00    -5600.00
01761             872.00    -5440.00
01762             864.00    -5520.00
01763             888.00    -5440.00
01764             920.00    -5440.00
01765             904.00    -5440.00
01766             888.00    -5440.00
01767             896.00    -5360.00
01768             896.00    -5360.00
01769             888.00    -5360.00
01770             896.00    -5280.00
01771             912.00    -5280.00
01772             888.00    -5200.00
01773             864.00    -5120.00
01774             856.00    -5040.00
01775             840.00    -5040.00
01776             832.00    -5040.00
01777             832.00    -4880.00
01778             824.00    -4880.00
01779             792.00    -4880.00
01780             768.00    -4880.00
01781             760.00    -4720.00
01782             728.00    -4640.00
01783             728.00    -4640.00
01784             712.00    -4560.00
01785             696.00    -4480.00
01786             664.00    -4400.00
01787             640.00    -4320.00
01788             608.00    -4240.00
01789             600.00    -4240.00
01790             592.00    -4080.00
01791             576.00    -4000.00
01792             544.00    -3920.00
01793             520.00    -3920.00
01794             512.00    -3760.00
01795             488.00    -3760.00
01796             472.00    -3680.00
01797             448.00    -3600.00
01798             448.00    -3440.00
01799             424.00    -3440.00
01800             400.00    -3280.00
01801             384.00    -3200.00
01802             360.00    -3120.00
01803             352.00    -3040.00
01804             352.00    -2880.00
01805             336.00    -2800.00
01806             312.00    -2720.00
01807             296.00    -2640.00
01808             280.00    -2480.00
01809             264.00    -2400.00
01810             264.00    -2400.00
01811             256.00    -2240.00
01812             240.00    -2160.00
01813             224.00    -2080.00
01814             216.00    -1920.00
01815             200.00    -1840.00
01816             192.00    -1760.00
01817             200.00    -1680.00
01818             192.00    -1520.00
01819             168.00    -1440.00
01820             152.00    -1280.00
01821             152.00    -1200.00
01822             136.00    -1120.00
01823             136.00    -1040.00
01824             136.00     -880.00
01825             120.00     -880.00
01826             104.00     -720.00
01827              96.00     -640.00
01828              96.00     -480.00
01829              88.00     -320.00
01830              88.00     -320.00
01831              88.00     -240.00
01832              72.00      -80.00
01833              64.00       80.00
01834              72.00      160.00
01835              88.00      240.00
01836             120.00      400.00
01837             128.00      400.00
01838             112.00      480.00
01839              72.00      640.00
01840              64.00      720.00
01841              56.00      800.00
01842             128.00      880.00
01843             632.00     1120.00
01844             864.00     1360.00
01845              72.00     1360.00
01846           -1016.00     1200.00
01847           -1016.00     1200.00
01848             664.00     1680.00
01849             984.00     1840.00
01850            -728.00     1680.00
01851            -192.00     1680.00
01852             928.00     2000.00
01853            -424.00     2560.00
01854            -616.00     2080.00
01855             392.00     1840.00
01856             128.00     2880.00
01857             -64.00     2640.00
01858            -184.00     1840.00
01859            -232.00     3040.00
01860             216.00     3280.00
01861            -320.00     2240.00
01862            -320.00     2960.00
01863             512.00     3440.00
01864            -312.00     2960.00
01865            -536.00     3120.00
01866             416.00     3360.00
01867            -168.00     3520.00
01868            -448.00     3600.00
01869              96.00     3360.00
01870             -96.00     3920.00
01871            -192.00     3920.00
01872            -232.00     3440.00
01873            -168.00     4240.00
01874             -32.00     4080.00
01875            -264.00     3760.00
01876            -128.00     4320.00
01877             -96.00     4240.00
01878            -296.00     4320.00
01879            -192.00     4320.00
01880            -152.00     4560.00
01881            -200.00     4640.00
01882            -280.00     4400.00
01883            -256.00     4720.00
01884            -192.00     4880.00
01885            -304.00     4560.00
01886            -224.00     4880.00
01887            -192.00     4880.00
01888            -352.00     4880.00
01889            -296.00     5040.00
01890            -280.00     5040.00
01891            -296.00     5200.00
01892            -296.00     5040.00
01893            -328.00     5280.00
01894            -352.00     5280.00
01895            -360.00     5280.00
01896            -320.00     5360.00
01897            -336.00     5360.00
01898            -408.00     5360.00
01899            -384.00     5360.00
01900            -384.00     5600.00
01901            -440.00     5520.00
01902            -424.00     5520.00
01903            -424.00     5680.00
01904            -448.00     5600.00
01905            -464.00     5600.00
01906            -448.00     5680.00
01907            -488.00     5680.00
01908            -568.00     5680.00
01909            -520.00     5680.00
01910            -488.00     5760.00
01911            -576.00     5760.00
01912            -608.00     5680.00
01913            -576.00     5760.00
01914            -616.00     5840.00
01915            -664.00     5840.00
01916            -648.00     5760.00
01917            -648.00     5760.00
01918            -712.00     5680.00
01919            -712.00     5760.00
01920            -712.00     5760.00
01921            -776.00     5680.00
01922            -808.00     5680.00
01923            -792.00     5680.00
01924            -800.00     5680.00
01925            -832.00     5680.00
01926            -856.00     5680.00
01927            -864.00     5600.00
01928            -880.00     5600.00
01929            -896.00     5600.00
01930            -888.00     5600.00
01931            -896.00     5600.00
01932            -904.00     5520.00
01933            -904.00     5520.00
01934            -904.00     5520.00
01935            -928.00     5360.00
01936            -920.00     5280.00
01937            -896.00     5360.00
01938            -880.00     5280.00
01939            -888.00     5280.00
01940            -872.00     5200.00
01941            -888.00     5200.00
01942            -864.00     5120.00
01943            -832.00     5120.00
01944            -824.00     5040.00
01945            -824.00     4960.00
01946            -808.00     4880.00
01947            -792.00     4880.00
01948            -776.00     4800.00
01949            -760.00     4800.00
01950            -736.00     4640.00
01951            -704.00     4560.00
01952            -696.00     4560.00
01953            -672.00     4400.00
01954            -672.00     4320.00
01955            -648.00     4320.00
01956            -616.00     4240.00
01957            -592.00     4160.00
01958            -576.00     4000.00
01959            -568.00     4000.00
01960            -544.00     3920.00
01961            -520.00     3840.00
01962            -512.00     3760.00
01963            -480.00     3680.00
01964            -464.00     3600.00
01965            -448.00     3520.00
01966            -424.00     3360.00
01967            -424.00     3280.00
01968            -416.00     3280.00
01969            -392.00     3120.00
01970            -360.00     3120.00
01971            -352.00     3040.00
01972            -344.00     2960.00
01973            -328.00     2800.00
01974            -320.00     2640.00
01975            -304.00     2640.00
01976            -280.00     2480.00
01977            -264.00     2400.00
01978            -256.00     2320.00
01979            -256.00     2160.00
01980            -232.00     2160.00
01981            -232.00     2000.00
01982            -232.00     1840.00
01983            -216.00     1760.00
01984            -200.00     1680.00
01985            -184.00     1600.00
01986            -184.00     1440.00
01987            -176.00     1360.00
01988            -168.00     1280.00
01989            -152.00     1200.00
01990            -136.00     1120.00
01991            -136.00     1040.00
01992            -128.00      880.00
01993            -128.00      800.00
01994            -120.00      640.00
01995            -104.00      560.00
01996            -104.00      400.00
01997             -96.00      320.00
01998             -72.00      160.00
01999             -64.00      160.00
02000             -64.00       80.00
02001             -72.00      -80.00
02002             -40.00     -160.00
02003               8.00     -240.00
02004              32.00     -400.00
02005              32.00     -480.00
02006               0.00     -560.00
02007               0.00     -640.00
02008               0.00     -800.00
02009              24.00     -800.00
02010             216.00     -960.00
02011             672.00    -1120.00
02012             616.00    -1360.00
02013            -200.00    -1440.00
02014           -1016.00    -1440.00
02015           -1000.00    -1360.00
02016             712.00    -1760.00
02017             672.00    -1840.00
02018            -528.00    -1440.00
02019              96.00    -2320.00
02020             624.00    -2160.00
02021            -128.00    -1680.00
02022             -40.00    -2320.00
02023             104.00    -2720.00
02024              72.00    -2000.00
02025             408.00    -2400.00
02026             -24.00    -3040.00
02027            -256.00    -2640.00
02028             296.00    -2560.00
02029             -24.00    -3040.00
02030              -8.00    -3040.00
02031             472.00    -3040.00
02032             -96.00    -3040.00
02033            -128.00    -3440.00
02034             472.00    -3440.00
02035             184.00    -3120.00
02036            -152.00    -3680.00
02037             216.00    -3840.00
02038             320.00    -3440.00
02039              64.00    -3760.00
02040              24.00    -4080.00
02041             232.00    -3840.00
02042             256.00    -3840.00
02043             128.00    -4240.00
02044             216.00    -4240.00
02045             248.00    -4080.00
02046             136.00    -4400.00
02047             184.00    -4560.00
02048             320.00    -4320.00
02049             192.00    -4560.00
02050             104.00    -4720.00
02051             296.00    -4560.00
02052             320.00    -4640.00
02053             168.00    -4880.00
02054             280.00    -4880.00
02055             352.00    -4720.00
02056             232.00    -4960.00
02057             248.00    -5040.00
02058             344.00    -4960.00
02059             320.00    -5040.00
02060             288.00    -5280.00
02061             352.00    -5200.00
02062             344.00    -5200.00
02063             296.00    -5360.00
02064             384.00    -5280.00
02065             424.00    -5280.00
02066             360.00    -5360.00
02067             376.00    -5440.00
02068             424.00    -5360.00
02069             408.00    -5360.00
02070             408.00    -5600.00
02071             456.00    -5440.00
02072             480.00    -5520.00
02073             472.00    -5600.00
02074             504.00    -5680.00
02075             520.00    -5600.00
02076             480.00    -5680.00
02077             512.00    -5680.00
02078             600.00    -5680.00
02079             576.00    -5600.00
02080             568.00    -5680.00
02081             616.00    -5680.00
02082             632.00    -5680.00
02083             616.00    -5680.00
02084             656.00    -5680.00
02085             712.00    -5680.00
02086             704.00    -5680.00
02087             712.00    -5760.00
02088             768.00    -5680.00
02089             760.00    -5680.00
02090             760.00    -5680.00
02091             808.00    -5680.00
02092             856.00    -5680.00
02093             832.00    -5680.00
02094             840.00    -5600.00
02095             880.00    -5600.00
02096             864.00    -5600.00
02097             864.00    -5440.00
02098             904.00    -5520.00
02099             920.00    -5440.00
02100             896.00    -5440.00
02101             896.00    -5440.00
02102             904.00    -5360.00
02103             888.00    -5280.00
02104             896.00    -5280.00
02105             904.00    -5280.00
02106             896.00    -5200.00
02107             864.00    -5200.00
02108             864.00    -5200.00
02109             840.00    -5040.00
02110             832.00    -5040.00
02111             832.00    -4960.00
02112             824.00    -4960.00
02113             800.00    -4880.00
02114             776.00    -4800.00
02115             768.00    -4720.00
02116             744.00    -4720.00
02117             728.00    -4560.00
02118             712.00    -4560.00
02119             704.00    -4560.00
02120             672.00    -4400.00
02121             648.00    -4400.00
02122             632.00    -4320.00
02123             608.00    -4240.00
02124             592.00    -4080.00
02125             600.00    -4080.00
02126             568.00    -4000.00
02127             536.00    -3920.00
02128             512.00    -3840.00
02129             488.00    -3760.00
02130             472.00    -3600.00
02131             472.00    -3600.00
02132             448.00    -3520.00
02133             424.00    -3440.00
02134             408.00    -3360.00
02135             384.00    -3280.00
02136             376.00    -3120.00
02137             352.00    -3040.00
02138             352.00    -2880.00
02139             352.00    -2880.00
02140             320.00    -2800.00
02141             304.00    -2720.00
02142             288.00    -2640.00
02143             272.00    -2480.00
02144             264.00    -2400.00
02145             256.00    -2320.00
02146             248.00    -2160.00
02147             224.00    -2080.00
02148             224.00    -2000.00
02149             216.00    -1920.00
02150             200.00    -1840.00
02151             192.00    -1680.00
02152             192.00    -1600.00
02153             176.00    -1520.00
02154             160.00    -1440.00
02155             152.00    -1200.00
02156             136.00    -1200.00
02157             136.00    -1040.00
02158             128.00    -1040.00
02159             128.00     -880.00
02160             112.00     -800.00
02161              96.00     -640.00
02162              96.00     -560.00
02163              88.00     -480.00
02164              88.00     -240.00
02165              88.00     -240.00
02166              72.00      -80.00
02167              72.00      -80.00
02168              64.00       80.00
02169              72.00      240.00
02170             104.00      320.00
02171             128.00      400.00
02172             120.00      480.00
02173              96.00      560.00
02174              72.00      720.00
02175              56.00      800.00
02176              72.00      880.00
02177             360.00     1040.00
02178             896.00     1360.00
02179             520.00     1360.00
02180            -824.00     1360.00
02181           -1016.00     1200.00
02182            -312.00     1520.00
02183             984.00     1840.00
02184            -120.00     1760.00
02185            -688.00     1760.00
02186             712.00     1680.00
02187             256.00     2400.00
02188            -776.00     2400.00
02189               0.00     1680.00
02190             360.00     2480.00
02191              -8.00     2960.00
02192            -144.00     2000.00
02193            -280.00     2400.00
02194              72.00     3440.00
02195              -8.00     2640.00
02196            -520.00     2480.00
02197             272.00     3440.00
02198             192.00     3040.00
02199            -712.00     3040.00
02200             120.00     3360.00
02201             216.00     3360.00
02202            -520.00     3600.00
02203             -88.00     3360.00
02204              32.00     3680.00
02205            -192.00     4080.00
02206            -200.00     3440.00
02207            -248.00     3920.00
02208             -40.00     4320.00
02209            -168.00     3840.00
02210            -256.00     4080.00
02211             -40.00     4320.00
02212            -248.00     4240.00
02213            -280.00     4320.00
02214            -144.00     4400.00
02215            -192.00     4640.00
02216            -240.00     4400.00
02217            -288.00     4560.00
02218            -192.00     4880.00
02219            -264.00     4640.00
02220            -288.00     4800.00
02221            -176.00     4960.00
02222            -296.00     4880.00
02223            -344.00     4960.00
02224            -264.00     4960.00
02225            -288.00     5200.00
02226            -296.00     5120.00
02227            -320.00     5120.00
02228            -344.00     5360.00
02229            -360.00     5200.00
02230            -344.00     5360.00
02231            -312.00     5440.00
02232            -384.00     5360.00
02233            -392.00     5360.00
02234            -368.00     5520.00
02235            -416.00     5520.00
02236            -440.00     5600.00
02237            -424.00     5520.00
02238            -440.00     5680.00
02239            -472.00     5600.00
02240            -456.00     5680.00
02241            -472.00     5680.00
02242            -544.00     5680.00
02243            -552.00     5600.00
02244            -488.00     5760.00
02245            -536.00     5680.00
02246            -608.00     5760.00
02247            -576.00     5680.00
02248            -584.00     5760.00
02249            -648.00     5840.00
02250            -656.00     5760.00
02251            -640.00     5840.00
02252            -680.00     5840.00
02253            -720.00     5760.00
02254            -704.00     5760.00
02255            -736.00     5840.00
02256            -808.00     5760.00
02257            -800.00     5680.00
02258            -792.00     5680.00
02259            -808.00     5680.00
02260            -856.00     5680.00
02261            -856.00     5680.00
02262            -872.00     5600.00
02263            -896.00     5600.00
02264            -888.00     5600.00
02265            -880.00     5520.00
02266            -904.00     5520.00
02267            -896.00     5520.00
02268            -904.00     5440.00
02269            -920.00     5520.00
02270            -928.00     5360.00
02271            -904.00     5360.00
02272            -888.00     5360.00
02273            -896.00     5280.00
02274            -888.00     5200.00
02275            -888.00     5200.00
02276            -872.00     5200.00
02277            -848.00     5120.00
02278            -832.00     5040.00
02279            -824.00     4960.00
02280            -808.00     4960.00
02281            -800.00     4880.00
02282            -792.00     4880.00
02283            -776.00     4720.00
02284            -744.00     4640.00
02285            -720.00     4640.00
02286            -704.00     4560.00
02287            -680.00     4480.00
02288            -680.00     4400.00
02289            -664.00     4320.00
02290            -632.00     4240.00
02291            -600.00     4240.00
02292            -576.00     4080.00
02293            -576.00     4000.00
02294            -552.00     4000.00
02295            -528.00     3920.00
02296            -512.00     3760.00
02297            -488.00     3760.00
02298            -472.00     3600.00
02299            -456.00     3600.00
02300            -440.00     3440.00
02301            -424.00     3360.00
02302            -416.00     3280.00
02303            -392.00     3200.00
02304            -360.00     3120.00
02305            -352.00     3040.00
02306            -344.00     2880.00
02307            -336.00     2800.00
02308            -328.00     2720.00
02309            -312.00     2640.00
02310            -296.00     2560.00
02311            -272.00     2480.00
02312            -264.00     2400.00
02313            -256.00     2320.00
02314            -240.00     2160.00
02315            -232.00     2080.00
02316            -232.00     1920.00
02317            -224.00     1840.00
02318            -200.00     1760.00
02319            -192.00     1680.00
02320            -192.00     1520.00
02321            -184.00     1440.00
02322            -168.00     1360.00
02323            -160.00     1200.00
02324            -136.00     1200.00
02325            -136.00     1040.00
02326            -136.00      880.00
02327            -136.00      800.00
02328            -120.00      720.00
02329            -104.00      640.00
02330            -104.00      480.00
02331             -96.00      400.00
02332             -88.00      320.00
02333             -72.00      160.00
02334             -64.00       80.00
02335             -72.00      -80.00
02336             -56.00     -160.00
02337              -8.00     -240.00
02338              32.00     -400.00
02339              32.00     -400.00
02340               8.00     -560.00
02341               0.00     -640.00
02342               0.00     -720.00
02343               0.00     -800.00
02344              88.00     -880.00
02345             480.00    -1040.00
02346             736.00    -1360.00
02347             224.00    -1440.00
02348            -920.00    -1440.00
02349           -1016.00    -1360.00
02350              24.00    -1440.00
02351             984.00    -1840.00
02352            -248.00    -1520.00
02353            -288.00    -1840.00
02354             592.00    -2480.00
02355             136.00    -1760.00
02356            -128.00    -2000.00
02357              88.00    -2800.00
02358               0.00    -2320.00
02359             344.00    -2080.00
02360             224.00    -2800.00
02361            -320.00    -2800.00
02362             136.00    -2480.00
02363             168.00    -2800.00
02364            -152.00    -3040.00
02365             352.00    -2960.00
02366             224.00    -2960.00
02367            -288.00    -3360.00
02368             288.00    -3600.00
02369             408.00    -3120.00
02370            -120.00    -3360.00
02371              40.00    -3920.00
02372             328.00    -3600.00
02373             192.00    -3520.00
02374               0.00    -4080.00
02375             136.00    -4000.00
02376             280.00    -3680.00
02377             160.00    -4080.00
02378             152.00    -4320.00
02379             256.00    -4080.00
02380             192.00    -4240.00
02381             128.00    -4560.00
02382             280.00    -4320.00
02383             288.00    -4400.00
02384             120.00    -4720.00
02385             208.00    -4640.00
02386             360.00    -4560.00
02387             208.00    -4720.00
02388             216.00    -4880.00
02389             344.00    -4880.00
02390             280.00    -4880.00
02391             216.00    -5040.00
02392             312.00    -4960.00
02393             344.00    -4960.00
02394             280.00    -5200.00
02395             320.00    -5200.00
02396             352.00    -5120.00
02397             304.00    -5280.00
02398             328.00    -5360.00
02399             424.00    -5360.00
02400             400.00    -5280.00
02401             360.00    -5440.00
02402             408.00    -5440.00
02403             416.00    -5360.00
02404             384.00    -5520.00
02405             424.00    -5440.00
02406             488.00    -5440.00
02407             456.00    -5600.00
02408             472.00    -5680.00
02409             512.00    -5520.00
02410             488.00    -5600.00
02411             488.00    -5680.00
02412             568.00    -5680.00
02413             584.00    -5680.00
02414             552.00    -5760.00
02415             592.00    -5840.00
02416             640.00    -5680.00
02417             616.00    -5680.00
02418             632.00    -5760.00
02419             696.00    -5680.00
02420             712.00    -5680.00
02421             704.00    -5760.00
02422             744.00    -5680.00
02423             768.00    -5600.00
02424             744.00    -5680.00
02425             792.00    -5680.00
02426             848.00    -5600.00
02427             840.00    -5600.00
02428             832.00    -5600.00
02429             872.00    -5600.00
02430             872.00    -5520.00
02431             864.00    -5600.00
02432             896.00    -5440.00
02433             920.00    -5440.00
02434             904.00    -5360.00
02435             896.00    -5360.00
02436             896.00    -5360.00
02437             896.00    -5360.00
02438             888.00    -5360.00
02439             896.00    -5280.00
02440             912.00    -5200.00
02441             888.00    -5200.00
02442             872.00    -5120.00
02443             856.00    -5040.00
02444             840.00    -5040.00
02445             832.00    -4960.00
02446             832.00    -4960.00
02447             824.00    -4880.00
02448             792.00    -4800.00
02449             768.00    -4800.00
02450             752.00    -4640.00
02451             728.00    -4640.00
02452             728.00    -4640.00
02453             712.00    -4480.00
02454             672.00    -4400.00
02455             664.00    -4400.00
02456             632.00    -4320.00
02457             616.00    -4320.00
02458             600.00    -4160.00
02459             592.00    -4080.00
02460             576.00    -4000.00
02461             536.00    -3920.00
02462             512.00    -3840.00
02463             504.00    -3760.00
02464             472.00    -3680.00
02465             472.00    -3600.00
02466             456.00    -3520.00
02467             432.00    -3440.00
02468             408.00    -3360.00
02469             384.00    -3280.00
02470             376.00    -3120.00
02471             360.00    -3040.00
02472             352.00    -3040.00
02473             352.00    -2880.00
02474             328.00    -2800.00
02475             312.00    -2720.00
02476             288.00    -2640.00
02477             280.00    -2560.00
02478             272.00    -2480.00
02479             256.00    -2320.00
02480             256.00    -2320.00
02481             224.00    -2160.00
02482             216.00    -2000.00
02483             216.00    -2000.00
02484             192.00    -1840.00
02485             192.00    -1760.00
02486             192.00    -1680.00
02487             184.00    -1520.00
02488             160.00    -1440.00
02489             144.00    -1360.00
02490             136.00    -1200.00
02491             136.00    -1120.00
02492             144.00    -1040.00
02493             128.00     -880.00
02494             128.00     -800.00
02495             112.00     -720.00
02496             104.00     -560.00
02497              96.00     -480.00
02498              88.00     -320.00
02499              88.00     -240.00
02500              88.00     -160.00
02501              72.00      -80.00
02502              72.00       80.00
02503              64.00      160.00
02504              80.00      240.00
02505             120.00      400.00
02506             128.00      480.00
02507             104.00      560.00
02508              88.00      560.00
02509              56.00      720.00
02510              48.00      880.00
02511             160.00      880.00
02512             728.00     1200.00
02513             808.00     1360.00
02514            -128.00     1360.00
02515           -1016.00     1200.00
02516           -1016.00     1360.00
02517             968.00     1760.00
02518             824.00     1840.00
02519            -808.00     1680.00
02520              64.00     1600.00
02521             848.00     2080.00
02522            -576.00     2560.00
02523            -504.00     1840.00
02524             456.00     2000.00
02525              72.00     3040.00
02526             -96.00     2480.00
02527            -200.00     2000.00
02528            -184.00     3200.00
02529             192.00     3040.00
02530            -424.00     2320.00
02531            -184.00     3200.00
02532             488.00     3360.00
02533            -480.00     2880.00
02534            -384.00     3280.00
02535             424.00     3360.00
02536            -312.00     3520.00
02537            -376.00     3440.00
02538             104.00     3360.00
02539            -136.00     4000.00
02540            -200.00     3680.00
02541            -248.00     3520.00
02542            -128.00     4320.00
02543             -64.00     4080.00
02544            -288.00     3760.00
02545             -96.00     4320.00
02546            -136.00     4240.00
02547            -320.00     4320.00
02548            -184.00     4400.00
02549            -168.00     4560.00
02550            -208.00     4560.00
02551            -280.00     4400.00
02552            -232.00     4880.00
02553            -208.00     4720.00
02554            -312.00     4720.00
02555            -200.00     4960.00
02556            -224.00     4880.00
02557            -360.00     4960.00
02558            -288.00     4960.00
02559            -280.00     5120.00
02560            -288.00     5200.00
02561            -296.00     5120.00
02562            -336.00     5280.00
02563            -360.00     5280.00
02564            -360.00     5280.00
02565            -312.00     5440.00
02566            -344.00     5360.00
02567            -392.00     5440.00
02568            -376.00     5440.00
02569            -400.00     5520.00
02570            -440.00     5520.00
02571            -424.00     5520.00
02572            -424.00     5600.00
02573            -448.00     5600.00
02574            -456.00     5600.00
02575            -448.00     5680.00
02576            -512.00     5680.00
02577            -576.00     5680.00
02578            -512.00     5760.00
02579            -504.00     5840.00
02580            -584.00     5680.00
02581            -600.00     5680.00
02582            -576.00     5680.00
02583            -632.00     5760.00
02584            -664.00     5760.00
02585            -640.00     5680.00
02586            -664.00     5840.00
02587            -712.00     5680.00
02588            -712.00     5760.00
02589            -712.00     5760.00
02590            -784.00     5760.00
02591            -808.00     5680.00
02592            -776.00     5680.00
02593            -800.00     5680.00
02594            -832.00     5680.00
02595            -864.00     5680.00
02596            -864.00     5680.00
02597            -896.00     5600.00
02598            -896.00     5600.00
02599            -888.00     5600.00
02600            -896.00     5520.00
02601            -920.00     5520.00
02602            -904.00     5520.00
02603            -920.00     5440.00
02604            -928.00     5440.00
02605            -920.00     5360.00
02606            -896.00     5360.00
02607            -888.00     5360.00
02608            -888.00     5200.00
02609            -888.00     5200.00
02610            -888.00     5200.00
02611            -864.00     5040.00
02612            -840.00     5040.00
02613            -832.00     4960.00
02614            -824.00     4960.00
02615            -808.00     4880.00
02616            -792.00     4880.00
02617            -776.00     4800.00
02618            -752.00     4720.00
02619            -736.00     4640.00
02620            -704.00     4560.00
02621            -696.00     4560.00
02622            -672.00     4400.00
02623            -672.00     4320.00
02624            -648.00     4320.00
02625            -608.00     4240.00
02626            -584.00     4160.00
02627            -568.00     4080.00
02628            -560.00     4000.00
02629            -536.00     3920.00
02630            -520.00     3840.00
02631            -504.00     3760.00
02632            -480.00     3680.00
02633            -472.00     3600.00
02634            -448.00     3520.00
02635            -424.00     3360.00
02636            -416.00     3360.00
02637            -416.00     3280.00
02638            -384.00     3120.00
02639            -360.00     3040.00
02640            -344.00     2960.00
02641            -344.00     2800.00
02642            -328.00     2800.00
02643            -320.00     2640.00
02644            -296.00     2560.00
02645            -280.00     2480.00
02646            -264.00     2400.00
02647            -256.00     2320.00
02648            -248.00     2160.00
02649            -232.00     2160.00
02650            -232.00     2000.00
02651            -232.00     1840.00
02652            -216.00     1840.00
02653            -192.00     1680.00
02654            -184.00     1600.00
02655            -168.00     1440.00
02656            -168.00     1360.00
02657            -160.00     1280.00
02658            -152.00     1200.00
02659            -136.00     1120.00
02660            -136.00     1040.00
02661            -128.00      880.00
02662            -136.00      720.00
02663            -120.00      640.00
02664            -104.00      560.00
02665            -104.00      400.00
02666             -96.00      400.00
02667             -80.00      240.00
02668             -80.00      160.00
02669             -72.00        0.00
02670             -72.00      -80.00
02671             -40.00     -160.00
02672              24.00     -240.00
02673              32.00     -400.00
02674              24.00     -480.00
02675               0.00     -560.00
02676               0.00     -720.00
02677               0.00     -800.00
02678              32.00     -880.00
02679             280.00     -960.00
02680             712.00    -1200.00
02681             536.00    -1360.00
02682            -384.00    -1440.00
02683           -1016.00    -1440.00
02684            -760.00    -1200.00
02685             904.00    -1840.00
02686             424.00    -1760.00
02687            -512.00    -1520.00
02688             248.00    -2400.00
02689             536.00    -2080.00
02690            -160.00    -1600.00
02691               0.00    -2480.00
02692              88.00    -2640.00
02693             136.00    -2000.00
02694             384.00    -2560.00
02695            -120.00    -3040.00
02696            -168.00    -2480.00
02697             304.00    -2720.00
02698             -88.00    -3040.00
02699              88.00    -3040.00
02700             448.00    -2880.00
02701            -184.00    -3120.00
02702             -24.00    -3440.00
02703             488.00    -3280.00
02704              88.00    -3200.00
02705            -120.00    -3760.00
02706             264.00    -3680.00
02707             296.00    -3440.00
02708              32.00    -3920.00
02709              48.00    -4080.00
02710             256.00    -3760.00
02711             232.00    -3920.00
02712             120.00    -4320.00
02713             224.00    -4080.00
02714             232.00    -4080.00
02715             128.00    -4480.00
02716             200.00    -4480.00
02717             320.00    -4320.00
02718             168.00    -4640.00
02719             120.00    -4720.00
02720             320.00    -4560.00
02721             288.00    -4720.00
02722             168.00    -4880.00
02723             304.00    -4880.00
02724             344.00    -4720.00
02725             216.00    -5040.00
02726             264.00    -5040.00
02727             344.00    -4960.00
02728             312.00    -5040.00
02729             288.00    -5280.00
02730             352.00    -5200.00
02731             328.00    -5200.00
02732             296.00    -5280.00
02733             392.00    -5280.00
02734             416.00    -5280.00
02735             360.00    -5360.00
02736             384.00    -5440.00
02737             424.00    -5360.00
02738             400.00    -5520.00
02739             400.00    -5600.00
02740             472.00    -5440.00
02741             472.00    -5520.00
02742             456.00    -5680.00
02743             504.00    -5600.00
02744             512.00    -5600.00
02745             480.00    -5680.00
02746             536.00    -5680.00
02747             584.00    -5680.00
02748             568.00    -5680.00
02749             568.00    -5760.00
02750             624.00    -5680.00
02751             632.00    -5680.00
02752             608.00    -5760.00
02753             672.00    -5680.00
02754             720.00    -5680.00
02755             704.00    -5760.00
02756             728.00    -5680.00
02757             768.00    -5680.00
02758             760.00    -5600.00
02759             768.00    -5680.00
02760             824.00    -5600.00
02761             856.00    -5680.00
02762             832.00    -5600.00
02763             856.00    -5600.00
02764             880.00    -5600.00
02765             864.00    -5440.00
02766             888.00    -5440.00
02767             904.00    -5440.00
02768             920.00    -5440.00
02769             896.00    -5360.00
02770             904.00    -5360.00
02771             904.00    -5360.00
02772             888.00    -5280.00
02773             896.00    -5280.00
02774             920.00    -5200.00
02775             896.00    -5200.00
02776             872.00    -5200.00
02777             856.00    -5120.00
02778             848.00    -5040.00
02779             840.00    -5040.00
02780             840.00    -4960.00
02781             832.00    -4880.00
02782             800.00    -4880.00
02783             776.00    -4720.00
02784             760.00    -4720.00
02785             736.00    -4640.00
02786             728.00    -4560.00
02787             720.00    -4560.00
02788             704.00    -4480.00
02789             672.00    -4400.00
02790             640.00    -4320.00
02791             624.00    -4240.00
02792             600.00    -4160.00
02793             584.00    -4080.00
02794             576.00    -4080.00
02795             544.00    -4000.00
02796             528.00    -3840.00
02797             512.00    -3760.00
02798             488.00    -3760.00
02799             472.00    -3680.00
02800             456.00    -3600.00
02801             448.00    -3440.00
02802             424.00    -3440.00
02803             408.00    -3280.00
02804             384.00    -3280.00
02805             360.00    -3120.00
02806             352.00    -3040.00
02807             352.00    -2880.00
02808             344.00    -2800.00
02809             312.00    -2800.00
02810             296.00    -2640.00
02811             280.00    -2560.00
02812             280.00    -2480.00
02813             264.00    -2400.00
02814             256.00    -2320.00
02815             232.00    -2160.00
02816             224.00    -2080.00
02817             216.00    -2000.00
02818             216.00    -1840.00
02819             192.00    -1840.00
02820             192.00    -1680.00
02821             184.00    -1520.00
02822             168.00    -1440.00
02823             160.00    -1360.00
02824             152.00    -1200.00
02825             152.00    -1200.00
02826             136.00    -1040.00
02827             144.00     -960.00
02828             128.00     -800.00
02829             104.00     -720.00
02830             104.00     -560.00
02831              96.00     -480.00
02832              88.00     -400.00
02833              88.00     -320.00
02834              96.00     -240.00
02835              88.00      -80.00
02836              72.00       80.00
02837              64.00       80.00
02838              72.00      240.00
02839             104.00      240.00
02840             128.00      400.00
02841             120.00      560.00
02842              96.00      560.00
02843              64.00      720.00
02844              56.00      720.00
02845              88.00      880.00
02846             456.00     1120.00
02847             904.00     1280.00
02848             384.00     1360.00
02849           -1016.00     1360.00
02850           -1016.00     1200.00
02851              56.00     1680.00
02852             984.00     1920.00
02853            -392.00     1760.00
02854            -544.00     1680.00
02855             856.00     1760.00
02856              -8.00     2480.00
02857            -760.00     2320.00
02858             168.00     1760.00
02859             272.00     2640.00
02860             -40.00     2960.00
02861            -160.00     1920.00
02862            -280.00     2640.00
02863             152.00     3440.00
02864            -128.00     2400.00
02865            -488.00     2720.00
02866             392.00     3440.00
02867               8.00     3040.00
02868            -704.00     3120.00
02869             256.00     3360.00
02870              88.00     3360.00
02871            -536.00     3600.00
02872              -8.00     3360.00
02873             -24.00     3760.00
02874            -200.00     4000.00
02875            -208.00     3360.00
02876            -232.00     4000.00
02877             -32.00     4240.00
02878            -216.00     3760.00
02879            -216.00     4080.00
02880             -56.00     4400.00
02881            -288.00     4240.00
02882            -256.00     4320.00
02883            -152.00     4400.00
02884            -192.00     4560.00
02885            -256.00     4400.00
02886            -272.00     4640.00
02887            -184.00     4880.00
02888            -280.00     4640.00
02889            -256.00     4880.00
02890            -168.00     4960.00
02891            -320.00     4880.00
02892            -320.00     5040.00
02893            -264.00     5040.00
02894            -296.00     5200.00
02895            -280.00     5200.00
02896            -320.00     5200.00
02897            -352.00     5280.00
02898            -360.00     5200.00
02899            -336.00     5280.00
02900            -320.00     5440.00
02901            -392.00     5360.00
02902            -384.00     5360.00
02903            -376.00     5520.00
02904            -432.00     5520.00
02905            -440.00     5520.00
02906            -416.00     5600.00
02907            -440.00     5680.00
02908            -464.00     5600.00
02909            -448.00     5680.00
02910            -472.00     5680.00
02911            -560.00     5600.00
02912            -544.00     5680.00
02913            -480.00     5760.00
02914            -544.00     5760.00
02915            -608.00     5680.00
02916            -576.00     5760.00
02917            -600.00     5840.00
02918            -648.00     5680.00
02919            -656.00     5680.00
02920            -648.00     5840.00
02921            -704.00     5760.00
02922            -720.00     5680.00
02923            -704.00     5840.00
02924            -752.00     5680.00
02925            -816.00     5680.00
02926            -800.00     5680.00
02927            -792.00     5760.00
02928            -832.00     5680.00
02929            -856.00     5680.00
02930            -864.00     5680.00
02931            -872.00     5600.00
02932            -904.00     5680.00
02933            -888.00     5520.00
02934            -896.00     5600.00
02935            -920.00     5520.00
02936            -896.00     5440.00
02937            -912.00     5520.00
02938            -920.00     5360.00
02939            -920.00     5360.00
02940            -904.00     5360.00
02941            -888.00     5280.00
02942            -888.00     5280.00
02943            -896.00     5280.00
02944            -888.00     5200.00
02945            -872.00     5200.00
02946            -848.00     5040.00
02947            -832.00     5040.00
02948            -832.00     5040.00
02949            -808.00     4880.00
02950            -800.00     4880.00
02951            -784.00     4800.00
02952            -768.00     4720.00
02953            -744.00     4640.00
02954            -712.00     4640.00
02955            -680.00     4560.00
02956            -680.00     4480.00
02957            -672.00     4400.00
02958            -664.00     4320.00
02959            -616.00     4240.00
02960            -600.00     4240.00
02961            -576.00     4080.00
02962            -568.00     4000.00
02963            -552.00     3920.00
02964            -520.00     3920.00
02965            -512.00     3840.00
02966            -488.00     3680.00
02967            -472.00     3600.00
02968            -448.00     3520.00
02969            -424.00     3440.00
02970            -424.00     3360.00
02971            -408.00     3280.00
02972            -392.00     3120.00
02973            -360.00     3120.00
02974            -344.00     3040.00
02975            -344.00     2960.00
02976            -344.00     2800.00
02977            -328.00     2720.00
02978            -312.00     2640.00
02979            -288.00     2480.00
02980            -264.00     2400.00
02981            -264.00     2320.00
02982            -256.00     2160.00
02983            -232.00     2240.00
02984            -224.00     2080.00
02985            -232.00     2000.00
02986            -224.00     1840.00
02987            -216.00     1680.00
02988            -192.00     1680.00
02989            -184.00     1520.00
02990            -168.00     1440.00
02991            -168.00     1360.00
02992            -160.00     1200.00
02993            -152.00     1120.00
02994            -144.00     1040.00
02995            -136.00      880.00
02996            -136.00      800.00
02997            -120.00      720.00
02998            -112.00      560.00
02999             -96.00      480.00
03000             -96.00      400.00
03001             -96.00      240.00
03002             -80.00      160.00
03003             -72.00       80.00
03004             -88.00      -80.00
03005             -72.00     -160.00
03006             -24.00     -240.00
03007              24.00     -320.00
03008              32.00     -480.00
03009              40.00     -560.00
03010              48.00     -720.00
03011              56.00     -720.00
03012              56.00     -880.00
03013             136.00     -880.00
03014             520.00    -1120.00
03015             632.00    -1360.00
03016              -8.00    -1360.00
03017           -1016.00    -1440.00
03018           -1016.00    -1200.00
03019             360.00    -1520.00
03020             984.00    -1840.00
03021            -312.00    -1440.00
03022            -120.00    -2000.00
03023             640.00    -2400.00
03024             -56.00    -1680.00
03025            -168.00    -2080.00
03026              40.00    -2800.00
03027               0.00    -2160.00
03028             416.00    -2080.00
03029             192.00    -2960.00
03030            -272.00    -2720.00
03031             264.00    -2480.00
03032              96.00    -2960.00
03033            -144.00    -3040.00
03034             408.00    -2960.00
03035              72.00    -3040.00
03036            -288.00    -3280.00
03037             360.00    -3440.00
03038             344.00    -3040.00
03039            -128.00    -3520.00
03040             144.00    -3920.00
03041             376.00    -3520.00
03042             160.00    -3600.00
03043              -8.00    -4080.00
03044             152.00    -3920.00
03045             232.00    -3760.00
03046             120.00    -4240.00
03047             152.00    -4320.00
03048             264.00    -4000.00
03049             192.00    -4320.00
03050             168.00    -4560.00
03051             336.00    -4320.00
03052             272.00    -4480.00
03053              96.00    -4720.00
03054             224.00    -4640.00
03055             320.00    -4560.00
03056             152.00    -4800.00
03057             216.00    -4880.00
03058             360.00    -4880.00
03059             280.00    -4880.00
03060             232.00    -5120.00
03061             344.00    -4960.00
03062             328.00    -5040.00
03063             264.00    -5200.00
03064             312.00    -5200.00
03065             344.00    -5040.00
03066             288.00    -5280.00
03067             352.00    -5360.00
03068             440.00    -5280.00
03069             392.00    -5360.00
03070             360.00    -5520.00
03071             416.00    -5440.00
03072             408.00    -5440.00
03073             376.00    -5600.00
03074             440.00    -5520.00
03075             488.00    -5520.00
03076             472.00    -5600.00
03077             480.00    -5600.00
03078             520.00    -5600.00
03079             480.00    -5600.00
03080             480.00    -5680.00
03081             568.00    -5680.00
03082             576.00    -5680.00
03083             568.00    -5760.00
03084             608.00    -5680.00
03085             648.00    -5680.00
03086             616.00    -5680.00
03087             640.00    -5680.00
03088             704.00    -5680.00
03089             704.00    -5680.00
03090             696.00    -5760.00
03091             760.00    -5680.00
03092             776.00    -5600.00
03093             768.00    -5680.00
03094             808.00    -5680.00
03095             856.00    -5680.00
03096             840.00    -5600.00
03097             832.00    -5600.00
03098             864.00    -5600.00
03099             872.00    -5440.00
03100             872.00    -5520.00
03101             904.00    -5440.00
03102             920.00    -5440.00
03103             896.00    -5360.00
03104             896.00    -5440.00
03105             904.00    -5360.00
03106             896.00    -5280.00
03107             888.00    -5360.00
03108             920.00    -5280.00
03109             904.00    -5200.00
03110             872.00    -5200.00
03111             856.00    -5120.00
03112             856.00    -5040.00
03113             840.00    -4960.00
03114             840.00    -4960.00
03115             840.00    -4880.00
03116             808.00    -4880.00
03117             776.00    -4800.00
03118             760.00    -4720.00
03119             744.00    -4640.00
03120             728.00    -4640.00
03121             720.00    -4560.00
03122             704.00    -4480.00
03123             672.00    -4400.00
03124             656.00    -4400.00
03125             640.00    -4320.00
03126             608.00    -4240.00
03127             584.00    -4160.00
03128             584.00    -4080.00
03129             568.00    -4000.00
03130             536.00    -3920.00
03131             520.00    -3840.00
03132             504.00    -3760.00
03133             472.00    -3680.00
03134             472.00    -3600.00
03135             448.00    -3600.00
03136             424.00    -3440.00
03137             408.00    -3360.00
03138             392.00    -3280.00
03139             376.00    -3120.00
03140             352.00    -3040.00
03141             352.00    -2880.00
03142             344.00    -2800.00
03143             320.00    -2800.00
03144             296.00    -2720.00
03145             288.00    -2640.00
03146             280.00    -2480.00
03147             272.00    -2400.00
03148             264.00    -2320.00
03149             256.00    -2240.00
03150             232.00    -2160.00
03151             224.00    -2000.00
03152             216.00    -1920.00
03153             192.00    -1840.00
03154             192.00    -1760.00
03155             192.00    -1680.00
03156             192.00    -1520.00
03157             160.00    -1360.00
03158             152.00    -1200.00
03159             144.00    -1200.00
03160             136.00    -1040.00
03161             136.00    -1040.00
03162             128.00     -880.00
03163             120.00     -800.00
03164             104.00     -640.00
03165              96.00     -560.00
03166              96.00     -480.00
03167              88.00     -320.00
03168              88.00     -240.00
03169              88.00     -160.00
03170              72.00      -80.00
03171              64.00       80.00
03172              64.00      160.00
03173              96.00      240.00
03174             128.00      400.00
03175             128.00      480.00
03176             104.00      560.00
03177              72.00      640.00
03178              56.00      720.00
03179              56.00      800.00
03180             224.00     1040.00
03181             800.00     1200.00
03182             728.00     1360.00
03183            -360.00     1440.00
03184           -1016.00     1200.00
03185            -904.00     1440.00
03186             984.00     1840.00
03187             480.00     1760.00
03188            -824.00     1760.00
03189             312.00     1600.00
03190             672.00     2160.00
03191            -704.00     2560.00
03192            -328.00     1840.00
03193             456.00     2160.00
03194              24.00     3040.00
03195            -128.00     2240.00
03196            -232.00     2080.00
03197             -96.00     3360.00
03198             136.00     2880.00
03199            -488.00     2320.00
03200             -24.00     3280.00
03201             424.00     3280.00
03202            -608.00     2960.00
03203            -200.00     3280.00
03204             400.00     3360.00
03205            -416.00     3600.00
03206            -280.00     3440.00
03207              88.00     3440.00
03208            -160.00     4080.00
03209            -200.00     3600.00
03210            -256.00     3680.00
03211             -88.00     4400.00
03212            -104.00     3920.00
03213            -288.00     3920.00
03214             -64.00     4400.00
03215            -176.00     4240.00
03216            -296.00     4320.00
03217            -160.00     4400.00
03218            -168.00     4560.00
03219            -216.00     4560.00
03220            -280.00     4480.00
03221            -216.00     4880.00
03222            -224.00     4720.00
03223            -296.00     4640.00
03224            -184.00     4960.00
03225            -248.00     4880.00
03226            -352.00     4960.00
03227            -280.00     4960.00
03228            -288.00     5040.00
03229            -288.00     5200.00
03230            -312.00     5200.00
03231            -344.00     5280.00
03232            -360.00     5280.00
03233            -360.00     5280.00
03234            -312.00     5360.00
03235            -360.00     5360.00
03236            -408.00     5360.00
03237            -376.00     5440.00
03238            -408.00     5520.00
03239            -448.00     5520.00
03240            -424.00     5520.00
03241            -424.00     5600.00
03242            -456.00     5600.00
03243            -456.00     5600.00
03244            -448.00     5680.00
03245            -520.00     5680.00
03246            -552.00     5600.00
03247            -488.00     5680.00
03248            -512.00     5760.00
03249            -600.00     5680.00
03250            -592.00     5680.00
03251            -584.00     5840.00
03252            -640.00     5840.00
03253            -664.00     5680.00
03254            -640.00     5760.00
03255            -672.00     5840.00
03256            -720.00     5680.00
03257            -712.00     5840.00
03258            -728.00     5760.00
03259            -792.00     5680.00
03260            -808.00     5680.00
03261            -792.00     5680.00
03262            -808.00     5680.00
03263            -856.00     5680.00
03264            -856.00     5680.00
03265            -864.00     5680.00
03266            -896.00     5600.00
03267            -888.00     5600.00
03268            -888.00     5600.00
03269            -904.00     5520.00
03270            -904.00     5520.00
03271            -904.00     5520.00
03272            -912.00     5440.00
03273            -928.00     5360.00
03274            -904.00     5360.00
03275            -888.00     5360.00
03276            -888.00     5280.00
03277            -888.00     5200.00
03278            -888.00     5200.00
03279            -872.00     5200.00
03280            -856.00     5040.00
03281            -832.00     5040.00
03282            -832.00     5040.00
03283            -808.00     4880.00
03284            -808.00     4880.00
03285            -776.00     4800.00
03286            -776.00     4800.00
03287            -760.00     4720.00
03288            -728.00     4640.00
03289            -704.00     4560.00
03290            -680.00     4480.00
03291            -672.00     4400.00
03292            -648.00     4320.00
03293            -640.00     4240.00
03294            -608.00     4240.00
03295            -576.00     4160.00
03296            -576.00     4000.00
03297            -560.00     4000.00
03298            -544.00     3920.00
03299            -520.00     3840.00
03300            -488.00     3760.00
03301            -472.00     3680.00
03302            -464.00     3600.00
03303            -440.00     3440.00
03304            -424.00     3440.00
03305            -416.00     3360.00
03306            -392.00     3280.00
03307            -384.00     3120.00
03308            -352.00     3040.00
03309            -344.00     2960.00
03310            -344.00     2800.00
03311            -328.00     2800.00
03312            -320.00     2640.00
03313            -296.00     2560.00
03314            -280.00     2480.00
03315            -264.00     2400.00
03316            -256.00     2320.00
03317            -256.00     2160.00
03318            -248.00     2080.00
03319            -248.00     2000.00
03320            -232.00     1920.00
03321            -216.00     1840.00
03322            -192.00     1680.00
03323            -192.00     1520.00
03324            -184.00     1440.00
03325            -168.00     1360.00
03326            -168.00     1280.00
03327            -152.00     1200.00
03328            -136.00     1040.00
03329            -136.00      960.00
03330            -136.00      800.00
03331            -128.00      720.00
03332            -128.00      720.00
03333            -104.00      560.00
03334            -104.00      400.00
03335             -96.00      320.00
03336             -72.00      240.00
03337             -72.00       80.00
03338             -72.00        0.00
03339             -64.00      -80.00
03340             -32.00     -240.00
03341              24.00     -240.00
03342              32.00     -400.00
03343              24.00     -480.00
03344               0.00     -560.00
03345               0.00     -720.00
03346               0.00     -720.00
03347              56.00     -880.00
03348             344.00    -1040.00
03349             744.00    -1200.00
03350             448.00    -1440.00
03351            -576.00    -1440.00
03352           -1016.00    -1360.00
03353            -472.00    -1360.00
03354             984.00    -1840.00
03355             160.00    -1680.00
03356            -456.00    -1680.00
03357             400.00    -2400.00
03358             408.00    -1840.00
03359            -160.00    -1680.00
03360              24.00    -2560.00
03361              56.00    -2480.00
03362             216.00    -2000.00
03363             344.00    -2640.00
03364            -216.00    -2960.00
03365             -40.00    -2480.00
03366             264.00    -2720.00
03367            -128.00    -3120.00
03368             192.00    -3040.00
03369             384.00    -2960.00
03370            -256.00    -3120.00
03371              88.00    -3520.00
03372             488.00    -3280.00
03373               0.00    -3200.00
03374             -64.00    -3840.00
03375             312.00    -3680.00
03376             264.00    -3440.00
03377               8.00    -4000.00
03378              72.00    -4000.00
03379             264.00    -3760.00
03380             200.00    -4000.00
03381             120.00    -4320.00
03382             248.00    -4080.00
03383             224.00    -4080.00
03384             120.00    -4560.00
03385             232.00    -4400.00
03386             312.00    -4320.00
03387             136.00    -4640.00
03388             136.00    -4720.00
03389             344.00    -4560.00
03390             256.00    -4640.00
03391             176.00    -4880.00
03392             320.00    -4880.00
03393             320.00    -4880.00
03394             200.00    -5040.00
03395             280.00    -5040.00
03396             344.00    -4960.00
03397             296.00    -5200.00
03398             288.00    -5200.00
03399             360.00    -5040.00
03400             320.00    -5200.00
03401             312.00    -5360.00
03402             392.00    -5280.00
03403             408.00    -5280.00
03404             344.00    -5520.00
03405             384.00    -5440.00
03406             440.00    -5360.00
03407             408.00    -5520.00
03408             416.00    -5600.00
03409             480.00    -5440.00
03410             472.00    -5520.00
03411             448.00    -5680.00
03412             512.00    -5600.00
03413             512.00    -5600.00
03414             480.00    -5680.00
03415             536.00    -5680.00
03416             600.00    -5600.00
03417             568.00    -5680.00
03418             584.00    -5680.00
03419             640.00    -5680.00
03420             632.00    -5680.00
03421             608.00    -5680.00
03422             672.00    -5680.00
03423             728.00    -5680.00
03424             704.00    -5680.00
03425             736.00    -5760.00
03426             768.00    -5600.00
03427             760.00    -5680.00
03428             768.00    -5680.00
03429             832.00    -5600.00
03430             856.00    -5600.00
03431             840.00    -5600.00
03432             856.00    -5600.00
03433             872.00    -5440.00
03434             864.00    -5520.00
03435             888.00    -5440.00
03436             912.00    -5440.00
03437             904.00    -5440.00
03438             896.00    -5360.00
03439             896.00    -5440.00
03440             896.00    -5360.00
03441             896.00    -5280.00
03442             896.00    -5280.00
03443             912.00    -5280.00
03444             888.00    -5200.00
03445             856.00    -5200.00
03446             856.00    -5040.00
03447             832.00    -5040.00
03448             832.00    -5040.00
03449             832.00    -4960.00
03450             824.00    -4880.00
03451             792.00    -4800.00
03452             768.00    -4800.00
03453             744.00    -4720.00
03454             736.00    -4720.00
03455             728.00    -4560.00
03456             712.00    -4560.00
03457             696.00    -4400.00
03458             664.00    -4400.00
03459             640.00    -4320.00
03460             616.00    -4240.00
03461             600.00    -4240.00
03462             592.00    -4000.00
03463             576.00    -4000.00
03464             544.00    -3920.00
03465             520.00    -3840.00
03466             504.00    -3760.00
03467             488.00    -3680.00
03468             472.00    -3680.00
03469             448.00    -3520.00
03470             440.00    -3440.00
03471             416.00    -3360.00
03472             408.00    -3280.00
03473             384.00    -3200.00
03474             360.00    -3120.00
03475             352.00    -2960.00
03476             360.00    -2880.00
03477             328.00    -2800.00
03478             312.00    -2720.00
03479             296.00    -2640.00
03480             288.00    -2560.00
03481             280.00    -2480.00
03482             272.00    -2320.00
03483             256.00    -2320.00
03484             248.00    -2160.00
03485             224.00    -2080.00
03486             216.00    -2000.00
03487             200.00    -1920.00
03488             200.00    -1760.00
03489             200.00    -1680.00
03490             192.00    -1520.00
03491             168.00    -1440.00
03492             160.00    -1360.00
03493             152.00    -1200.00
03494             136.00    -1120.00
03495             136.00    -1040.00
03496             136.00     -880.00
03497             120.00     -880.00
03498             104.00     -720.00
03499             104.00     -560.00
03500              96.00     -560.00
03501              96.00     -400.00
03502              88.00     -320.00
03503              88.00     -160.00
03504              72.00     -160.00
03505              72.00        0.00
03506              64.00      160.00
03507              72.00      240.00
03508             120.00      320.00
03509             128.00      400.00
03510             120.00      480.00
03511              80.00      640.00
03512              64.00      720.00
03513              48.00      800.00
03514              96.00      880.00
03515             552.00     1120.00
03516             888.00     1360.00
03517             216.00     1360.00
03518           -1016.00     1200.00
03519           -1016.00     1200.00
03520             408.00     1680.00
03521             984.00     1920.00
03522            -616.00     1760.00
03523            -360.00     1680.00
03524             936.00     1840.00
03525            -256.00     2560.00
03526            -696.00     2080.00
03527             320.00     1760.00
03528             176.00     2800.00
03529             -56.00     2800.00
03530            -168.00     1840.00
03531            -264.00     2880.00
03532             200.00     3360.00
03533            -248.00     2320.00
03534            -416.00     2800.00
03535             472.00     3440.00
03536            -176.00     2960.00
03537            -632.00     3120.00
03538             376.00     3360.00
03539             -64.00     3440.00
03540            -504.00     3600.00
03541              64.00     3280.00
03542             -64.00     3920.00
03543            -192.00     3920.00
03544            -232.00     3360.00
03545            -200.00     4160.00
03546             -24.00     4240.00
03547            -248.00     3760.00
03548            -168.00     4240.00
03549             -72.00     4240.00
03550            -296.00     4320.00
03551            -224.00     4320.00
03552            -152.00     4480.00
03553            -200.00     4560.00
03554            -264.00     4400.00
03555            -264.00     4640.00
03556            -184.00     4880.00
03557            -296.00     4640.00
03558            -232.00     4880.00
03559            -184.00     4960.00
03560            -352.00     4880.00
03561            -312.00     5040.00
03562            -280.00     5040.00
03563            -296.00     5200.00
03564            -296.00     5120.00
03565            -328.00     5200.00
03566            -352.00     5360.00
03567            -360.00     5200.00
03568            -320.00     5360.00
03569            -320.00     5360.00
03570            -400.00     5360.00
03571            -384.00     5440.00
03572            -384.00     5520.00
03573            -432.00     5520.00
03574            -440.00     5520.00
03575            -424.00     5520.00
03576            -448.00     5680.00
03577            -456.00     5600.00
03578            -440.00     5680.00
03579            -488.00     5680.00
03580            -568.00     5680.00
03581            -536.00     5680.00
03582            -488.00     5760.00
03583            -560.00     5680.00
03584            -608.00     5680.00
03585            -576.00     5760.00
03586            -616.00     5840.00
03587            -664.00     5680.00
03588            -648.00     5760.00
03589            -648.00     5760.00
03590            -704.00     5840.00
03591            -728.00     5680.00
03592            -712.00     5840.00
03593            -768.00     5680.00
03594            -808.00     5680.00
03595            -792.00     5680.00
03596            -792.00     5680.00
03597            -832.00     5680.00
03598            -864.00     5680.00
03599            -856.00     5680.00
03600            -880.00     5600.00
03601            -896.00     5600.00
03602            -880.00     5600.00
03603            -904.00     5520.00
03604            -904.00     5520.00
03605            -904.00     5520.00
03606            -904.00     5440.00
03607            -920.00     5360.00
03608            -920.00     5360.00
03609            -896.00     5360.00
03610            -888.00     5360.00
03611            -888.00     5280.00
03612            -888.00     5280.00
03613            -880.00     5200.00
03614            -864.00     5200.00
03615            -840.00     5040.00
03616            -832.00     5040.00
03617            -824.00     4960.00
03618            -808.00     4880.00
03619            -792.00     4880.00
03620            -776.00     4800.00
03621            -760.00     4720.00
03622            -736.00     4640.00
03623            -712.00     4560.00
03624            -680.00     4560.00
03625            -672.00     4400.00
03626            -672.00     4400.00
03627            -648.00     4320.00
03628            -608.00     4240.00
03629            -584.00     4240.00
03630            -576.00     4080.00
03631            -568.00     4000.00
03632            -544.00     3920.00
03633            -528.00     3920.00
03634            -512.00     3840.00
03635            -480.00     3760.00
03636            -456.00     3600.00
03637            -448.00     3520.00
03638            -424.00     3440.00
03639            -416.00     3360.00
03640            -416.00     3280.00
03641            -392.00     3120.00
03642            -360.00     3120.00
03643            -352.00     3040.00
03644            -352.00     2880.00
03645            -344.00     2800.00
03646            -320.00     2720.00
03647            -312.00     2640.00
03648            -288.00     2480.00
03649            -264.00     2400.00
03650            -264.00     2320.00
03651            -256.00     2160.00
03652            -248.00     2160.00
03653            -232.00     2000.00
03654            -232.00     1920.00
03655            -224.00     1840.00
03656            -200.00     1760.00
03657            -192.00     1600.00
03658            -184.00     1520.00
03659            -184.00     1440.00
03660            -168.00     1360.00
03661            -160.00     1200.00
03662            -136.00     1120.00
03663            -136.00     1040.00
03664            -136.00      880.00
03665            -128.00      800.00
03666            -128.00      720.00
03667            -104.00      560.00
03668            -104.00      400.00
03669            -104.00      400.00
03670             -88.00      240.00
03671             -64.00      160.00
03672             -72.00       80.00
03673             -72.00      -80.00
03674             -48.00     -160.00
03675              24.00     -320.00
03676              32.00     -320.00
03677              24.00     -480.00
03678               0.00     -560.00
03679               0.00     -560.00
03680               0.00     -720.00
03681              16.00     -800.00
03682             184.00     -880.00
03683             632.00    -1120.00
03684             664.00    -1360.00
03685             -72.00    -1440.00
03686           -1016.00    -1440.00
03687           -1016.00    -1200.00
03688             552.00    -1680.00
03689             832.00    -1840.00
03690            -504.00    -1440.00
03691             -16.00    -2160.00
03692             664.00    -2320.00
03693             -80.00    -1680.00
03694             -64.00    -2240.00
03695             104.00    -2720.00
03696              32.00    -2080.00
03697             408.00    -2320.00
03698              56.00    -3040.00
03699            -288.00    -2640.00
03700             280.00    -2480.00
03701              32.00    -3040.00
03702             -64.00    -3040.00
03703             472.00    -2960.00
03704              -8.00    -3040.00
03705            -192.00    -3440.00
03706             448.00    -3440.00
03707             248.00    -3120.00
03708            -160.00    -3680.00
03709             184.00    -3840.00
03710             328.00    -3440.00
03711             104.00    -3680.00
03712               0.00    -4160.00
03713             208.00    -3760.00
03714             256.00    -3760.00
03715             128.00    -4240.00
03716             184.00    -4240.00
03717             256.00    -4000.00
03718             152.00    -4400.00
03719             152.00    -4480.00
03720             312.00    -4320.00
03721             224.00    -4480.00
03722              96.00    -4720.00
03723             280.00    -4560.00
03724             336.00    -4640.00
03725             160.00    -4880.00
03726             256.00    -4880.00
03727             352.00    -4800.00
03728             248.00    -4880.00
03729             224.00    -5040.00
03730             336.00    -4960.00
03731             328.00    -5040.00
03732             272.00    -5200.00
03733             344.00    -5200.00
03734             344.00    -5200.00
03735             296.00    -5280.00
03736             360.00    -5360.00
03737             416.00    -5280.00
03738             376.00    -5360.00
03739             360.00    -5440.00
03740             416.00    -5360.00
03741             408.00    -5440.00
03742             392.00    -5520.00
03743             456.00    -5520.00
03744             488.00    -5440.00
03745             456.00    -5600.00
03746             496.00    -5600.00
03747             520.00    -5600.00
03748             488.00    -5600.00
03749             512.00    -5680.00
03750             584.00    -5680.00
03751             584.00    -5680.00
03752             552.00    -5680.00
03753             608.00    -5680.00
03754             640.00    -5680.00
03755             608.00    -5760.00
03756             648.00    -5760.00
03757             712.00    -5600.00
03758             704.00    -5680.00
03759             712.00    -5680.00
03760             760.00    -5680.00
03761             768.00    -5600.00
03762             752.00    -5680.00
03763             808.00    -5600.00
03764             856.00    -5600.00
03765             840.00    -5600.00
03766             840.00    -5600.00
03767             872.00    -5440.00
03768             880.00    -5520.00
03769             872.00    -5440.00
03770             896.00    -5440.00
03771             904.00    -5440.00
03772             904.00    -5360.00
03773             904.00    -5360.00
03774             904.00    -5360.00
03775             880.00    -5360.00
03776             880.00    -5280.00
03777             896.00    -5200.00
03778             896.00    -5280.00
03779             888.00    -5200.00
03780             856.00    -5120.00
03781             856.00    -5040.00
03782             832.00    -4960.00
03783             832.00    -4960.00
03784             832.00    -4880.00
03785             808.00    -4800.00
03786             784.00    -4720.00
03787             768.00    -4720.00
03788             744.00    -4720.00
03789             712.00    -4560.00
03790             704.00    -4560.00
03791             696.00    -4480.00
03792             696.00    -4400.00
03793             664.00    -4320.00
03794             632.00    -4240.00
03795             600.00    -4240.00
03796             584.00    -4160.00
03797             584.00    -4000.00
03798             568.00    -4000.00
03799             536.00    -3920.00
03800             512.00    -3840.00
03801             488.00    -3760.00
03802             472.00    -3680.00
03803             472.00    -3600.00
03804             456.00    -3440.00
03805             424.00    -3360.00
03806             408.00    -3280.00
03807             384.00    -3280.00
03808             376.00    -3120.00
03809             360.00    -3040.00
03810             352.00    -2880.00
03811             344.00    -2880.00
03812             320.00    -2800.00
03813             296.00    -2720.00
03814             288.00    -2640.00
03815             280.00    -2480.00
03816             280.00    -2400.00
03817             264.00    -2320.00
03818             256.00    -2160.00
03819             232.00    -2080.00
03820             224.00    -2000.00
03821             216.00    -1920.00
03822             200.00    -1840.00
03823             192.00    -1680.00
03824             200.00    -1680.00
03825             184.00    -1440.00
03826             160.00    -1440.00
03827             152.00    -1360.00
03828             152.00    -1200.00
03829             136.00    -1120.00
03830             136.00     -960.00
03831             136.00     -880.00
03832             120.00     -720.00
03833             104.00     -720.00
03834              96.00     -560.00
03835              96.00     -400.00
03836              88.00     -320.00
03837              88.00     -240.00
03838              72.00      -80.00
03839              72.00        0.00
03840              64.00       80.00
03841              72.00      160.00
03842              96.00      240.00
03843             128.00      400.00
03844             128.00      480.00
03845              96.00      480.00
03846              72.00      720.00
03847              56.00      720.00
03848              56.00      880.00
03849             288.00     1040.00
03850             856.00     1200.00
03851             624.00     1360.00
03852            -640.00     1360.00
03853           -1016.00     1200.00
03854            -568.00     1520.00
03855             984.00     1840.00
03856             128.00     1840.00
03857            -768.00     1680.00
03858             552.00     1680.00
03859             448.00     2320.00
03860            -768.00     2480.00
03861            -136.00     1760.00
03862             408.00     2320.00
03863              -8.00     3040.00
03864            -136.00     2080.00
03865            -256.00     2320.00
03866               0.00     3440.00
03867              64.00     2720.00
03868            -520.00     2400.00
03869             152.00     3360.00
03870             296.00     3120.00
03871            -688.00     2960.00
03872             -24.00     3360.00
03873             312.00     3440.00
03874            -488.00     3600.00
03875            -160.00     3360.00
03876              64.00     3520.00
03877            -184.00     4080.00
03878            -200.00     3440.00
03879            -256.00     3760.00
03880             -56.00     4400.00
03881            -136.00     3840.00
03882            -264.00     4000.00
03883             -40.00     4320.00
03884            -216.00     4240.00
03885            -288.00     4320.00
03886            -152.00     4320.00
03887            -184.00     4640.00
03888            -224.00     4560.00
03889            -280.00     4480.00
03890            -200.00     4880.00
03891            -248.00     4720.00
03892            -288.00     4800.00
03893            -176.00     4960.00
03894            -280.00     4880.00
03895            -344.00     4960.00
03896            -264.00     5040.00
03897            -296.00     5200.00
03898            -288.00     5120.00
03899            -304.00     5040.00
03900            -344.00     5280.00
03901            -360.00     5200.00
03902            -352.00     5280.00
03903            -312.00     5520.00
03904            -368.00     5360.00
03905            -392.00     5440.00
03906            -376.00     5520.00
03907            -416.00     5520.00
03908            -448.00     5520.00
03909            -424.00     5520.00
03910            -440.00     5600.00
03911            -472.00     5600.00
03912            -456.00     5600.00
03913            -456.00     5680.00
03914            -536.00     5680.00
03915            -552.00     5600.00
03916            -504.00     5760.00
03917            -536.00     5760.00
03918            -608.00     5680.00
03919            -584.00     5680.00
03920            -584.00     5840.00
03921            -640.00     5840.00
03922            -656.00     5680.00
03923            -640.00     5840.00
03924            -680.00     5760.00
03925            -728.00     5680.00
03926            -704.00     5840.00
03927            -728.00     5680.00
03928            -800.00     5680.00
03929            -800.00     5680.00
03930            -776.00     5680.00
03931            -808.00     5680.00
03932            -856.00     5680.00
03933            -856.00     5680.00
03934            -864.00     5600.00
03935            -896.00     5600.00
03936            -896.00     5600.00
03937            -888.00     5600.00
03938            -904.00     5520.00
03939            -904.00     5520.00
03940            -904.00     5520.00
03941            -904.00     5440.00
03942            -928.00     5360.00
03943            -896.00     5360.00
03944            -888.00     5360.00
03945            -888.00     5280.00
03946            -880.00     5280.00
03947            -888.00     5200.00
03948            -872.00     5200.00
03949            -848.00     5120.00
03950            -832.00     5040.00
03951            -816.00     4960.00
03952            -808.00     4880.00
03953            -792.00     4880.00
03954            -776.00     4880.00
03955            -768.00     4800.00
03956            -744.00     4720.00
03957            -712.00     4560.00
03958            -696.00     4560.00
03959            -680.00     4560.00
03960            -672.00     4400.00
03961            -664.00     4320.00
03962            -624.00     4240.00
03963            -600.00     4240.00
03964            -576.00     4080.00
03965            -568.00     4000.00
03966            -552.00     4000.00
03967            -536.00     3920.00
03968            -520.00     3840.00
03969            -488.00     3680.00
03970            -480.00     3680.00
03971            -456.00     3600.00
03972            -440.00     3440.00
03973            -424.00     3440.00
03974            -416.00     3360.00
03975            -408.00     3280.00
03976            -376.00     3200.00
03977            -352.00     2960.00
03978            -344.00     2960.00
03979            -344.00     2800.00
03980            -328.00     2720.00
03981            -320.00     2640.00
03982            -296.00     2560.00
03983            -272.00     2480.00
03984            -264.00     2400.00
03985            -256.00     2240.00
03986            -256.00     2160.00
03987            -248.00     2080.00
03988            -232.00     2000.00
03989            -224.00     1920.00
03990            -200.00     1760.00
03991            -192.00     1680.00
03992            -192.00     1520.00
03993            -192.00     1440.00
03994            -176.00     1360.00
03995            -160.00     1280.00
03996            -136.00     1200.00
03997            -136.00     1040.00
03998            -136.00      880.00
03999            -136.00      800.00
04000            -128.00      720.00
04001            -104.00      640.00
04002            -104.00      480.00
04003             -96.00      400.00
04004             -88.00      320.00
04005             -72.00      240.00
04006             -72.00       80.00
04007             -72.00      -80.00
04008             -64.00     -160.00
04009              -8.00     -160.00
04010              32.00     -240.00
04011              32.00     -400.00
04012               8.00     -480.00
04013               0.00     -640.00
04014               0.00     -720.00
04015               0.00     -800.00
04016              72.00     -880.00
04017             416.00    -1040.00
04018             760.00    -1280.00
04019             328.00    -1440.00
04020            -768.00    -1440.00
04021           -1016.00    -1360.00
04022            -184.00    -1360.00
04023             984.00    -1920.00
04024             -96.00    -1520.00
04025            -360.00    -1760.00
04026             536.00    -2480.00
04027             256.00    -1760.00
04028            -136.00    -1840.00
04029              64.00    -2720.00
04030              24.00    -2400.00
04031             296.00    -2000.00
04032             280.00    -2800.00
04033            -280.00    -2880.00
04034              64.00    -2400.00
04035             200.00    -2800.00
04036            -152.00    -3120.00
04037             288.00    -2960.00
04038             296.00    -3040.00
04039            -288.00    -3280.00
04040             200.00    -3520.00
04041             448.00    -3200.00
04042             -72.00    -3280.00
04043              -8.00    -3920.00
04044             320.00    -3600.00
04045             224.00    -3440.00
04046               0.00    -4000.00
04047             104.00    -4000.00
04048             280.00    -3760.00
04049             184.00    -4080.00
04050             120.00    -4320.00
04051             256.00    -4000.00
04052             200.00    -4240.00
04053             120.00    -4560.00
04054             256.00    -4400.00
04055             296.00    -4400.00
04056             120.00    -4720.00
04057             168.00    -4640.00
04058             352.00    -4560.00
04059             232.00    -4720.00
04060             192.00    -4880.00
04061             344.00    -4800.00
04062             304.00    -4800.00
04063             216.00    -5040.00
04064             296.00    -5040.00
04065             344.00    -4960.00
04066             296.00    -5200.00
04067             304.00    -5200.00
04068             360.00    -5120.00
04069             312.00    -5200.00
04070             320.00    -5360.00
04071             416.00    -5280.00
04072             408.00    -5360.00
04073             352.00    -5440.00
04074             408.00    -5440.00
04075             424.00    -5360.00
04076             392.00    -5520.00
04077             424.00    -5520.00
04078             480.00    -5520.00
04079             472.00    -5520.00
04080             472.00    -5680.00
04081             512.00    -5600.00
04082             504.00    -5600.00
04083             488.00    -5680.00
04084             568.00    -5680.00
04085             600.00    -5680.00
04086             568.00    -5680.00
04087             584.00    -5680.00
04088             640.00    -5760.00
04089             624.00    -5680.00
04090             632.00    -5680.00
04091             696.00    -5680.00
04092             720.00    -5680.00
04093             704.00    -5680.00
04094             736.00    -5680.00
04095             768.00    -5680.00
04096             760.00    -5600.00
04097             776.00    -5600.00
04098             840.00    -5680.00
04099             848.00    -5600.00
04100             832.00    -5600.00
04101             856.00    -5600.00
04102             872.00    -5520.00
04103             864.00    -5600.00
04104             888.00    -5520.00
04105             912.00    -5440.00
04106             904.00    -5360.00
04107             896.00    -5360.00
04108             896.00    -5360.00
04109             896.00    -5360.00
04110             880.00    -5280.00
04111             896.00    -5280.00
04112             904.00    -5200.00
04113             888.00    -5200.00
04114             864.00    -5200.00
04115             856.00    -5040.00
04116             840.00    -4960.00
04117             832.00    -4960.00
04118             832.00    -4880.00
04119             824.00    -4880.00
04120             792.00    -4880.00
04121             768.00    -4800.00
04122             752.00    -4720.00
04123             728.00    -4560.00
04124             712.00    -4560.00
04125             712.00    -4480.00
04126             696.00    -4480.00
04127             664.00    -4400.00
04128             640.00    -4320.00
04129             616.00    -4240.00
04130             600.00    -4160.00
04131             584.00    -4080.00
04132             576.00    -4000.00
04133             544.00    -3920.00
04134             520.00    -3920.00
04135             504.00    -3760.00
04136             472.00    -3680.00
04137             472.00    -3600.00
04138             472.00    -3600.00
04139             448.00    -3440.00
04140             416.00    -3360.00
04141             400.00    -3280.00
04142             384.00    -3120.00
04143             360.00    -3040.00
04144             352.00    -2960.00
04145             360.00    -2880.00
04146             328.00    -2800.00
04147             312.00    -2720.00
04148             288.00    -2640.00
04149             280.00    -2480.00
04150             280.00    -2480.00
04151             264.00    -2320.00
04152             256.00    -2240.00
04153             232.00    -2080.00
04154             224.00    -2000.00
04155             216.00    -2000.00
04156             200.00    -1840.00
04157             200.00    -1760.00
04158             192.00    -1680.00
04159             192.00    -1520.00
04160             184.00    -1440.00
04161             152.00    -1280.00
04162             152.00    -1200.00
04163             136.00    -1120.00
04164             136.00    -1040.00
04165             128.00     -880.00
04166             128.00     -800.00
04167             104.00     -720.00
04168              96.00     -560.00
04169              96.00     -480.00
04170              96.00     -320.00
04171              88.00     -240.00
04172              88.00     -160.00
04173              88.00      -80.00
04174              64.00       80.00
04175              56.00      160.00
04176              80.00      240.00
04177             120.00      400.00
04178             128.00      480.00
04179             104.00      560.00
04180              80.00      640.00
04181              56.00      720.00
04182              56.00      800.00
04183             136.00      960.00
04184             648.00     1200.00
04185             856.00     1360.00
04186              32.00     1360.00
04187           -1016.00     1200.00
04188           -1016.00     1360.00
04189             760.00     1760.00
04190             984.00     1840.00
04191            -760.00     1680.00
04192            -128.00     1680.00
04193             920.00     2000.00
04194            -456.00     2560.00
04195            -600.00     2000.00
04196             416.00     1840.00
04197             104.00     2960.00
04198             -88.00     2640.00
04199            -184.00     1920.00
04200            -224.00     3040.00
04201             216.00     3280.00
04202            -352.00     2320.00
04203            -288.00     3040.00
04204             512.00     3440.00
04205            -352.00     2880.00
04206            -504.00     3200.00
04207             424.00     3360.00
04208            -200.00     3440.00
04209            -440.00     3520.00
04210             104.00     3360.00
04211            -104.00     3920.00
04212            -200.00     3760.00
04213            -232.00     3440.00
04214            -160.00     4320.00
04215             -40.00     4080.00
04216            -264.00     3760.00
04217            -128.00     4320.00
04218            -104.00     4240.00
04219            -312.00     4320.00
04220            -192.00     4320.00
04221            -160.00     4560.00
04222            -200.00     4640.00
04223            -264.00     4400.00
04224            -248.00     4800.00
04225            -192.00     4800.00
04226            -312.00     4640.00
04227            -216.00     4960.00
04228            -200.00     4880.00
04229            -360.00     4960.00
04230            -296.00     5040.00
04231            -288.00     5040.00
04232            -296.00     5200.00
04233            -296.00     5040.00
04234            -328.00     5280.00
04235            -360.00     5280.00
04236            -360.00     5280.00
04237            -320.00     5440.00
04238            -336.00     5520.00
04239            -400.00     5360.00
04240            -384.00     5360.00
04241            -392.00     5520.00
04242            -448.00     5520.00
04243            -432.00     5520.00
04244            -424.00     5600.00
04245            -456.00     5600.00
04246            -456.00     5600.00
04247            -448.00     5680.00
04248            -512.00     5680.00
04249            -568.00     5680.00
04250            -520.00     5680.00
04251            -496.00     5760.00
04252            -584.00     5680.00
04253            -600.00     5680.00
04254            -576.00     5760.00
04255            -616.00     5680.00
04256            -664.00     5760.00
04257            -640.00     5680.00
04258            -648.00     5760.00
04259            -712.00     5680.00
04260            -712.00     5760.00
04261            -704.00     5840.00
04262            -776.00     5840.00
04263            -808.00     5680.00
04264            -792.00     5680.00
04265            -792.00     5760.00
04266            -832.00     5680.00
04267            -864.00     5680.00
04268            -864.00     5680.00
04269            -888.00     5600.00
04270            -896.00     5600.00
04271            -888.00     5600.00
04272            -888.00     5520.00
04273            -904.00     5520.00
04274            -896.00     5520.00
04275            -904.00     5520.00
04276            -920.00     5440.00
04277            -912.00     5360.00
04278            -888.00     5360.00
04279            -880.00     5280.00
04280            -888.00     5200.00
04281            -888.00     5200.00
04282            -880.00     5120.00
04283            -864.00     5040.00
04284            -832.00     5040.00
04285            -824.00     5040.00
04286            -824.00     4960.00
04287            -800.00     4880.00
04288            -776.00     4880.00
04289            -776.00     4800.00
04290            -760.00     4720.00
04291            -728.00     4640.00
04292            -712.00     4560.00
04293            -696.00     4560.00
04294            -680.00     4400.00
04295            -672.00     4400.00
04296            -648.00     4320.00
04297            -608.00     4240.00
04298            -576.00     4240.00
04299            -576.00     4080.00
04300            -560.00     4000.00
04301            -544.00     3920.00
04302            -520.00     3760.00
04303            -512.00     3760.00
04304            -480.00     3680.00
04305            -472.00     3600.00
04306            -448.00     3520.00
04307            -424.00     3440.00
04308            -416.00     3360.00
04309            -408.00     3280.00
04310            -392.00     3120.00
04311            -360.00     3120.00
04312            -344.00     2960.00
04313            -352.00     2880.00
04314            -328.00     2800.00
04315            -320.00     2720.00
04316            -296.00     2560.00
04317            -280.00     2560.00
04318            -264.00     2400.00
04319            -256.00     2320.00
04320            -256.00     2240.00
04321            -232.00     2160.00
04322            -232.00     2000.00
04323            -224.00     1920.00
04324            -216.00     1840.00
04325            -192.00     1680.00
04326            -184.00     1600.00
04327            -192.00     1520.00
04328            -184.00     1360.00
04329            -168.00     1360.00
04330            -152.00     1200.00
04331            -136.00     1120.00
04332            -128.00      960.00
04333            -136.00      880.00
04334            -128.00      720.00
04335            -120.00      640.00
04336            -104.00      560.00
04337             -96.00      400.00
04338             -96.00      400.00
04339             -88.00      240.00
04340             -64.00      160.00
04341             -64.00       80.00
04342             -72.00      -80.00
04343             -40.00     -160.00
04344              24.00     -240.00
04345              32.00     -400.00
04346              24.00     -480.00
04347               8.00     -560.00
04348               0.00     -720.00
04349               0.00     -800.00
04350              24.00     -800.00
04351             232.00     -960.00
04352             680.00    -1120.00
04353             600.00    -1360.00
04354            -240.00    -1440.00
04355           -1016.00    -1440.00
04356            -928.00    -1200.00
04357             768.00    -1680.00
04358             608.00    -1760.00
04359            -520.00    -1440.00
04360             128.00    -2240.00
04361             608.00    -2160.00
04362            -136.00    -1600.00
04363             -40.00    -2400.00
04364              96.00    -2720.00
04365              88.00    -2000.00
04366             408.00    -2400.00
04367             -48.00    -3040.00
04368            -232.00    -2560.00
04369             296.00    -2640.00
04370             -40.00    -3040.00
04371               8.00    -3040.00
04372             472.00    -2960.00
04373            -128.00    -3040.00
04374            -120.00    -3440.00
04375             480.00    -3360.00
04376             152.00    -3120.00
04377            -152.00    -3760.00
04378             224.00    -3760.00
04379             312.00    -3360.00
04380              56.00    -3760.00
04381              24.00    -4080.00
04382             232.00    -3760.00
04383             248.00    -3840.00
04384             120.00    -4320.00
04385             216.00    -4160.00
04386             248.00    -4000.00
04387             136.00    -4400.00
04388             168.00    -4560.00
04389             320.00    -4320.00
04390             192.00    -4560.00
04391             104.00    -4720.00
04392             312.00    -4560.00
04393             312.00    -4720.00
04394             168.00    -4880.00
04395             280.00    -4880.00
04396             352.00    -4800.00
04397             224.00    -4960.00
04398             248.00    -5040.00
04399             352.00    -4960.00
04400             320.00    -5040.00
04401             288.00    -5200.00
04402             352.00    -5200.00
04403             344.00    -5200.00
04404             296.00    -5280.00
04405             384.00    -5280.00
04406             424.00    -5280.00
04407             368.00    -5360.00
04408             376.00    -5440.00
04409             424.00    -5360.00
04410             408.00    -5440.00
04411             400.00    -5520.00
04412             472.00    -5440.00
04413             480.00    -5520.00
04414             456.00    -5600.00
04415             504.00    -5600.00
04416             512.00    -5520.00
04417             488.00    -5600.00
04418             528.00    -5680.00
04419             592.00    -5600.00
04420             568.00    -5680.00
04421             568.00    -5680.00
04422             616.00    -5680.00
04423             632.00    -5680.00
04424             608.00    -5760.00
04425             664.00    -5680.00
04426             712.00    -5680.00
04427             704.00    -5680.00
04428             712.00    -5760.00
04429             768.00    -5680.00
04430             760.00    -5600.00
04431             760.00    -5680.00
04432             816.00    -5600.00
04433             848.00    -5600.00
04434             832.00    -5520.00
04435             840.00    -5600.00
04436             872.00    -5440.00
04437             864.00    -5520.00
04438             872.00    -5600.00
04439             904.00    -5440.00
04440             904.00    -5440.00
04441             896.00    -5440.00
04442             896.00    -5360.00
04443             896.00    -5360.00
04444             880.00    -5360.00
04445             896.00    -5280.00
04446             896.00    -5200.00
04447             888.00    -5280.00
04448             872.00    -5120.00
04449             856.00    -5040.00
04450             840.00    -5040.00
04451             832.00    -4960.00
04452             832.00    -4960.00
04453             824.00    -4880.00
04454             800.00    -4880.00
04455             776.00    -4720.00
04456             760.00    -4720.00
04457             736.00    -4640.00
04458             728.00    -4560.00
04459             712.00    -4560.00
04460             696.00    -4480.00
04461             672.00    -4400.00
04462             648.00    -4320.00
04463             632.00    -4320.00
04464             600.00    -4240.00
04465             600.00    -4080.00
04466             600.00    -4080.00
04467             568.00    -4000.00
04468             536.00    -3920.00
04469             512.00    -3840.00
04470             488.00    -3760.00
04471             480.00    -3680.00
04472             472.00    -3600.00
04473             448.00    -3440.00
04474             424.00    -3440.00
04475             408.00    -3360.00
04476             392.00    -3280.00
04477             376.00    -3120.00
04478             360.00    -3040.00
04479             352.00    -2960.00
04480             344.00    -2880.00
04481             320.00    -2800.00
04482             296.00    -2720.00
04483             288.00    -2640.00
04484             280.00    -2480.00
04485             272.00    -2400.00
04486             264.00    -2240.00
04487             248.00    -2160.00
04488             224.00    -2080.00
04489             216.00    -2000.00
04490             208.00    -1840.00
04491             192.00    -1840.00
04492             192.00    -1680.00
04493             192.00    -1520.00
04494             168.00    -1520.00
04495             160.00    -1360.00
04496             152.00    -1200.00
04497             136.00    -1120.00
04498             136.00    -1040.00
04499             136.00     -960.00
04500             128.00     -880.00
04501             120.00     -800.00
04502             104.00     -720.00
04503              88.00     -560.00
04504              88.00     -400.00
04505              88.00     -320.00
04506              88.00     -240.00
04507              88.00     -160.00
04508              72.00        0.00
04509              64.00       80.00
04510              64.00      240.00
04511             104.00      320.00
04512             128.00      400.00
04513             120.00      560.00
04514              88.00      560.00
04515              64.00      640.00
04516              56.00      720.00
04517              64.00      800.00
04518             384.00     1040.00
04519             896.00     1280.00
04520             496.00     1360.00
04521            -896.00     1360.00
04522           -1016.00     1120.00
04523            -216.00     1600.00
04524             984.00     1840.00
04525            -192.00     1680.00
04526            -672.00     1680.00
04527             760.00     1680.00
04528             192.00     2320.00
04529            -776.00     2400.00
04530              32.00     1680.00
04531             344.00     2480.00
04532              -8.00     2960.00
04533            -152.00     2000.00
04534            -280.00     2480.00
04535              88.00     3440.00
04536             -40.00     2480.00
04537            -512.00     2560.00
04538             304.00     3520.00
04539             136.00     3040.00
04540            -712.00     3040.00
04541             152.00     3360.00
04542             192.00     3360.00
04543            -520.00     3600.00
04544             -64.00     3360.00
04545              32.00     3680.00
04546            -192.00     4080.00
04547            -200.00     3440.00
04548            -240.00     3920.00
04549             -32.00     4400.00
04550            -192.00     3760.00
04551            -248.00     4080.00
04552             -40.00     4320.00
04553            -256.00     4240.00
04554            -272.00     4320.00
04555            -136.00     4400.00
04556            -192.00     4640.00
04557            -248.00     4480.00
04558            -280.00     4560.00
04559            -192.00     4960.00
04560            -280.00     4640.00
04561            -280.00     4800.00
04562            -168.00     5040.00
04563            -304.00     4880.00
04564            -336.00     4960.00
04565            -280.00     4960.00
04566            -296.00     5120.00
04567            -296.00     5120.00
04568            -320.00     5200.00
04569            -352.00     5360.00
04570            -376.00     5200.00
04571            -352.00     5360.00
04572            -312.00     5360.00
04573            -392.00     5360.00
04574            -400.00     5440.00
04575            -376.00     5520.00
04576            -424.00     5520.00
04577            -440.00     5520.00
04578            -424.00     5520.00
04579            -440.00     5680.00
04580            -472.00     5600.00
04581            -448.00     5680.00
04582            -464.00     5680.00
04583            -552.00     5600.00
04584            -552.00     5680.00
04585            -488.00     5760.00
04586            -536.00     5680.00
04587            -608.00     5680.00
04588            -584.00     5680.00
04589            -600.00     5840.00
04590            -648.00     5760.00
04591            -664.00     5680.00
04592            -640.00     5840.00
04593            -696.00     5680.00
04594            -728.00     5760.00
04595            -704.00     5680.00
04596            -744.00     5760.00
04597            -808.00     5760.00
04598            -808.00     5680.00
04599            -784.00     5680.00
04600            -824.00     5680.00
04601            -848.00     5680.00
04602            -856.00     5680.00
04603            -864.00     5680.00
04604            -896.00     5600.00
04605            -880.00     5600.00
04606            -888.00     5520.00
04607            -904.00     5520.00
04608            -904.00     5520.00
04609            -904.00     5440.00
04610            -920.00     5440.00
04611            -928.00     5360.00
04612            -896.00     5360.00
04613            -888.00     5360.00
04614            -888.00     5280.00
04615            -888.00     5200.00
04616            -888.00     5200.00
04617            -872.00     5120.00
04618            -840.00     5040.00
04619            -832.00     5040.00
04620            -824.00     4960.00
04621            -816.00     4960.00
04622            -792.00     4880.00
04623            -776.00     4880.00
04624            -768.00     4720.00
04625            -744.00     4640.00
04626            -712.00     4560.00
04627            -704.00     4560.00
04628            -680.00     4480.00
04629            -680.00     4320.00
04630            -664.00     4320.00
04631            -632.00     4240.00
04632            -600.00     4240.00
04633            -576.00     4080.00
04634            -576.00     4000.00
04635            -552.00     4000.00
04636            -536.00     3920.00
04637            -512.00     3760.00
04638            -488.00     3760.00
04639            -472.00     3680.00
04640            -456.00     3600.00
04641            -440.00     3440.00
04642            -424.00     3360.00
04643            -416.00     3360.00
04644            -400.00     3120.00
04645            -376.00     3120.00
04646            -352.00     3040.00
04647            -352.00     2960.00
04648            -344.00     2800.00
04649            -320.00     2720.00
04650            -312.00     2640.00
04651            -288.00     2480.00
04652            -264.00     2480.00
04653            -264.00     2320.00
04654            -256.00     2240.00
04655            -248.00     2160.00
04656            -232.00     2000.00
04657            -232.00     1920.00
04658            -224.00     1840.00
04659            -200.00     1760.00
04660            -184.00     1680.00
04661            -176.00     1520.00
04662            -184.00     1520.00
04663            -168.00     1360.00
04664            -160.00     1200.00
04665            -136.00     1120.00
04666            -136.00     1040.00
04667            -136.00      880.00
04668            -128.00      800.00
04669            -128.00      720.00
04670            -104.00      560.00
04671            -104.00      480.00
04672             -96.00      400.00
04673             -88.00      240.00
04674             -72.00      160.00
04675             -64.00       80.00
04676             -72.00      -80.00
04677             -56.00     -160.00
04678              -8.00     -240.00
04679              32.00     -320.00
04680              32.00     -400.00
04681              24.00     -560.00
04682               0.00     -640.00
04683               0.00     -720.00
04684               0.00     -800.00
04685             104.00     -880.00
04686             496.00    -1040.00
04687             728.00    -1360.00
04688             200.00    -1440.00
04689            -968.00    -1520.00
04690           -1016.00    -1280.00
04691              88.00    -1440.00
04692             984.00    -1920.00
04693            -296.00    -1440.00
04694            -256.00    -1840.00
04695             616.00    -2400.00
04696             120.00    -1680.00
04697            -128.00    -2000.00
04698              72.00    -2800.00
04699               0.00    -2320.00
04700             360.00    -2080.00
04701             216.00    -2880.00
04702            -320.00    -2800.00
04703             152.00    -2480.00
04704             152.00    -2880.00
04705            -136.00    -3120.00
04706             384.00    -3040.00
04707             184.00    -2960.00
04708            -288.00    -3280.00
04709             312.00    -3600.00
04710             384.00    -3120.00
04711            -128.00    -3440.00
04712              64.00    -3920.00
04713             344.00    -3440.00
04714             184.00    -3520.00
04715              -8.00    -4080.00
04716             152.00    -3920.00
04717             272.00    -3760.00
04718             160.00    -4160.00
04719             152.00    -4320.00
04720             264.00    -4000.00
04721             184.00    -4240.00
04722             128.00    -4560.00
04723             288.00    -4320.00
04724             272.00    -4400.00
04725             104.00    -4720.00
04726             216.00    -4560.00
04727             352.00    -4560.00
04728             200.00    -4720.00
04729             216.00    -4880.00
04730             360.00    -4800.00
04731             280.00    -4880.00
04732             216.00    -5040.00
04733             320.00    -5040.00
04734             344.00    -4960.00
04735             280.00    -5200.00
04736             320.00    -5200.00
04737             360.00    -5120.00
04738             312.00    -5280.00
04739             328.00    -5360.00
04740             424.00    -5280.00
04741             392.00    -5280.00
04742             352.00    -5440.00
04743             408.00    -5360.00
04744             416.00    -5440.00
04745             392.00    -5520.00
04746             432.00    -5520.00
04747             488.00    -5440.00
04748             472.00    -5600.00
04749             472.00    -5680.00
04750             512.00    -5600.00
04751             488.00    -5600.00
04752             488.00    -5680.00
04753             568.00    -5680.00
04754             576.00    -5600.00
04755             552.00    -5680.00
04756             600.00    -5680.00
04757             640.00    -5680.00
04758             608.00    -5680.00
04759             632.00    -5760.00
04760             704.00    -5680.00
04761             712.00    -5680.00
04762             704.00    -5680.00
04763             744.00    -5760.00
04764             768.00    -5600.00
04765             744.00    -5680.00
04766             792.00    -5680.00
04767             840.00    -5600.00
04768             832.00    -5600.00
04769             832.00    -5600.00
04770             864.00    -5520.00
04771             872.00    -5520.00
04772             864.00    -5440.00
04773             888.00    -5520.00
04774             920.00    -5440.00
04775             904.00    -5360.00
04776             896.00    -5440.00
04777             896.00    -5360.00
04778             896.00    -5280.00
04779             872.00    -5280.00
04780             904.00    -5280.00
04781             904.00    -5200.00
04782             888.00    -5200.00
04783             864.00    -5120.00
04784             856.00    -5040.00
04785             840.00    -5040.00
04786             832.00    -4960.00
04787             832.00    -4880.00
04788             808.00    -4880.00
04789             784.00    -4880.00
04790             776.00    -4720.00
04791             744.00    -4640.00
04792             736.00    -4640.00
04793             728.00    -4560.00
04794             712.00    -4480.00
04795             680.00    -4480.00
04796             648.00    -4400.00
04797             640.00    -4240.00
04798             608.00    -4240.00
04799             600.00    -4160.00
04800             592.00    -4080.00
04801             576.00    -4000.00
04802             544.00    -3920.00
04803             512.00    -3840.00
04804             504.00    -3760.00
04805             480.00    -3680.00
04806             472.00    -3600.00
04807             456.00    -3440.00
04808             440.00    -3440.00
04809             408.00    -3360.00
04810             392.00    -3280.00
04811             376.00    -3200.00
04812             360.00    -3040.00
04813             360.00    -2960.00
04814             344.00    -2880.00
04815             328.00    -2800.00
04816             296.00    -2720.00
04817             288.00    -2640.00
04818             280.00    -2560.00
04819             272.00    -2400.00
04820             264.00    -2320.00
04821             256.00    -2160.00
04822             224.00    -2160.00
04823             224.00    -2000.00
04824             216.00    -1920.00
04825             192.00    -1840.00
04826             192.00    -1760.00
04827             192.00    -1680.00
04828             184.00    -1520.00
04829             168.00    -1440.00
04830             152.00    -1360.00
04831             136.00    -1200.00
04832             136.00    -1120.00
04833             128.00    -1040.00
04834             136.00     -880.00
04835             128.00     -800.00
04836             104.00     -720.00
04837              96.00     -560.00
04838              96.00     -480.00
04839              88.00     -400.00
04840              88.00     -240.00
04841              88.00     -160.00
04842              80.00      -80.00
04843              64.00       80.00
04844              64.00      160.00
04845              88.00      240.00
04846             128.00      400.00
04847             128.00      480.00
04848             104.00      560.00
04849              88.00      720.00
04850              56.00      800.00
04851              56.00      800.00
04852             184.00     1040.00
04853             744.00     1200.00
04854             792.00     1360.00
04855            -184.00     1360.00
04856           -1016.00     1200.00
04857           -1016.00     1360.00
04858             984.00     1760.00
04859             744.00     1840.00
04860            -824.00     1680.00
04861             120.00     1680.00
04862             824.00     2080.00
04863            -608.00     2560.00
04864            -456.00     1840.00
04865             456.00     2000.00
04866              64.00     3040.00
04867             -96.00     2400.00
04868            -200.00     2000.00
04869            -168.00     3280.00
04870             192.00     2960.00
04871            -424.00     2240.00
04872            -136.00     3200.00
04873             480.00     3280.00
04874            -512.00     2960.00
04875            -344.00     3280.00
04876             424.00     3360.00
04877            -328.00     3520.00
04878            -352.00     3440.00
04879             120.00     3360.00
04880            -136.00     4080.00
04881            -200.00     3680.00
04882            -256.00     3440.00
04883            -128.00     4320.00
04884             -72.00     4000.00
04885            -288.00     3920.00
04886             -88.00     4320.00
04887            -144.00     4240.00
04888            -320.00     4320.00
04889            -176.00     4320.00
04890            -160.00     4560.00
04891            -216.00     4560.00
04892            -280.00     4400.00
04893            -232.00     4800.00
04894            -208.00     4720.00
04895            -312.00     4640.00
04896            -192.00     4960.00
04897            -224.00     4880.00
04898            -352.00     4960.00
04899            -288.00     4960.00
04900            -288.00     5040.00
04901            -296.00     5200.00
04902            -296.00     5120.00
04903            -344.00     5280.00
04904            -360.00     5280.00
04905            -360.00     5280.00
04906            -312.00     5440.00
04907            -352.00     5360.00
04908            -408.00     5360.00
04909            -376.00     5440.00
04910            -392.00     5600.00
04911            -448.00     5520.00
04912            -424.00     5520.00
04913            -424.00     5600.00
04914            -456.00     5600.00
04915            -456.00     5520.00
04916            -448.00     5680.00
04917            -512.00     5680.00
04918            -568.00     5600.00
04919            -512.00     5680.00
04920            -504.00     5760.00
04921            -584.00     5680.00
04922            -600.00     5680.00
04923            -576.00     5840.00
04924            -616.00     5760.00
04925            -664.00     5680.00
04926            -640.00     5840.00
04927            -656.00     5840.00
04928            -720.00     5680.00
04929            -712.00     5760.00
04930            -712.00     5760.00
04931            -776.00     5680.00
04932            -808.00     5680.00
04933            -784.00     5680.00
04934            -800.00     5680.00
04935            -840.00     5600.00
04936            -856.00     5680.00
04937            -856.00     5680.00
04938            -896.00     5600.00
04939            -896.00     5600.00
04940            -888.00     5600.00
04941            -896.00     5520.00
04942            -904.00     5520.00
04943            -896.00     5520.00
04944            -904.00     5440.00
04945            -928.00     5360.00
04946            -904.00     5360.00
04947            -888.00     5360.00
04948            -888.00     5280.00
04949            -888.00     5280.00
04950            -888.00     5200.00
04951            -880.00     5120.00
04952            -864.00     5120.00
04953            -832.00     5040.00
04954            -832.00     4960.00
04955            -824.00     4960.00
04956            -808.00     4880.00
04957            -792.00     4800.00
04958            -776.00     4720.00
04959            -760.00     4720.00
04960            -728.00     4640.00
04961            -712.00     4560.00
04962            -688.00     4560.00
04963            -680.00     4400.00
04964            -672.00     4320.00
04965            -640.00     4240.00
04966            -608.00     4240.00
04967            -584.00     4080.00
04968            -576.00     4080.00
04969            -568.00     4000.00
04970            -544.00     3920.00
04971            -520.00     3920.00
04972            -496.00     3760.00
04973            -472.00     3680.00
04974            -456.00     3520.00
04975            -440.00     3440.00
04976            -424.00     3440.00
04977            -416.00     3280.00
04978            -408.00     3280.00
04979            -384.00     3120.00
04980            -360.00     3120.00
04981            -344.00     2960.00
04982            -344.00     2880.00
04983            -328.00     2800.00
04984            -320.00     2640.00
04985            -296.00     2640.00
04986            -280.00     2480.00
04987            -264.00     2400.00
04988            -256.00     2320.00
04989            -256.00     2160.00
04990            -232.00     2080.00
04991            -232.00     2000.00
04992            -224.00     1840.00
04993            -208.00     1760.00
04994            -184.00     1680.00
04995            -184.00     1520.00
04996            -184.00     1520.00
04997            -168.00     1440.00
04998            -160.00     1360.00
04999            -152.00     1200.00
05000            -136.00     1040.00
