Unit:(mV)
                     CH1         CH2
Frequency              ? 300.126 kHz
00001             -96.00      400.00
00002             -96.00      320.00
00003             -88.00      320.00
00004             -88.00      240.00
00005             -80.00      240.00
00006             -72.00      240.00
00007             -72.00      160.00
00008             -64.00       80.00
00009             -48.00       80.00
00010             -48.00       80.00
00011             -32.00       80.00
00012             -24.00      -80.00
00013              -8.00      -80.00
00014             -16.00      -80.00
00015              -8.00     -160.00
00016              -8.00     -160.00
00017               0.00     -160.00
00018             120.00     -240.00
00019             256.00     -400.00
00020            -120.00     -320.00
00021            -312.00     -240.00
00022             -32.00     -480.00
00023             344.00     -480.00
00024              -8.00     -480.00
00025            -408.00     -480.00
00026            -152.00     -640.00
00027             312.00     -560.00
00028             104.00     -560.00
00029            -256.00     -720.00
00030              -8.00     -800.00
00031             312.00     -720.00
00032              88.00     -720.00
00033            -168.00     -880.00
00034              56.00     -960.00
00035             192.00     -880.00
00036               0.00     -960.00
00037             -32.00    -1120.00
00038             128.00    -1040.00
00039              72.00     -960.00
00040             -32.00    -1120.00
00041             104.00    -1200.00
00042             184.00    -1120.00
00043              16.00    -1120.00
00044               8.00    -1280.00
00045             184.00    -1280.00
00046             128.00    -1200.00
00047              -8.00    -1360.00
00048              64.00    -1440.00
00049             200.00    -1360.00
00050              96.00    -1360.00
00051              24.00    -1520.00
00052             104.00    -1440.00
00053             168.00    -1440.00
00054              88.00    -1520.00
00055              72.00    -1600.00
00056             136.00    -1520.00
00057             136.00    -1600.00
00058              96.00    -1680.00
00059             128.00    -1680.00
00060             160.00    -1680.00
00061             120.00    -1760.00
00062             120.00    -1760.00
00063             152.00    -1760.00
00064             152.00    -1760.00
00065             128.00    -1840.00
00066             152.00    -1840.00
00067             184.00    -1840.00
00068             152.00    -1840.00
00069             136.00    -1840.00
00070             168.00    -1920.00
00071             184.00    -1920.00
00072             168.00    -1920.00
00073             176.00    -1920.00
00074             184.00    -2000.00
00075             192.00    -2000.00
00076             184.00    -2000.00
00077             184.00    -2000.00
00078             192.00    -2000.00
00079             200.00    -2000.00
00080             200.00    -2080.00
00081             200.00    -2080.00
00082             208.00    -2080.00
00083             216.00    -2000.00
00084             216.00    -2080.00
00085             224.00    -2080.00
00086             224.00    -2080.00
00087             216.00    -2080.00
00088             224.00    -2080.00
00089             248.00    -2080.00
00090             232.00    -2080.00
00091             232.00    -2080.00
00092             248.00    -2080.00
00093             256.00    -2080.00
00094             232.00    -2080.00
00095             256.00    -2160.00
00096             256.00    -2160.00
00097             256.00    -2080.00
00098             256.00    -2160.00
00099             264.00    -2080.00
00100             280.00    -2080.00
00101             264.00    -2080.00
00102             264.00    -2000.00
00103             280.00    -2080.00
00104             264.00    -2080.00
00105             264.00    -2000.00
00106             280.00    -2080.00
00107             288.00    -2000.00
00108             280.00    -2000.00
00109             280.00    -2000.00
00110             280.00    -2000.00
00111             280.00    -2000.00
00112             272.00    -2000.00
00113             280.00    -2000.00
00114             280.00    -2000.00
00115             288.00    -2000.00
00116             288.00    -1920.00
00117             280.00    -1840.00
00118             256.00    -1920.00
00119             248.00    -1840.00
00120             272.00    -1840.00
00121             280.00    -1840.00
00122             280.00    -1840.00
00123             264.00    -1760.00
00124             256.00    -1760.00
00125             248.00    -1760.00
00126             256.00    -1680.00
00127             256.00    -1680.00
00128             256.00    -1680.00
00129             248.00    -1680.00
00130             248.00    -1680.00
00131             232.00    -1600.00
00132             224.00    -1600.00
00133             224.00    -1520.00
00134             232.00    -1440.00
00135             248.00    -1520.00
00136             232.00    -1440.00
00137             208.00    -1440.00
00138             192.00    -1360.00
00139             208.00    -1360.00
00140             216.00    -1360.00
00141             216.00    -1360.00
00142             200.00    -1280.00
00143             192.00    -1280.00
00144             184.00    -1200.00
00145             192.00    -1200.00
00146             192.00    -1120.00
00147             184.00    -1120.00
00148             168.00    -1040.00
00149             160.00    -1040.00
00150             160.00    -1040.00
00151             160.00    -1040.00
00152             152.00     -960.00
00153             160.00     -880.00
00154             152.00     -800.00
00155             136.00     -800.00
00156             152.00     -800.00
00157             128.00     -720.00
00158             128.00     -720.00
00159             128.00     -720.00
00160             120.00     -560.00
00161             128.00     -640.00
00162             104.00     -560.00
00163             104.00     -480.00
00164             104.00     -480.00
00165             104.00     -400.00
00166              96.00     -320.00
00167              96.00     -400.00
00168              88.00     -240.00
00169              88.00     -240.00
00170              88.00     -320.00
00171              88.00     -240.00
00172              72.00     -160.00
00173              64.00      -80.00
00174              64.00      -80.00
00175              64.00      -80.00
00176              64.00        0.00
00177              64.00       80.00
00178              64.00       80.00
00179              64.00       80.00
00180              64.00      160.00
00181              48.00      240.00
00182              56.00      240.00
00183              56.00      240.00
00184             160.00      320.00
00185             288.00      400.00
00186             -64.00      400.00
00187            -240.00      400.00
00188               8.00      400.00
00189             320.00      560.00
00190            -160.00      560.00
00191            -464.00      480.00
00192             -32.00      560.00
00193             392.00      800.00
00194             -56.00      720.00
00195            -376.00      560.00
00196              80.00      800.00
00197             344.00      960.00
00198            -168.00      800.00
00199            -320.00      720.00
00200             152.00      960.00
00201             192.00     1120.00
00202            -264.00      880.00
00203            -200.00     1040.00
00204             168.00     1200.00
00205              24.00     1200.00
00206            -264.00     1040.00
00207             -40.00     1120.00
00208             128.00     1360.00
00209            -152.00     1280.00
00210            -216.00     1200.00
00211              56.00     1360.00
00212               8.00     1440.00
00213            -232.00     1360.00
00214            -128.00     1360.00
00215              48.00     1440.00
00216            -104.00     1520.00
00217            -216.00     1440.00
00218             -56.00     1520.00
00219             -16.00     1680.00
00220            -160.00     1600.00
00221            -152.00     1520.00
00222             -56.00     1680.00
00223            -104.00     1760.00
00224            -168.00     1600.00
00225            -128.00     1680.00
00226             -80.00     1760.00
00227            -136.00     1760.00
00228            -176.00     1760.00
00229            -128.00     1840.00
00230            -120.00     1840.00
00231            -160.00     1840.00
00232            -152.00     1840.00
00233            -128.00     2000.00
00234            -168.00     1840.00
00235            -184.00     1920.00
00236            -152.00     1920.00
00237            -152.00     2000.00
00238            -168.00     1920.00
00239            -184.00     2000.00
00240            -168.00     2080.00
00241            -168.00     2080.00
00242            -192.00     2080.00
00243            -192.00     2080.00
00244            -192.00     2080.00
00245            -192.00     2160.00
00246            -200.00     2160.00
00247            -200.00     2080.00
00248            -200.00     2080.00
00249            -216.00     2160.00
00250            -216.00     2160.00
00251            -200.00     2160.00
00252            -216.00     2240.00
00253            -232.00     2160.00
00254            -232.00     2160.00
00255            -224.00     2160.00
00256            -232.00     2240.00
00257            -256.00     2160.00
00258            -232.00     2240.00
00259            -232.00     2160.00
00260            -256.00     2240.00
00261            -256.00     2160.00
00262            -248.00     2240.00
00263            -256.00     2160.00
00264            -264.00     2240.00
00265            -248.00     2160.00
00266            -256.00     2160.00
00267            -280.00     2240.00
00268            -280.00     2080.00
00269            -256.00     2160.00
00270            -264.00     2160.00
00271            -288.00     2080.00
00272            -264.00     2080.00
00273            -264.00     2160.00
00274            -280.00     2080.00
00275            -280.00     2160.00
00276            -272.00     2080.00
00277            -280.00     2080.00
00278            -280.00     2000.00
00279            -280.00     2000.00
00280            -280.00     2000.00
00281            -288.00     2000.00
00282            -272.00     2000.00
00283            -264.00     2000.00
00284            -280.00     2000.00
00285            -280.00     1920.00
00286            -280.00     2000.00
00287            -264.00     1920.00
00288            -280.00     1840.00
00289            -264.00     1920.00
00290            -264.00     1840.00
00291            -264.00     1840.00
00292            -256.00     1760.00
00293            -256.00     1760.00
00294            -256.00     1760.00
00295            -256.00     1680.00
00296            -256.00     1680.00
00297            -248.00     1680.00
00298            -232.00     1680.00
00299            -248.00     1600.00
00300            -232.00     1520.00
00301            -232.00     1520.00
00302            -224.00     1520.00
00303            -224.00     1520.00
00304            -224.00     1520.00
00305            -216.00     1440.00
00306            -216.00     1440.00
00307            -208.00     1440.00
00308            -200.00     1360.00
00309            -200.00     1360.00
00310            -200.00     1360.00
00311            -192.00     1280.00
00312            -184.00     1200.00
00313            -192.00     1200.00
00314            -192.00     1120.00
00315            -168.00     1120.00
00316            -168.00     1120.00
00317            -176.00     1040.00
00318            -168.00     1040.00
00319            -168.00      880.00
00320            -160.00     1040.00
00321            -160.00      880.00
00322            -152.00      880.00
00323            -136.00      800.00
00324            -136.00      800.00
00325            -128.00      800.00
00326            -112.00      720.00
00327            -128.00      720.00
00328            -136.00      720.00
00329            -128.00      560.00
00330            -112.00      560.00
00331            -104.00      560.00
00332            -104.00      480.00
00333             -96.00      480.00
00334             -88.00      480.00
00335             -96.00      400.00
00336             -88.00      320.00
00337             -96.00      320.00
00338             -72.00      240.00
00339             -64.00      240.00
00340             -64.00      240.00
00341             -64.00      160.00
00342             -56.00      160.00
00343             -48.00       80.00
00344             -40.00       80.00
00345             -32.00      -80.00
00346             -16.00      -80.00
00347              -8.00      -80.00
00348              -8.00      -80.00
00349              -8.00     -160.00
00350              -8.00     -240.00
00351              80.00     -240.00
00352             280.00     -320.00
00353             -40.00     -400.00
00354            -312.00     -240.00
00355            -120.00     -400.00
00356             320.00     -400.00
00357             128.00     -480.00
00358            -384.00     -480.00
00359            -256.00     -640.00
00360             248.00     -640.00
00361             192.00     -560.00
00362            -216.00     -640.00
00363             -96.00     -800.00
00364             296.00     -720.00
00365             160.00     -720.00
00366            -168.00     -880.00
00367             -24.00    -1040.00
00368             200.00     -800.00
00369              40.00     -880.00
00370             -56.00    -1040.00
00371             104.00    -1040.00
00372              96.00    -1040.00
00373             -24.00    -1040.00
00374              64.00    -1200.00
00375             192.00    -1120.00
00376              40.00    -1120.00
00377             -16.00    -1280.00
00378             152.00    -1360.00
00379             160.00    -1200.00
00380               0.00    -1360.00
00381              24.00    -1440.00
00382             184.00    -1280.00
00383             128.00    -1360.00
00384              24.00    -1520.00
00385              88.00    -1520.00
00386             168.00    -1440.00
00387             104.00    -1520.00
00388              64.00    -1680.00
00389             128.00    -1600.00
00390             152.00    -1600.00
00391              96.00    -1680.00
00392             120.00    -1680.00
00393             160.00    -1680.00
00394             128.00    -1760.00
00395             104.00    -1760.00
00396             152.00    -1760.00
00397             160.00    -1760.00
00398             128.00    -1840.00
00399             152.00    -1840.00
00400             184.00    -1840.00
00401             152.00    -1840.00
00402             136.00    -1840.00
00403             168.00    -1840.00
00404             192.00    -1920.00
00405             168.00    -2000.00
00406             168.00    -2000.00
00407             184.00    -2000.00
00408             184.00    -2000.00
00409             184.00    -2000.00
00410             192.00    -2000.00
00411             192.00    -2080.00
00412             200.00    -2000.00
00413             200.00    -2080.00
00414             208.00    -2000.00
00415             208.00    -2080.00
00416             216.00    -2080.00
00417             216.00    -2080.00
00418             224.00    -2160.00
00419             232.00    -2080.00
00420             216.00    -2080.00
00421             224.00    -2160.00
00422             232.00    -2160.00
00423             232.00    -2080.00
00424             232.00    -2080.00
00425             248.00    -2160.00
00426             256.00    -2080.00
00427             248.00    -2080.00
00428             248.00    -2080.00
00429             256.00    -2080.00
00430             256.00    -2080.00
00431             256.00    -2080.00
00432             264.00    -2160.00
00433             280.00    -2080.00
00434             256.00    -2080.00
00435             256.00    -2080.00
00436             272.00    -2080.00
00437             272.00    -2080.00
00438             272.00    -2080.00
00439             280.00    -2160.00
00440             288.00    -2080.00
00441             280.00    -2000.00
00442             264.00    -2000.00
00443             280.00    -2000.00
00444             280.00    -2000.00
00445             280.00    -2000.00
00446             280.00    -2000.00
00447             280.00    -2000.00
00448             264.00    -2000.00
00449             272.00    -1920.00
00450             280.00    -1920.00
00451             280.00    -1920.00
00452             264.00    -1840.00
00453             264.00    -1840.00
00454             272.00    -1840.00
00455             264.00    -1840.00
00456             256.00    -1760.00
00457             264.00    -1760.00
00458             256.00    -1680.00
00459             256.00    -1760.00
00460             256.00    -1760.00
00461             248.00    -1680.00
00462             248.00    -1680.00
00463             248.00    -1680.00
00464             248.00    -1600.00
00465             248.00    -1520.00
00466             232.00    -1520.00
00467             224.00    -1520.00
00468             216.00    -1520.00
00469             216.00    -1440.00
00470             224.00    -1440.00
00471             216.00    -1440.00
00472             216.00    -1360.00
00473             216.00    -1360.00
00474             216.00    -1280.00
00475             200.00    -1360.00
00476             192.00    -1200.00
00477             192.00    -1200.00
00478             192.00    -1200.00
00479             192.00    -1120.00
00480             184.00    -1120.00
00481             168.00    -1120.00
00482             168.00    -1040.00
00483             176.00    -1040.00
00484             168.00     -880.00
00485             168.00     -960.00
00486             152.00     -880.00
00487             152.00     -880.00
00488             136.00     -800.00
00489             152.00     -800.00
00490             136.00     -720.00
00491             136.00     -720.00
00492             128.00     -720.00
00493             120.00     -560.00
00494             120.00     -560.00
00495             120.00     -560.00
00496             120.00     -560.00
00497             120.00     -480.00
00498             104.00     -480.00
00499              96.00     -400.00
00500              88.00     -320.00
00501              88.00     -320.00
00502              88.00     -320.00
00503              88.00     -240.00
00504              72.00     -240.00
00505              64.00     -160.00
00506              64.00     -160.00
00507              64.00      -80.00
00508              64.00      -80.00
00509              64.00        0.00
00510              56.00       80.00
00511              64.00       80.00
00512              64.00       80.00
00513              64.00      160.00
00514              56.00      160.00
00515              56.00      240.00
00516              56.00      240.00
00517             120.00      320.00
00518             296.00      400.00
00519              24.00      400.00
00520            -248.00      400.00
00521             -64.00      400.00
00522             312.00      560.00
00523             -32.00      560.00
00524            -456.00      400.00
00525            -168.00      480.00
00526             384.00      720.00
00527              64.00      720.00
00528            -376.00      560.00
00529             -40.00      720.00
00530             360.00      880.00
00531             -56.00      880.00
00532            -352.00      800.00
00533              56.00      880.00
00534             256.00     1120.00
00535            -184.00      880.00
00536            -256.00      880.00
00537             128.00     1120.00
00538              88.00     1200.00
00539            -248.00     1120.00
00540            -112.00     1120.00
00541             136.00     1280.00
00542             -72.00     1360.00
00543            -232.00     1200.00
00544               0.00     1360.00
00545              56.00     1440.00
00546            -200.00     1360.00
00547            -192.00     1360.00
00548               8.00     1440.00
00549             -64.00     1520.00
00550            -184.00     1440.00
00551             -40.00     1520.00
00552              24.00     1680.00
00553            -120.00     1680.00
00554            -192.00     1520.00
00555            -120.00     1680.00
00556            -128.00     1760.00
00557            -192.00     1600.00
00558            -128.00     1680.00
00559             -40.00     1760.00
00560             -88.00     1760.00
00561            -152.00     1760.00
00562            -144.00     1840.00
00563            -128.00     1840.00
00564            -176.00     1760.00
00565            -168.00     1840.00
00566            -136.00     2000.00
00567            -160.00     1840.00
00568            -184.00     2000.00
00569            -152.00     2000.00
00570            -136.00     2000.00
00571            -176.00     2000.00
00572            -192.00     2000.00
00573            -168.00     2000.00
00574            -168.00     2080.00
00575            -184.00     2000.00
00576            -192.00     2080.00
00577            -200.00     2080.00
00578            -192.00     2080.00
00579            -208.00     2080.00
00580            -200.00     2080.00
00581            -200.00     2080.00
00582            -192.00     2240.00
00583            -200.00     2160.00
00584            -200.00     2160.00
00585            -224.00     2240.00
00586            -248.00     2160.00
00587            -256.00     2160.00
00588            -224.00     2160.00
00589            -232.00     2240.00
00590            -248.00     2240.00
00591            -224.00     2160.00
00592            -232.00     2240.00
00593            -256.00     2240.00
00594            -264.00     2160.00
00595            -256.00     2240.00
00596            -264.00     2160.00
00597            -264.00     2160.00
00598            -248.00     2160.00
00599            -248.00     2240.00
00600            -280.00     2160.00
00601            -264.00     2160.00
00602            -264.00     2160.00
00603            -272.00     2240.00
00604            -280.00     2160.00
00605            -264.00     2080.00
00606            -264.00     2080.00
00607            -280.00     2160.00
00608            -280.00     2080.00
00609            -280.00     2080.00
00610            -288.00     2080.00
00611            -280.00     2080.00
00612            -280.00     2080.00
00613            -280.00     2000.00
00614            -280.00     2000.00
00615            -272.00     2000.00
00616            -264.00     2000.00
00617            -272.00     2000.00
00618            -280.00     1920.00
00619            -272.00     1920.00
00620            -280.00     1840.00
00621            -264.00     1840.00
00622            -264.00     1840.00
00623            -264.00     1840.00
00624            -256.00     1840.00
00625            -256.00     1760.00
00626            -264.00     1760.00
00627            -256.00     1760.00
00628            -256.00     1680.00
00629            -256.00     1680.00
00630            -248.00     1680.00
00631            -232.00     1680.00
00632            -248.00     1600.00
00633            -232.00     1520.00
00634            -224.00     1520.00
00635            -224.00     1520.00
00636            -224.00     1520.00
00637            -224.00     1440.00
00638            -224.00     1440.00
00639            -216.00     1440.00
00640            -208.00     1440.00
00641            -216.00     1360.00
00642            -200.00     1360.00
00643            -200.00     1360.00
00644            -200.00     1280.00
00645            -184.00     1200.00
00646            -192.00     1200.00
00647            -192.00     1200.00
00648            -176.00     1120.00
00649            -168.00     1120.00
00650            -168.00     1040.00
00651            -168.00     1040.00
00652            -168.00      960.00
00653            -160.00      960.00
00654            -160.00      880.00
00655            -160.00      880.00
00656            -136.00      800.00
00657            -128.00      800.00
00658            -128.00      720.00
00659            -120.00      720.00
00660            -128.00      720.00
00661            -136.00      720.00
00662            -120.00      560.00
00663            -104.00      560.00
00664            -104.00      560.00
00665            -104.00      480.00
00666            -104.00      480.00
00667             -96.00      400.00
00668             -96.00      400.00
00669             -88.00      400.00
00670             -80.00      320.00
00671             -72.00      240.00
00672             -72.00      240.00
00673             -72.00      240.00
00674             -72.00      160.00
00675             -56.00       80.00
00676             -40.00       80.00
00677             -40.00        0.00
00678             -24.00        0.00
00679             -24.00      -80.00
00680             -16.00      -80.00
00681             -16.00     -160.00
00682              -8.00     -160.00
00683               0.00     -160.00
00684              56.00     -240.00
00685             256.00     -320.00
00686              64.00     -400.00
00687            -296.00     -240.00
00688            -192.00     -400.00
00689             256.00     -480.00
00690             224.00     -480.00
00691            -320.00     -480.00
00692            -320.00     -560.00
00693             168.00     -720.00
00694             256.00     -560.00
00695            -160.00     -720.00
00696            -168.00     -880.00
00697             248.00     -800.00
00698             224.00     -720.00
00699            -128.00     -880.00
00700             -72.00     -960.00
00701             192.00     -880.00
00702              88.00     -880.00
00703             -64.00    -1040.00
00704              72.00    -1120.00
00705             120.00    -1040.00
00706             -16.00    -1040.00
00707              32.00    -1200.00
00708             184.00    -1200.00
00709              80.00    -1120.00
00710             -32.00    -1200.00
00711             120.00    -1360.00
00712             192.00    -1200.00
00713              32.00    -1280.00
00714               0.00    -1360.00
00715             160.00    -1360.00
00716             160.00    -1360.00
00717              32.00    -1440.00
00718              56.00    -1520.00
00719             168.00    -1440.00
00720             128.00    -1520.00
00721              64.00    -1600.00
00722             112.00    -1520.00
00723             152.00    -1520.00
00724             104.00    -1680.00
00725             112.00    -1760.00
00726             152.00    -1680.00
00727             136.00    -1760.00
00728              96.00    -1760.00
00729             136.00    -1760.00
00730             160.00    -1760.00
00731             128.00    -1840.00
00732             144.00    -1840.00
00733             168.00    -1840.00
00734             160.00    -1840.00
00735             128.00    -1840.00
00736             160.00    -1920.00
00737             192.00    -2000.00
00738             168.00    -1920.00
00739             168.00    -1920.00
00740             184.00    -2000.00
00741             184.00    -2000.00
00742             184.00    -2000.00
00743             184.00    -2000.00
00744             192.00    -2080.00
00745             200.00    -2000.00
00746             208.00    -2000.00
00747             200.00    -2080.00
00748             200.00    -2080.00
00749             208.00    -2080.00
00750             216.00    -2080.00
00751             224.00    -2080.00
00752             224.00    -2080.00
00753             216.00    -2080.00
00754             224.00    -2080.00
00755             232.00    -2080.00
00756             232.00    -2080.00
00757             224.00    -2080.00
00758             232.00    -2080.00
00759             248.00    -2080.00
00760             248.00    -2080.00
00761             240.00    -2080.00
00762             256.00    -2160.00
00763             256.00    -2000.00
00764             248.00    -2080.00
00765             264.00    -2080.00
00766             272.00    -2080.00
00767             256.00    -2080.00
00768             256.00    -2160.00
00769             264.00    -2080.00
00770             280.00    -2000.00
00771             264.00    -2080.00
00772             272.00    -2080.00
00773             280.00    -2000.00
00774             280.00    -2080.00
00775             264.00    -2000.00
00776             272.00    -2000.00
00777             280.00    -2080.00
00778             280.00    -2000.00
00779             280.00    -2000.00
00780             280.00    -1920.00
00781             280.00    -1920.00
00782             264.00    -2000.00
00783             280.00    -1840.00
00784             280.00    -1840.00
00785             264.00    -1840.00
00786             264.00    -1840.00
00787             272.00    -1840.00
00788             256.00    -1840.00
00789             256.00    -1840.00
00790             264.00    -1760.00
00791             256.00    -1760.00
00792             256.00    -1760.00
00793             256.00    -1760.00
00794             256.00    -1760.00
00795             248.00    -1680.00
00796             248.00    -1680.00
00797             248.00    -1600.00
00798             248.00    -1520.00
00799             232.00    -1520.00
00800             232.00    -1520.00
00801             224.00    -1520.00
00802             224.00    -1440.00
00803             224.00    -1440.00
00804             216.00    -1440.00
00805             216.00    -1360.00
00806             216.00    -1360.00
00807             216.00    -1360.00
00808             200.00    -1280.00
00809             192.00    -1280.00
00810             192.00    -1200.00
00811             192.00    -1200.00
00812             184.00    -1120.00
00813             184.00    -1120.00
00814             168.00    -1120.00
00815             168.00    -1120.00
00816             168.00    -1040.00
00817             160.00    -1040.00
00818             160.00     -960.00
00819             152.00     -880.00
00820             152.00     -880.00
00821             152.00     -880.00
00822             136.00     -800.00
00823             136.00     -800.00
00824             136.00     -720.00
00825             128.00     -720.00
00826             128.00     -560.00
00827             120.00     -720.00
00828             120.00     -560.00
00829             104.00     -560.00
00830             104.00     -400.00
00831             104.00     -400.00
00832              96.00     -320.00
00833              88.00     -400.00
00834              88.00     -320.00
00835              88.00     -320.00
00836              88.00     -320.00
00837              72.00     -240.00
00838              64.00     -160.00
00839              64.00     -160.00
00840              64.00     -160.00
00841              64.00      -80.00
00842              64.00        0.00
00843              64.00       80.00
00844              64.00       80.00
00845              72.00       80.00
00846              64.00      160.00
00847              56.00      160.00
00848              56.00      240.00
00849              48.00      240.00
00850              96.00      240.00
00851             264.00      400.00
00852             120.00      400.00
00853            -232.00      400.00
00854            -128.00      400.00
00855             264.00      560.00
00856              88.00      640.00
00857            -424.00      480.00
00858            -288.00      560.00
00859             320.00      720.00
00860             184.00      800.00
00861            -352.00      560.00
00862            -152.00      720.00
00863             352.00      880.00
00864              64.00      880.00
00865            -352.00      800.00
00866             -56.00      880.00
00867             280.00     1040.00
00868             -96.00     1040.00
00869            -296.00      960.00
00870              56.00     1040.00
00871             152.00     1200.00
00872            -192.00     1120.00
00873            -168.00     1120.00
00874             120.00     1280.00
00875              -8.00     1360.00
00876            -248.00     1200.00
00877             -56.00     1200.00
00878              88.00     1440.00
00879            -160.00     1360.00
00880            -200.00     1360.00
00881              24.00     1440.00
00882             -24.00     1520.00
00883            -200.00     1440.00
00884            -128.00     1440.00
00885              -8.00     1680.00
00886            -120.00     1600.00
00887            -184.00     1440.00
00888             -96.00     1680.00
00889             -64.00     1760.00
00890            -152.00     1680.00
00891            -160.00     1680.00
00892             -88.00     1760.00
00893            -104.00     1760.00
00894            -160.00     1680.00
00895            -152.00     1840.00
00896            -120.00     1840.00
00897            -152.00     1840.00
00898            -168.00     1840.00
00899            -136.00     1840.00
00900            -152.00     1920.00
00901            -184.00     1920.00
00902            -168.00     2000.00
00903            -152.00     2000.00
00904            -176.00     2000.00
00905            -192.00     2000.00
00906            -168.00     2000.00
00907            -168.00     2080.00
00908            -192.00     2080.00
00909            -192.00     2000.00
00910            -200.00     2000.00
00911            -192.00     2080.00
00912            -192.00     2080.00
00913            -200.00     2240.00
00914            -200.00     2080.00
00915            -216.00     2080.00
00916            -216.00     2160.00
00917            -216.00     2080.00
00918            -200.00     2240.00
00919            -232.00     2160.00
00920            -232.00     2160.00
00921            -216.00     2240.00
00922            -224.00     2240.00
00923            -248.00     2160.00
00924            -248.00     2160.00
00925            -224.00     2160.00
00926            -248.00     2240.00
00927            -256.00     2160.00
00928            -248.00     2240.00
00929            -256.00     2160.00
00930            -264.00     2160.00
00931            -256.00     2160.00
00932            -256.00     2240.00
00933            -264.00     2080.00
00934            -280.00     2240.00
00935            -256.00     2160.00
00936            -264.00     2160.00
00937            -280.00     2160.00
00938            -272.00     2240.00
00939            -264.00     2080.00
00940            -280.00     2080.00
00941            -280.00     2160.00
00942            -264.00     2080.00
00943            -280.00     2000.00
00944            -280.00     2080.00
00945            -264.00     2000.00
00946            -264.00     2000.00
00947            -288.00     2000.00
00948            -280.00     2000.00
00949            -280.00     2000.00
00950            -280.00     2000.00
00951            -280.00     2000.00
00952            -264.00     2000.00
00953            -264.00     1840.00
00954            -280.00     1840.00
00955            -264.00     1840.00
00956            -264.00     1840.00
00957            -264.00     1840.00
00958            -256.00     1760.00
00959            -256.00     1760.00
00960            -248.00     1760.00
00961            -256.00     1680.00
00962            -256.00     1760.00
00963            -248.00     1680.00
00964            -248.00     1600.00
00965            -248.00     1680.00
00966            -240.00     1600.00
00967            -240.00     1520.00
00968            -232.00     1520.00
00969            -232.00     1520.00
00970            -224.00     1520.00
00971            -224.00     1440.00
00972            -216.00     1440.00
00973            -216.00     1360.00
00974            -216.00     1360.00
00975            -200.00     1360.00
00976            -200.00     1280.00
00977            -192.00     1200.00
00978            -192.00     1200.00
00979            -184.00     1200.00
00980            -192.00     1200.00
00981            -176.00     1200.00
00982            -168.00     1120.00
00983            -168.00     1040.00
00984            -184.00     1040.00
00985            -168.00      960.00
00986            -160.00      960.00
00987            -160.00      880.00
00988            -152.00      880.00
00989            -152.00      880.00
00990            -136.00      880.00
00991            -128.00      720.00
00992            -104.00      720.00
00993            -120.00      720.00
00994            -136.00      640.00
00995            -128.00      560.00
00996            -120.00      560.00
00997            -104.00      480.00
00998            -104.00      480.00
00999             -96.00      480.00
01000             -96.00      400.00
01001             -96.00      400.00
01002             -88.00      400.00
01003             -72.00      320.00
01004             -72.00      240.00
01005             -72.00      240.00
01006             -72.00      240.00
01007             -64.00      160.00
01008             -56.00       80.00
01009             -40.00       80.00
01010             -40.00       80.00
01011             -32.00        0.00
01012             -24.00      -80.00
01013              -8.00      -80.00
01014              -8.00      -80.00
01015               0.00     -160.00
01016              -8.00     -160.00
01017              24.00     -240.00
01018             224.00     -240.00
01019             152.00     -400.00
01020            -264.00     -320.00
01021            -248.00     -400.00
01022             160.00     -480.00
01023             312.00     -480.00
01024            -240.00     -480.00
01025            -384.00     -560.00
01026              64.00     -720.00
01027             304.00     -560.00
01028             -88.00     -640.00
01029            -224.00     -800.00
01030             168.00     -800.00
01031             280.00     -720.00
01032             -72.00     -880.00
01033            -128.00    -1040.00
01034             160.00     -880.00
01035             128.00     -880.00
01036             -56.00    -1040.00
01037              32.00    -1120.00
01038             136.00    -1040.00
01039               8.00    -1040.00
01040               8.00    -1200.00
01041             168.00    -1200.00
01042             120.00    -1120.00
01043             -32.00    -1200.00
01044              72.00    -1280.00
01045             192.00    -1200.00
01046              56.00    -1280.00
01047             -24.00    -1440.00
01048             128.00    -1440.00
01049             184.00    -1280.00
01050              40.00    -1440.00
01051              40.00    -1520.00
01052             152.00    -1440.00
01053             152.00    -1440.00
01054              72.00    -1680.00
01055             104.00    -1520.00
01056             152.00    -1520.00
01057             112.00    -1680.00
01058              96.00    -1760.00
01059             152.00    -1680.00
01060             152.00    -1760.00
01061             104.00    -1760.00
01062             128.00    -1760.00
01063             168.00    -1760.00
01064             128.00    -1840.00
01065             128.00    -1840.00
01066             184.00    -1840.00
01067             176.00    -1840.00
01068             136.00    -1840.00
01069             160.00    -1920.00
01070             184.00    -1920.00
01071             168.00    -1920.00
01072             168.00    -2000.00
01073             184.00    -1920.00
01074             192.00    -2000.00
01075             184.00    -2000.00
01076             184.00    -2000.00
01077             192.00    -2000.00
01078             208.00    -2000.00
01079             216.00    -2080.00
01080             216.00    -2080.00
01081             192.00    -2080.00
01082             192.00    -2080.00
01083             184.00    -2080.00
01084             200.00    -2080.00
01085             240.00    -2080.00
01086             248.00    -2080.00
01087             248.00    -2080.00
01088             248.00    -2080.00
01089             232.00    -2080.00
01090             216.00    -2160.00
01091             216.00    -2080.00
01092             248.00    -2160.00
01093             256.00    -2080.00
01094             256.00    -2160.00
01095             256.00    -2080.00
01096             256.00    -2080.00
01097             248.00    -2160.00
01098             232.00    -2080.00
01099             240.00    -2080.00
01100             256.00    -2080.00
01101             264.00    -2080.00
01102             296.00    -2080.00
01103             312.00    -2080.00
01104             288.00    -2080.00
01105             256.00    -2000.00
01106             248.00    -2000.00
01107             232.00    -2080.00
01108             248.00    -2000.00
01109             280.00    -2000.00
01110             312.00    -2000.00
01111             312.00    -2000.00
01112             312.00    -2000.00
01113             288.00    -1920.00
01114             256.00    -2000.00
01115             248.00    -2000.00
01116             256.00    -1920.00
01117             280.00    -1840.00
01118             280.00    -1840.00
01119             280.00    -1920.00
01120             280.00    -1840.00
01121             256.00    -1840.00
01122             256.00    -1760.00
01123             256.00    -1760.00
01124             256.00    -1760.00
01125             280.00    -1760.00
01126             264.00    -1680.00
01127             256.00    -1680.00
01128             248.00    -1680.00
01129             232.00    -1680.00
01130             232.00    -1680.00
01131             240.00    -1520.00
01132             248.00    -1520.00
01133             248.00    -1520.00
01134             248.00    -1440.00
01135             240.00    -1440.00
01136             224.00    -1440.00
01137             216.00    -1360.00
01138             200.00    -1440.00
01139             200.00    -1360.00
01140             200.00    -1360.00
01141             216.00    -1280.00
01142             216.00    -1200.00
01143             216.00    -1200.00
01144             200.00    -1200.00
01145             184.00    -1120.00
01146             176.00    -1200.00
01147             160.00    -1120.00
01148             160.00    -1040.00
01149             176.00    -1040.00
01150             168.00    -1040.00
01151             168.00     -960.00
01152             160.00     -880.00
01153             152.00     -880.00
01154             136.00     -880.00
01155             128.00     -800.00
01156             136.00     -800.00
01157             128.00     -800.00
01158             136.00     -720.00
01159             128.00     -640.00
01160             128.00     -560.00
01161             104.00     -560.00
01162             104.00     -560.00
01163             104.00     -560.00
01164             104.00     -480.00
01165              96.00     -320.00
01166              96.00     -400.00
01167              88.00     -320.00
01168              88.00     -320.00
01169              88.00     -240.00
01170              64.00     -240.00
01171              64.00     -240.00
01172              56.00     -160.00
01173              64.00      -80.00
01174              64.00      -80.00
01175              72.00      -80.00
01176              64.00        0.00
01177              64.00       80.00
01178              64.00      160.00
01179              56.00      160.00
01180              64.00      160.00
01181              56.00      160.00
01182              56.00      240.00
01183              72.00      320.00
01184             248.00      400.00
01185             200.00      400.00
01186            -200.00      400.00
01187            -184.00      400.00
01188             192.00      480.00
01189             192.00      560.00
01190            -360.00      480.00
01191            -368.00      480.00
01192             232.00      560.00
01193             288.00      800.00
01194            -280.00      640.00
01195            -256.00      640.00
01196             296.00      880.00
01197             184.00      880.00
01198            -320.00      800.00
01199            -152.00      800.00
01200             280.00     1040.00
01201               0.00     1040.00
01202            -312.00      880.00
01203             -32.00     1040.00
01204             192.00     1200.00
01205            -136.00     1120.00
01206            -216.00     1040.00
01207              88.00     1200.00
01208              40.00     1360.00
01209            -240.00     1200.00
01210            -120.00     1200.00
01211              88.00     1440.00
01212            -104.00     1440.00
01213            -232.00     1360.00
01214             -16.00     1360.00
01215               0.00     1520.00
01216            -184.00     1440.00
01217            -160.00     1440.00
01218              -8.00     1680.00
01219             -88.00     1680.00
01220            -184.00     1520.00
01221            -104.00     1600.00
01222             -56.00     1760.00
01223            -136.00     1680.00
01224            -160.00     1680.00
01225             -96.00     1680.00
01226             -96.00     1760.00
01227            -168.00     1760.00
01228            -168.00     1760.00
01229            -120.00     1840.00
01230            -136.00     1840.00
01231            -160.00     1840.00
01232            -136.00     2000.00
01233            -136.00     1920.00
01234            -184.00     1840.00
01235            -168.00     1920.00
01236            -152.00     2000.00
01237            -168.00     1920.00
01238            -192.00     2000.00
01239            -168.00     2000.00
01240            -168.00     2080.00
01241            -192.00     2080.00
01242            -192.00     2080.00
01243            -200.00     2080.00
01244            -192.00     2080.00
01245            -192.00     2160.00
01246            -200.00     2080.00
01247            -200.00     2080.00
01248            -208.00     2080.00
01249            -216.00     2080.00
01250            -216.00     2080.00
01251            -200.00     2160.00
01252            -232.00     2240.00
01253            -232.00     2160.00
01254            -216.00     2240.00
01255            -216.00     2160.00
01256            -248.00     2240.00
01257            -248.00     2160.00
01258            -224.00     2160.00
01259            -240.00     2160.00
01260            -256.00     2160.00
01261            -248.00     2160.00
01262            -248.00     2240.00
01263            -256.00     2160.00
01264            -256.00     2160.00
01265            -256.00     2160.00
01266            -264.00     2160.00
01267            -280.00     2160.00
01268            -256.00     2160.00
01269            -256.00     2240.00
01270            -280.00     2160.00
01271            -280.00     2240.00
01272            -264.00     2160.00
01273            -272.00     2080.00
01274            -288.00     2080.00
01275            -280.00     2160.00
01276            -264.00     2080.00
01277            -280.00     2080.00
01278            -280.00     2080.00
01279            -264.00     2000.00
01280            -280.00     2000.00
01281            -288.00     2000.00
01282            -264.00     1920.00
01283            -264.00     2000.00
01284            -280.00     1920.00
01285            -280.00     1920.00
01286            -264.00     1840.00
01287            -264.00     1920.00
01288            -280.00     1840.00
01289            -280.00     1840.00
01290            -264.00     1840.00
01291            -264.00     1760.00
01292            -256.00     1760.00
01293            -256.00     1760.00
01294            -256.00     1760.00
01295            -256.00     1680.00
01296            -248.00     1680.00
01297            -248.00     1680.00
01298            -248.00     1600.00
01299            -248.00     1600.00
01300            -240.00     1520.00
01301            -232.00     1520.00
01302            -224.00     1520.00
01303            -232.00     1520.00
01304            -224.00     1440.00
01305            -216.00     1440.00
01306            -216.00     1440.00
01307            -216.00     1360.00
01308            -216.00     1360.00
01309            -200.00     1360.00
01310            -200.00     1280.00
01311            -192.00     1200.00
01312            -184.00     1200.00
01313            -192.00     1200.00
01314            -184.00     1120.00
01315            -168.00     1040.00
01316            -168.00     1120.00
01317            -168.00     1040.00
01318            -160.00      960.00
01319            -160.00      960.00
01320            -160.00      880.00
01321            -152.00      880.00
01322            -152.00      880.00
01323            -136.00      800.00
01324            -136.00      800.00
01325            -120.00      720.00
01326            -120.00      720.00
01327            -128.00      640.00
01328            -128.00      560.00
01329            -112.00      560.00
01330            -104.00      560.00
01331            -120.00      480.00
01332            -104.00      400.00
01333             -96.00      480.00
01334             -88.00      400.00
01335             -88.00      400.00
01336             -88.00      320.00
01337             -72.00      240.00
01338             -72.00      240.00
01339             -88.00      160.00
01340             -64.00      160.00
01341             -56.00       80.00
01342             -56.00       80.00
01343             -40.00       80.00
01344             -40.00       80.00
01345              -8.00        0.00
01346              -8.00     -160.00
01347             -24.00      -80.00
01348              -8.00     -160.00
01349              -8.00     -240.00
01350               0.00     -160.00
01351             184.00     -240.00
01352             216.00     -400.00
01353            -216.00     -240.00
01354            -288.00     -320.00
01355              64.00     -480.00
01356             344.00     -480.00
01357            -136.00     -480.00
01358            -416.00     -480.00
01359             -40.00     -720.00
01360             320.00     -560.00
01361              -8.00     -560.00
01362            -256.00     -720.00
01363              88.00     -800.00
01364             312.00     -800.00
01365              -8.00     -720.00
01366            -168.00     -960.00
01367             104.00     -880.00
01368             160.00     -880.00
01369             -32.00     -960.00
01370              -8.00    -1120.00
01371             128.00    -1040.00
01372              40.00     -960.00
01373             -24.00    -1200.00
01374             136.00    -1200.00
01375             152.00    -1120.00
01376              -8.00    -1200.00
01377              32.00    -1360.00
01378             192.00    -1200.00
01379              96.00    -1200.00
01380             -24.00    -1360.00
01381              96.00    -1440.00
01382             184.00    -1360.00
01383              72.00    -1360.00
01384              24.00    -1520.00
01385             136.00    -1440.00
01386             160.00    -1360.00
01387              88.00    -1520.00
01388              88.00    -1680.00
01389             152.00    -1520.00
01390             128.00    -1680.00
01391              96.00    -1680.00
01392             136.00    -1680.00
01393             160.00    -1680.00
01394             120.00    -1760.00
01395             128.00    -1760.00
01396             160.00    -1760.00
01397             144.00    -1760.00
01398             128.00    -1840.00
01399             168.00    -1840.00
01400             184.00    -1840.00
01401             136.00    -1840.00
01402             152.00    -1840.00
01403             184.00    -1920.00
01404             184.00    -1920.00
01405             168.00    -2000.00
01406             184.00    -2000.00
01407             184.00    -2000.00
01408             184.00    -2000.00
01409             184.00    -2000.00
01410             192.00    -2000.00
01411             192.00    -2000.00
01412             200.00    -2000.00
01413             200.00    -2080.00
01414             200.00    -2080.00
01415             208.00    -2080.00
01416             216.00    -2000.00
01417             216.00    -2080.00
01418             224.00    -2080.00
01419             216.00    -2080.00
01420             216.00    -2080.00
01421             216.00    -2080.00
01422             232.00    -2080.00
01423             232.00    -2080.00
01424             224.00    -2080.00
01425             248.00    -2080.00
01426             248.00    -2080.00
01427             248.00    -2080.00
01428             248.00    -2080.00
01429             256.00    -2080.00
01430             248.00    -2080.00
01431             256.00    -2160.00
01432             264.00    -2080.00
01433             264.00    -2080.00
01434             256.00    -2080.00
01435             256.00    -2080.00
01436             280.00    -2080.00
01437             272.00    -2080.00
01438             264.00    -2080.00
01439             280.00    -2080.00
01440             280.00    -2000.00
01441             264.00    -2080.00
01442             280.00    -2000.00
01443             280.00    -2000.00
01444             280.00    -2000.00
01445             280.00    -2000.00
01446             280.00    -2000.00
01447             280.00    -1920.00
01448             264.00    -1840.00
01449             280.00    -1840.00
01450             280.00    -1840.00
01451             264.00    -1920.00
01452             264.00    -1840.00
01453             264.00    -1840.00
01454             264.00    -1840.00
01455             264.00    -1760.00
01456             256.00    -1760.00
01457             264.00    -1760.00
01458             256.00    -1760.00
01459             256.00    -1680.00
01460             256.00    -1680.00
01461             248.00    -1680.00
01462             248.00    -1680.00
01463             256.00    -1520.00
01464             248.00    -1520.00
01465             248.00    -1520.00
01466             248.00    -1520.00
01467             224.00    -1520.00
01468             224.00    -1440.00
01469             224.00    -1440.00
01470             216.00    -1440.00
01471             216.00    -1360.00
01472             216.00    -1360.00
01473             216.00    -1360.00
01474             200.00    -1360.00
01475             200.00    -1280.00
01476             192.00    -1200.00
01477             192.00    -1200.00
01478             192.00    -1120.00
01479             192.00    -1120.00
01480             168.00    -1120.00
01481             168.00    -1040.00
01482             168.00    -1040.00
01483             168.00    -1040.00
01484             152.00     -960.00
01485             152.00     -960.00
01486             152.00     -880.00
01487             152.00     -880.00
01488             136.00     -880.00
01489             136.00     -800.00
01490             128.00     -800.00
01491             128.00     -720.00
01492             128.00     -720.00
01493             128.00     -720.00
01494             120.00     -560.00
01495             104.00     -560.00
01496             104.00     -560.00
01497             104.00     -480.00
01498             104.00     -480.00
01499              88.00     -320.00
01500              96.00     -320.00
01501              88.00     -320.00
01502              88.00     -240.00
01503              72.00     -160.00
01504              72.00     -160.00
01505              64.00      -80.00
01506              72.00      -80.00
01507              72.00      -80.00
01508              56.00      -80.00
01509              56.00        0.00
01510              64.00       80.00
01511              72.00       80.00
01512              64.00      160.00
01513              64.00       80.00
01514              56.00      160.00
01515              56.00      160.00
01516              64.00      240.00
01517             216.00      400.00
01518             256.00      400.00
01519            -152.00      320.00
01520            -216.00      400.00
01521             120.00      400.00
01522             280.00      720.00
01523            -280.00      480.00
01524            -424.00      480.00
01525             112.00      560.00
01526             360.00      800.00
01527            -192.00      720.00
01528            -320.00      560.00
01529             216.00      800.00
01530             264.00      960.00
01531            -264.00      880.00
01532            -240.00      800.00
01533             232.00     1040.00
01534              96.00     1040.00
01535            -296.00      880.00
01536            -120.00     1040.00
01537             200.00     1200.00
01538             -72.00     1200.00
01539            -256.00     1040.00
01540              32.00     1200.00
01541              88.00     1360.00
01542            -200.00     1200.00
01543            -168.00     1200.00
01544              88.00     1360.00
01545             -40.00     1440.00
01546            -240.00     1360.00
01547             -64.00     1360.00
01548              32.00     1520.00
01549            -152.00     1520.00
01550            -192.00     1440.00
01551             -32.00     1600.00
01552             -56.00     1680.00
01553            -184.00     1520.00
01554            -136.00     1520.00
01555             -56.00     1680.00
01556            -128.00     1680.00
01557            -168.00     1680.00
01558            -120.00     1760.00
01559             -88.00     1840.00
01560            -160.00     1760.00
01561            -168.00     1840.00
01562            -120.00     1840.00
01563            -136.00     1840.00
01564            -168.00     1840.00
01565            -152.00     1840.00
01566            -136.00     1840.00
01567            -184.00     1840.00
01568            -192.00     1920.00
01569            -152.00     2000.00
01570            -160.00     2000.00
01571            -192.00     2000.00
01572            -168.00     2000.00
01573            -176.00     2080.00
01574            -184.00     2000.00
01575            -192.00     2080.00
01576            -192.00     2080.00
01577            -192.00     2080.00
01578            -192.00     2080.00
01579            -200.00     2160.00
01580            -200.00     2080.00
01581            -200.00     2080.00
01582            -216.00     2160.00
01583            -224.00     2160.00
01584            -208.00     2160.00
01585            -224.00     2160.00
01586            -232.00     2240.00
01587            -224.00     2160.00
01588            -216.00     2160.00
01589            -248.00     2240.00
01590            -248.00     2080.00
01591            -232.00     2160.00
01592            -232.00     2240.00
01593            -256.00     2160.00
01594            -248.00     2240.00
01595            -248.00     2240.00
01596            -256.00     2160.00
01597            -256.00     2240.00
01598            -248.00     2160.00
01599            -264.00     2240.00
01600            -272.00     2160.00
01601            -264.00     2160.00
01602            -256.00     2240.00
01603            -280.00     2080.00
01604            -280.00     2080.00
01605            -264.00     2160.00
01606            -264.00     2160.00
01607            -280.00     2080.00
01608            -280.00     2080.00
01609            -264.00     2080.00
01610            -280.00     2080.00
01611            -280.00     2080.00
01612            -264.00     2080.00
01613            -280.00     2080.00
01614            -288.00     2000.00
01615            -280.00     2000.00
01616            -280.00     2000.00
01617            -280.00     2000.00
01618            -280.00     2000.00
01619            -280.00     1840.00
01620            -264.00     1840.00
01621            -280.00     1840.00
01622            -264.00     1840.00
01623            -264.00     1840.00
01624            -264.00     1760.00
01625            -256.00     1760.00
01626            -256.00     1760.00
01627            -264.00     1760.00
01628            -256.00     1680.00
01629            -256.00     1680.00
01630            -248.00     1680.00
01631            -248.00     1680.00
01632            -248.00     1600.00
01633            -232.00     1600.00
01634            -232.00     1520.00
01635            -224.00     1520.00
01636            -232.00     1520.00
01637            -224.00     1440.00
01638            -224.00     1440.00
01639            -216.00     1440.00
01640            -208.00     1360.00
01641            -216.00     1360.00
01642            -208.00     1360.00
01643            -192.00     1360.00
01644            -192.00     1200.00
01645            -184.00     1200.00
01646            -192.00     1200.00
01647            -176.00     1120.00
01648            -168.00     1120.00
01649            -160.00     1120.00
01650            -168.00     1040.00
01651            -168.00      960.00
01652            -160.00     1040.00
01653            -160.00      880.00
01654            -152.00      880.00
01655            -144.00      800.00
01656            -128.00      800.00
01657            -128.00      800.00
01658            -120.00      720.00
01659            -120.00      720.00
01660            -128.00      720.00
01661            -128.00      560.00
01662            -112.00      640.00
01663            -104.00      560.00
01664            -104.00      560.00
01665            -104.00      480.00
01666             -96.00      400.00
01667             -88.00      400.00
01668             -88.00      320.00
01669             -88.00      240.00
01670             -80.00      320.00
01671             -72.00      240.00
01672             -72.00      240.00
01673             -64.00       80.00
01674             -64.00       80.00
01675             -40.00      160.00
01676             -40.00       80.00
01677             -32.00       80.00
01678             -24.00      -80.00
01679              -8.00     -160.00
01680             -16.00      -80.00
01681              -8.00     -160.00
01682              -8.00     -160.00
01683               0.00     -240.00
01684             128.00     -240.00
01685             256.00     -400.00
01686            -136.00     -320.00
01687            -312.00     -240.00
01688              -8.00     -480.00
01689             352.00     -480.00
01690             -24.00     -560.00
01691            -416.00     -480.00
01692            -144.00     -640.00
01693             312.00     -560.00
01694              88.00     -560.00
01695            -256.00     -720.00
01696               0.00     -800.00
01697             312.00     -720.00
01698              72.00     -720.00
01699            -176.00     -880.00
01700              64.00     -880.00
01701             192.00     -800.00
01702               0.00     -960.00
01703             -32.00    -1120.00
01704             136.00    -1040.00
01705              64.00    -1040.00
01706             -32.00    -1120.00
01707             112.00    -1200.00
01708             184.00    -1120.00
01709               0.00    -1200.00
01710               0.00    -1360.00
01711             184.00    -1280.00
01712             128.00    -1200.00
01713             -16.00    -1360.00
01714              64.00    -1440.00
01715             192.00    -1360.00
01716              96.00    -1360.00
01717              24.00    -1520.00
01718             120.00    -1520.00
01719             168.00    -1440.00
01720              88.00    -1520.00
01721              88.00    -1600.00
01722             144.00    -1600.00
01723             128.00    -1520.00
01724              96.00    -1680.00
01725             128.00    -1680.00
01726             160.00    -1680.00
01727             128.00    -1680.00
01728             120.00    -1760.00
01729             152.00    -1760.00
01730             152.00    -1760.00
01731             128.00    -1840.00
01732             160.00    -1840.00
01733             184.00    -1840.00
01734             152.00    -1840.00
01735             152.00    -1920.00
01736             184.00    -1840.00
01737             184.00    -1840.00
01738             168.00    -2000.00
01739             184.00    -2000.00
01740             184.00    -1920.00
01741             184.00    -2000.00
01742             192.00    -2000.00
01743             192.00    -2000.00
01744             192.00    -2080.00
01745             192.00    -2000.00
01746             200.00    -2080.00
01747             200.00    -2080.00
01748             200.00    -2080.00
01749             208.00    -2080.00
01750             216.00    -2000.00
01751             224.00    -2080.00
01752             224.00    -2080.00
01753             216.00    -2080.00
01754             224.00    -2160.00
01755             232.00    -2080.00
01756             232.00    -2080.00
01757             232.00    -2160.00
01758             240.00    -2080.00
01759             256.00    -2080.00
01760             240.00    -2080.00
01761             240.00    -2160.00
01762             256.00    -2160.00
01763             256.00    -2080.00
01764             248.00    -2160.00
01765             264.00    -2080.00
01766             264.00    -2080.00
01767             256.00    -2080.00
01768             256.00    -2080.00
01769             280.00    -2080.00
01770             280.00    -2000.00
01771             264.00    -2080.00
01772             280.00    -2080.00
01773             280.00    -2080.00
01774             280.00    -2080.00
01775             280.00    -2000.00
01776             280.00    -2000.00
01777             288.00    -2000.00
01778             280.00    -2000.00
01779             280.00    -2000.00
01780             280.00    -1920.00
01781             280.00    -1920.00
01782             280.00    -1920.00
01783             280.00    -1840.00
01784             280.00    -1920.00
01785             272.00    -1840.00
01786             272.00    -1840.00
01787             264.00    -1840.00
01788             264.00    -1760.00
01789             256.00    -1760.00
01790             264.00    -1760.00
01791             256.00    -1680.00
01792             256.00    -1760.00
01793             256.00    -1760.00
01794             248.00    -1680.00
01795             248.00    -1680.00
01796             248.00    -1600.00
01797             248.00    -1520.00
01798             248.00    -1520.00
01799             240.00    -1520.00
01800             224.00    -1440.00
01801             224.00    -1520.00
01802             224.00    -1440.00
01803             224.00    -1360.00
01804             216.00    -1360.00
01805             216.00    -1360.00
01806             216.00    -1360.00
01807             216.00    -1360.00
01808             192.00    -1280.00
01809             192.00    -1200.00
01810             192.00    -1200.00
01811             192.00    -1200.00
01812             192.00    -1120.00
01813             184.00    -1120.00
01814             168.00    -1120.00
01815             168.00    -1040.00
01816             160.00    -1040.00
01817             160.00    -1040.00
01818             152.00     -960.00
01819             152.00     -880.00
01820             152.00     -880.00
01821             136.00     -800.00
01822             136.00     -800.00
01823             128.00     -720.00
01824             128.00     -720.00
01825             128.00     -720.00
01826             120.00     -560.00
01827             120.00     -560.00
01828             104.00     -560.00
01829             104.00     -560.00
01830             104.00     -480.00
01831             104.00     -480.00
01832              88.00     -400.00
01833              88.00     -320.00
01834              88.00     -320.00
01835              88.00     -240.00
01836              72.00     -240.00
01837              72.00     -160.00
01838              64.00     -160.00
01839              64.00     -160.00
01840              64.00      -80.00
01841              64.00      -80.00
01842              64.00        0.00
01843              64.00       80.00
01844              64.00       80.00
01845              64.00      160.00
01846              64.00      160.00
01847              56.00      240.00
01848              56.00      160.00
01849              56.00      240.00
01850             160.00      320.00
01851             288.00      400.00
01852             -72.00      400.00
01853            -232.00      400.00
01854              32.00      400.00
01855             312.00      560.00
01856            -168.00      560.00
01857            -456.00      480.00
01858              -8.00      560.00
01859             392.00      800.00
01860             -72.00      720.00
01861            -360.00      560.00
01862              96.00      800.00
01863             328.00      880.00
01864            -192.00      800.00
01865            -304.00      800.00
01866             160.00      960.00
01867             184.00     1040.00
01868            -264.00      880.00
01869            -192.00     1040.00
01870             176.00     1200.00
01871               0.00     1200.00
01872            -256.00     1040.00
01873             -32.00     1200.00
01874             128.00     1360.00
01875            -160.00     1280.00
01876            -216.00     1200.00
01877              56.00     1360.00
01878               0.00     1440.00
01879            -232.00     1360.00
01880            -120.00     1360.00
01881              40.00     1520.00
01882            -120.00     1520.00
01883            -208.00     1440.00
01884             -56.00     1520.00
01885             -32.00     1680.00
01886            -168.00     1520.00
01887            -160.00     1520.00
01888             -64.00     1680.00
01889            -104.00     1680.00
01890            -184.00     1680.00
01891            -128.00     1680.00
01892             -88.00     1760.00
01893            -136.00     1760.00
01894            -168.00     1760.00
01895            -136.00     1840.00
01896            -128.00     1840.00
01897            -168.00     1840.00
01898            -152.00     1920.00
01899            -136.00     1920.00
01900            -168.00     1920.00
01901            -192.00     1920.00
01902            -152.00     2000.00
01903            -152.00     2000.00
01904            -184.00     2000.00
01905            -184.00     2000.00
01906            -168.00     2000.00
01907            -176.00     2000.00
01908            -184.00     2080.00
01909            -192.00     2080.00
01910            -192.00     2080.00
01911            -192.00     2080.00
01912            -200.00     2080.00
01913            -200.00     2160.00
01914            -200.00     2080.00
01915            -200.00     2240.00
01916            -216.00     2160.00
01917            -200.00     2160.00
01918            -216.00     2240.00
01919            -232.00     2160.00
01920            -224.00     2240.00
01921            -216.00     2160.00
01922            -232.00     2240.00
01923            -256.00     2160.00
01924            -232.00     2240.00
01925            -232.00     2160.00
01926            -256.00     2160.00
01927            -256.00     2160.00
01928            -248.00     2240.00
01929            -256.00     2160.00
01930            -264.00     2160.00
01931            -248.00     2160.00
01932            -256.00     2240.00
01933            -280.00     2160.00
01934            -264.00     2240.00
01935            -256.00     2160.00
01936            -272.00     2240.00
01937            -280.00     2080.00
01938            -264.00     2080.00
01939            -264.00     2160.00
01940            -288.00     2160.00
01941            -288.00     2080.00
01942            -280.00     2080.00
01943            -280.00     2080.00
01944            -280.00     2000.00
01945            -280.00     2000.00
01946            -288.00     2000.00
01947            -288.00     2000.00
01948            -280.00     2000.00
01949            -280.00     2000.00
01950            -280.00     2000.00
01951            -280.00     1920.00
01952            -272.00     2000.00
01953            -280.00     1840.00
01954            -264.00     1840.00
01955            -264.00     1840.00
01956            -264.00     1840.00
01957            -264.00     1840.00
01958            -256.00     1760.00
01959            -256.00     1760.00
01960            -256.00     1680.00
01961            -256.00     1760.00
01962            -256.00     1680.00
01963            -248.00     1680.00
01964            -248.00     1680.00
01965            -232.00     1680.00
01966            -232.00     1600.00
01967            -232.00     1600.00
01968            -232.00     1520.00
01969            -224.00     1520.00
01970            -216.00     1440.00
01971            -216.00     1440.00
01972            -216.00     1440.00
01973            -200.00     1360.00
01974            -200.00     1360.00
01975            -216.00     1360.00
01976            -200.00     1360.00
01977            -192.00     1280.00
01978            -184.00     1200.00
01979            -184.00     1200.00
01980            -184.00     1120.00
01981            -168.00     1120.00
01982            -168.00     1120.00
01983            -168.00     1040.00
01984            -168.00      960.00
01985            -160.00     1040.00
01986            -160.00      880.00
01987            -152.00      880.00
01988            -136.00      800.00
01989            -128.00      800.00
01990            -128.00      800.00
01991            -120.00      720.00
01992            -120.00      720.00
01993            -120.00      720.00
01994            -128.00      640.00
01995            -120.00      560.00
01996            -104.00      560.00
01997            -104.00      480.00
01998            -104.00      560.00
01999             -96.00      480.00
02000             -88.00      400.00
02001             -88.00      400.00
02002             -80.00      240.00
02003             -72.00      240.00
02004             -72.00      240.00
02005             -72.00      240.00
02006             -64.00      240.00
02007             -64.00      160.00
02008             -56.00       80.00
02009             -48.00       80.00
02010             -40.00       80.00
02011             -32.00        0.00
02012             -16.00      -80.00
02013             -24.00      -80.00
02014              -8.00     -160.00
02015              -8.00     -160.00
02016              -8.00     -240.00
02017              88.00     -240.00
02018             264.00     -320.00
02019             -56.00     -400.00
02020            -312.00     -240.00
02021            -104.00     -480.00
02022             320.00     -480.00
02023              96.00     -560.00
02024            -384.00     -480.00
02025            -232.00     -640.00
02026             256.00     -640.00
02027             176.00     -560.00
02028            -232.00     -720.00
02029             -88.00     -880.00
02030             296.00     -720.00
02031             136.00     -720.00
02032            -168.00     -880.00
02033               0.00     -880.00
02034             200.00     -800.00
02035              40.00     -880.00
02036             -40.00    -1120.00
02037             104.00    -1040.00
02038              96.00     -960.00
02039             -24.00    -1120.00
02040              72.00    -1200.00
02041             192.00    -1120.00
02042              32.00    -1120.00
02043              -8.00    -1280.00
02044             152.00    -1280.00
02045             160.00    -1200.00
02046               0.00    -1280.00
02047              32.00    -1360.00
02048             184.00    -1360.00
02049             120.00    -1360.00
02050              24.00    -1520.00
02051              88.00    -1520.00
02052             176.00    -1440.00
02053             112.00    -1520.00
02054              72.00    -1600.00
02055             136.00    -1520.00
02056             152.00    -1600.00
02057              96.00    -1680.00
02058             120.00    -1680.00
02059             160.00    -1680.00
02060             128.00    -1760.00
02061             120.00    -1760.00
02062             152.00    -1760.00
02063             160.00    -1760.00
02064             128.00    -1840.00
02065             160.00    -1840.00
02066             184.00    -1840.00
02067             152.00    -1840.00
02068             136.00    -1920.00
02069             168.00    -1920.00
02070             184.00    -1920.00
02071             168.00    -2000.00
02072             168.00    -2000.00
02073             184.00    -2000.00
02074             184.00    -2000.00
02075             184.00    -2000.00
02076             192.00    -2000.00
02077             192.00    -2000.00
02078             200.00    -2000.00
02079             192.00    -2000.00
02080             200.00    -2000.00
02081             200.00    -2080.00
02082             200.00    -2080.00
02083             216.00    -2080.00
02084             224.00    -2080.00
02085             232.00    -2080.00
02086             216.00    -2080.00
02087             216.00    -2160.00
02088             232.00    -2080.00
02089             232.00    -2080.00
02090             224.00    -2080.00
02091             248.00    -2080.00
02092             248.00    -2080.00
02093             248.00    -2080.00
02094             248.00    -2160.00
02095             248.00    -2080.00
02096             256.00    -2080.00
02097             248.00    -2160.00
02098             256.00    -2080.00
02099             272.00    -2160.00
02100             256.00    -2000.00
02101             256.00    -2080.00
02102             280.00    -2080.00
02103             280.00    -2080.00
02104             264.00    -2080.00
02105             280.00    -2000.00
02106             280.00    -2000.00
02107             280.00    -2000.00
02108             280.00    -2000.00
02109             280.00    -2000.00
02110             280.00    -2000.00
02111             280.00    -2000.00
02112             280.00    -2000.00
02113             280.00    -1920.00
02114             280.00    -2000.00
02115             280.00    -1920.00
02116             280.00    -1920.00
02117             280.00    -1840.00
02118             280.00    -1840.00
02119             264.00    -1840.00
02120             264.00    -1840.00
02121             264.00    -1840.00
02122             264.00    -1760.00
02123             264.00    -1760.00
02124             256.00    -1760.00
02125             264.00    -1760.00
02126             256.00    -1680.00
02127             248.00    -1680.00
02128             248.00    -1680.00
02129             256.00    -1680.00
02130             248.00    -1600.00
02131             248.00    -1600.00
02132             240.00    -1520.00
02133             232.00    -1520.00
02134             224.00    -1520.00
02135             224.00    -1440.00
02136             224.00    -1440.00
02137             216.00    -1360.00
02138             216.00    -1440.00
02139             200.00    -1360.00
02140             208.00    -1360.00
02141             200.00    -1280.00
02142             192.00    -1280.00
02143             200.00    -1200.00
02144             192.00    -1200.00
02145             184.00    -1200.00
02146             184.00    -1120.00
02147             168.00    -1120.00
02148             168.00    -1040.00
02149             168.00    -1040.00
02150             160.00    -1040.00
02151             152.00     -960.00
02152             160.00     -880.00
02153             152.00     -880.00
02154             136.00     -800.00
02155             136.00     -800.00
02156             136.00     -800.00
02157             128.00     -720.00
02158             128.00     -720.00
02159             128.00     -720.00
02160             120.00     -560.00
02161             104.00     -560.00
02162             120.00     -480.00
02163             104.00     -480.00
02164             104.00     -480.00
02165              96.00     -320.00
02166              88.00     -320.00
02167              88.00     -320.00
02168              88.00     -240.00
02169              88.00     -240.00
02170              72.00     -240.00
02171              72.00     -160.00
02172              72.00     -160.00
02173              64.00      -80.00
02174              64.00      -80.00
02175              64.00      -80.00
02176              64.00        0.00
02177              64.00       80.00
02178              72.00       80.00
02179              64.00      160.00
02180              56.00      240.00
02181              56.00      240.00
02182              64.00      240.00
02183             128.00      240.00
02184             312.00      400.00
02185               8.00      400.00
02186            -248.00      400.00
02187             -40.00      400.00
02188             328.00      560.00
02189             -56.00      560.00
02190            -456.00      480.00
02191            -136.00      480.00
02192             384.00      720.00
02193              40.00      800.00
02194            -376.00      560.00
02195              -8.00      720.00
02196             360.00      880.00
02197             -72.00      800.00
02198            -352.00      720.00
02199              72.00      880.00
02200             248.00     1120.00
02201            -200.00      960.00
02202            -248.00      880.00
02203             128.00     1200.00
02204              72.00     1120.00
02205            -240.00     1040.00
02206             -96.00     1120.00
02207             136.00     1360.00
02208            -104.00     1360.00
02209            -248.00     1200.00
02210               8.00     1360.00
02211              40.00     1440.00
02212            -216.00     1360.00
02213            -160.00     1360.00
02214              40.00     1520.00
02215             -72.00     1520.00
02216            -224.00     1360.00
02217             -96.00     1520.00
02218              -8.00     1680.00
02219            -136.00     1520.00
02220            -168.00     1520.00
02221             -64.00     1680.00
02222             -96.00     1680.00
02223            -168.00     1680.00
02224            -152.00     1680.00
02225             -88.00     1760.00
02226            -128.00     1760.00
02227            -176.00     1760.00
02228            -136.00     1840.00
02229            -120.00     1840.00
02230            -160.00     1840.00
02231            -160.00     1840.00
02232            -128.00     1840.00
02233            -160.00     1920.00
02234            -192.00     2000.00
02235            -160.00     2000.00
02236            -152.00     2000.00
02237            -176.00     2000.00
02238            -184.00     2080.00
02239            -168.00     2000.00
02240            -168.00     2000.00
02241            -184.00     2080.00
02242            -192.00     2080.00
02243            -192.00     2080.00
02244            -184.00     2080.00
02245            -200.00     2080.00
02246            -200.00     2080.00
02247            -200.00     2240.00
02248            -200.00     2080.00
02249            -216.00     2080.00
02250            -200.00     2080.00
02251            -216.00     2240.00
02252            -232.00     2160.00
02253            -232.00     2080.00
02254            -216.00     2160.00
02255            -232.00     2240.00
02256            -248.00     2160.00
02257            -224.00     2240.00
02258            -232.00     2240.00
02259            -256.00     2160.00
02260            -256.00     2240.00
02261            -240.00     2240.00
02262            -256.00     2160.00
02263            -264.00     2240.00
02264            -256.00     2080.00
02265            -248.00     2160.00
02266            -280.00     2160.00
02267            -272.00     2080.00
02268            -256.00     2240.00
02269            -280.00     2160.00
02270            -288.00     2080.00
02271            -264.00     2080.00
02272            -264.00     2160.00
02273            -280.00     2160.00
02274            -280.00     2080.00
02275            -280.00     2080.00
02276            -280.00     2080.00
02277            -280.00     2080.00
02278            -280.00     2080.00
02279            -280.00     2000.00
02280            -288.00     2000.00
02281            -280.00     2000.00
02282            -280.00     2000.00
02283            -272.00     1920.00
02284            -280.00     1920.00
02285            -280.00     1920.00
02286            -264.00     1840.00
02287            -272.00     1840.00
02288            -280.00     1760.00
02289            -264.00     1840.00
02290            -264.00     1840.00
02291            -264.00     1760.00
02292            -256.00     1760.00
02293            -256.00     1760.00
02294            -256.00     1680.00
02295            -256.00     1680.00
02296            -248.00     1680.00
02297            -232.00     1680.00
02298            -248.00     1600.00
02299            -232.00     1680.00
02300            -232.00     1520.00
02301            -224.00     1520.00
02302            -232.00     1520.00
02303            -216.00     1440.00
02304            -216.00     1520.00
02305            -216.00     1440.00
02306            -200.00     1440.00
02307            -200.00     1360.00
02308            -200.00     1360.00
02309            -200.00     1360.00
02310            -192.00     1280.00
02311            -184.00     1280.00
02312            -184.00     1200.00
02313            -168.00     1120.00
02314            -168.00     1120.00
02315            -160.00     1120.00
02316            -160.00     1120.00
02317            -168.00     1040.00
02318            -160.00      960.00
02319            -160.00      880.00
02320            -152.00      800.00
02321            -152.00      800.00
02322            -136.00      880.00
02323            -128.00      800.00
02324            -120.00      800.00
02325            -112.00      720.00
02326            -120.00      720.00
02327            -128.00      720.00
02328            -120.00      560.00
02329            -104.00      560.00
02330            -104.00      560.00
02331            -104.00      480.00
02332             -96.00      480.00
02333             -88.00      400.00
02334             -88.00      400.00
02335             -80.00      400.00
02336             -88.00      320.00
02337             -88.00      240.00
02338             -80.00      240.00
02339             -64.00      160.00
02340             -64.00      160.00
02341             -56.00      160.00
02342             -56.00       80.00
02343             -40.00       80.00
02344             -32.00      -80.00
02345             -24.00      -80.00
02346              -8.00      -80.00
02347              -8.00     -160.00
02348              -8.00     -160.00
02349             -16.00     -240.00
02350              56.00     -240.00
02351             256.00     -320.00
02352              32.00     -400.00
02353            -304.00     -240.00
02354            -168.00     -400.00
02355             264.00     -480.00
02356             200.00     -480.00
02357            -344.00     -480.00
02358            -312.00     -560.00
02359             192.00     -720.00
02360             232.00     -560.00
02361            -184.00     -720.00
02362            -152.00     -800.00
02363             256.00     -800.00
02364             216.00     -720.00
02365            -136.00     -880.00
02366             -64.00     -960.00
02367             192.00     -880.00
02368              80.00     -880.00
02369             -56.00    -1040.00
02370              88.00    -1040.00
02371             120.00    -1040.00
02372             -16.00    -1040.00
02373              40.00    -1200.00
02374             192.00    -1120.00
02375              72.00    -1120.00
02376             -24.00    -1200.00
02377             128.00    -1280.00
02378             184.00    -1280.00
02379              24.00    -1280.00
02380               0.00    -1440.00
02381             168.00    -1360.00
02382             152.00    -1360.00
02383              32.00    -1440.00
02384              72.00    -1440.00
02385             168.00    -1440.00
02386             128.00    -1520.00
02387              72.00    -1600.00
02388             120.00    -1520.00
02389             152.00    -1520.00
02390             104.00    -1680.00
02391             104.00    -1760.00
02392             160.00    -1680.00
02393             136.00    -1680.00
02394             104.00    -1760.00
02395             144.00    -1760.00
02396             160.00    -1760.00
02397             128.00    -1760.00
02398             136.00    -1840.00
02399             184.00    -1840.00
02400             160.00    -1840.00
02401             136.00    -1840.00
02402             160.00    -1920.00
02403             184.00    -1920.00
02404             168.00    -2000.00
02405             168.00    -2000.00
02406             184.00    -1920.00
02407             184.00    -2000.00
02408             184.00    -2000.00
02409             184.00    -2000.00
02410             192.00    -2000.00
02411             200.00    -2000.00
02412             200.00    -2080.00
02413             192.00    -2000.00
02414             200.00    -2080.00
02415             200.00    -2000.00
02416             216.00    -2080.00
02417             216.00    -2080.00
02418             224.00    -2080.00
02419             216.00    -2080.00
02420             224.00    -2160.00
02421             232.00    -2080.00
02422             232.00    -2080.00
02423             224.00    -2080.00
02424             240.00    -2160.00
02425             248.00    -2080.00
02426             248.00    -2080.00
02427             232.00    -2080.00
02428             256.00    -2080.00
02429             256.00    -2080.00
02430             256.00    -2160.00
02431             256.00    -2080.00
02432             280.00    -2080.00
02433             256.00    -2160.00
02434             256.00    -2080.00
02435             264.00    -2080.00
02436             280.00    -2000.00
02437             264.00    -2080.00
02438             280.00    -2000.00
02439             288.00    -2080.00
02440             288.00    -2080.00
02441             264.00    -2000.00
02442             280.00    -2000.00
02443             288.00    -2000.00
02444             280.00    -2000.00
02445             280.00    -2000.00
02446             280.00    -1920.00
02447             272.00    -2000.00
02448             264.00    -1840.00
02449             280.00    -1840.00
02450             280.00    -1840.00
02451             280.00    -1840.00
02452             264.00    -1840.00
02453             280.00    -1840.00
02454             256.00    -1840.00
02455             256.00    -1760.00
02456             264.00    -1760.00
02457             256.00    -1680.00
02458             256.00    -1680.00
02459             256.00    -1760.00
02460             248.00    -1680.00
02461             248.00    -1680.00
02462             248.00    -1520.00
02463             248.00    -1600.00
02464             248.00    -1520.00
02465             232.00    -1520.00
02466             224.00    -1520.00
02467             224.00    -1520.00
02468             224.00    -1440.00
02469             224.00    -1360.00
02470             216.00    -1440.00
02471             200.00    -1360.00
02472             216.00    -1360.00
02473             200.00    -1360.00
02474             200.00    -1360.00
02475             192.00    -1200.00
02476             192.00    -1200.00
02477             184.00    -1200.00
02478             184.00    -1120.00
02479             184.00    -1120.00
02480             168.00    -1040.00
02481             160.00    -1040.00
02482             160.00    -1040.00
02483             160.00    -1040.00
02484             152.00     -960.00
02485             160.00     -960.00
02486             152.00     -880.00
02487             136.00     -880.00
02488             136.00     -800.00
02489             136.00     -800.00
02490             128.00     -720.00
02491             128.00     -720.00
02492             128.00     -640.00
02493             120.00     -640.00
02494             120.00     -560.00
02495             112.00     -560.00
02496             112.00     -480.00
02497             104.00     -480.00
02498              96.00     -400.00
02499              88.00     -320.00
02500              88.00     -320.00
02501              88.00     -320.00
02502              88.00     -240.00
02503              88.00     -240.00
02504              80.00     -160.00
02505              64.00     -160.00
02506              72.00      -80.00
02507              64.00      -80.00
02508              64.00        0.00
02509              64.00        0.00
02510              64.00       80.00
02511              64.00       80.00
02512              64.00      160.00
02513              64.00      160.00
02514              56.00      240.00
02515              56.00      240.00
02516             104.00      240.00
02517             288.00      400.00
02518              96.00      400.00
02519            -240.00      400.00
02520            -104.00      400.00
02521             280.00      560.00
02522              64.00      560.00
02523            -440.00      480.00
02524            -248.00      560.00
02525             344.00      640.00
02526             160.00      800.00
02527            -360.00      560.00
02528            -120.00      640.00
02529             352.00      880.00
02530              32.00      800.00
02531            -360.00      720.00
02532             -32.00      800.00
02533             280.00     1120.00
02534            -128.00      960.00
02535            -288.00      880.00
02536              64.00     1120.00
02537             136.00     1200.00
02538            -216.00     1040.00
02539            -160.00     1120.00
02540             120.00     1280.00
02541             -40.00     1360.00
02542            -256.00     1200.00
02543             -40.00     1200.00
02544              80.00     1440.00
02545            -168.00     1440.00
02546            -192.00     1360.00
02547              24.00     1440.00
02548             -32.00     1520.00
02549            -216.00     1440.00
02550            -120.00     1520.00
02551              -8.00     1680.00
02552            -120.00     1680.00
02553            -184.00     1520.00
02554             -96.00     1680.00
02555             -72.00     1760.00
02556            -160.00     1600.00
02557            -160.00     1680.00
02558             -88.00     1760.00
02559            -104.00     1840.00
02560            -168.00     1760.00
02561            -152.00     1840.00
02562            -112.00     1760.00
02563            -144.00     1840.00
02564            -160.00     1840.00
02565            -136.00     2000.00
02566            -152.00     1920.00
02567            -192.00     1920.00
02568            -160.00     2000.00
02569            -144.00     2000.00
02570            -168.00     2000.00
02571            -192.00     2000.00
02572            -176.00     2000.00
02573            -168.00     2000.00
02574            -184.00     2080.00
02575            -192.00     2080.00
02576            -192.00     2080.00
02577            -192.00     2080.00
02578            -192.00     2080.00
02579            -208.00     2080.00
02580            -200.00     2080.00
02581            -200.00     2080.00
02582            -216.00     2240.00
02583            -200.00     2160.00
02584            -200.00     2160.00
02585            -232.00     2160.00
02586            -232.00     2160.00
02587            -224.00     2240.00
02588            -232.00     2160.00
02589            -248.00     2160.00
02590            -232.00     2240.00
02591            -232.00     2160.00
02592            -248.00     2160.00
02593            -256.00     2160.00
02594            -256.00     2240.00
02595            -256.00     2240.00
02596            -264.00     2160.00
02597            -256.00     2160.00
02598            -256.00     2240.00
02599            -280.00     2160.00
02600            -280.00     2160.00
02601            -264.00     2160.00
02602            -264.00     2160.00
02603            -280.00     2160.00
02604            -280.00     2160.00
02605            -264.00     2160.00
02606            -280.00     2080.00
02607            -288.00     2080.00
02608            -280.00     2080.00
02609            -280.00     2080.00
02610            -288.00     2080.00
02611            -280.00     2080.00
02612            -280.00     2000.00
02613            -288.00     2000.00
02614            -280.00     2000.00
02615            -272.00     2000.00
02616            -272.00     1920.00
02617            -288.00     2000.00
02618            -280.00     1920.00
02619            -264.00     1920.00
02620            -264.00     1840.00
02621            -264.00     1840.00
02622            -264.00     1840.00
02623            -256.00     1840.00
02624            -264.00     1840.00
02625            -256.00     1760.00
02626            -264.00     1760.00
02627            -264.00     1680.00
02628            -256.00     1680.00
02629            -248.00     1680.00
02630            -248.00     1680.00
02631            -240.00     1600.00
02632            -232.00     1600.00
02633            -232.00     1520.00
02634            -224.00     1520.00
02635            -232.00     1440.00
02636            -224.00     1440.00
02637            -216.00     1440.00
02638            -208.00     1440.00
02639            -216.00     1440.00
02640            -200.00     1360.00
02641            -200.00     1360.00
02642            -200.00     1360.00
02643            -192.00     1280.00
02644            -176.00     1280.00
02645            -192.00     1120.00
02646            -184.00     1200.00
02647            -168.00     1120.00
02648            -168.00     1040.00
02649            -160.00     1120.00
02650            -168.00     1040.00
02651            -168.00      960.00
02652            -160.00      960.00
02653            -160.00      880.00
02654            -152.00      880.00
02655            -128.00      880.00
02656            -136.00      800.00
02657            -128.00      800.00
02658            -120.00      720.00
02659            -128.00      640.00
02660            -128.00      720.00
02661            -128.00      560.00
02662            -120.00      560.00
02663            -104.00      560.00
02664            -104.00      560.00
02665            -104.00      480.00
02666             -96.00      400.00
02667             -88.00      400.00
02668             -88.00      400.00
02669             -88.00      320.00
02670             -72.00      240.00
02671             -72.00      240.00
02672             -72.00      160.00
02673             -64.00      160.00
02674             -64.00      160.00
02675             -48.00       80.00
02676             -40.00       80.00
02677             -32.00        0.00
02678             -24.00      -80.00
02679             -16.00      -80.00
02680             -24.00     -160.00
02681              -8.00     -160.00
02682              -8.00     -240.00
02683              24.00     -240.00
02684             232.00     -320.00
02685             120.00     -480.00
02686            -280.00     -240.00
02687            -232.00     -320.00
02688             192.00     -480.00
02689             288.00     -480.00
02690            -264.00     -480.00
02691            -360.00     -560.00
02692              96.00     -720.00
02693             296.00     -560.00
02694            -104.00     -640.00
02695            -216.00     -800.00
02696             192.00     -800.00
02697             264.00     -720.00
02698             -96.00     -800.00
02699            -112.00    -1040.00
02700             184.00     -880.00
02701             120.00     -880.00
02702             -48.00    -1040.00
02703              56.00    -1120.00
02704             136.00    -1040.00
02705               8.00    -1040.00
02706              16.00    -1200.00
02707             184.00    -1120.00
02708             120.00    -1120.00
02709             -32.00    -1200.00
02710              88.00    -1280.00
02711             200.00    -1200.00
02712              56.00    -1200.00
02713              -8.00    -1440.00
02714             136.00    -1360.00
02715             176.00    -1360.00
02716              48.00    -1440.00
02717              56.00    -1520.00
02718             160.00    -1440.00
02719             152.00    -1520.00
02720              72.00    -1600.00
02721             104.00    -1520.00
02722             152.00    -1520.00
02723             120.00    -1680.00
02724              96.00    -1680.00
02725             152.00    -1680.00
02726             152.00    -1680.00
02727             104.00    -1760.00
02728             128.00    -1760.00
02729             160.00    -1760.00
02730             136.00    -1840.00
02731             136.00    -1840.00
02732             168.00    -1840.00
02733             168.00    -1840.00
02734             136.00    -1840.00
02735             152.00    -1840.00
02736             184.00    -1840.00
02737             168.00    -1920.00
02738             160.00    -1920.00
02739             176.00    -1920.00
02740             184.00    -2000.00
02741             184.00    -2000.00
02742             192.00    -2000.00
02743             192.00    -2000.00
02744             192.00    -2000.00
02745             200.00    -2000.00
02746             192.00    -2080.00
02747             200.00    -2080.00
02748             200.00    -2080.00
02749             216.00    -2080.00
02750             216.00    -2160.00
02751             224.00    -2080.00
02752             216.00    -2080.00
02753             216.00    -2080.00
02754             232.00    -2160.00
02755             248.00    -2080.00
02756             224.00    -2080.00
02757             232.00    -2160.00
02758             256.00    -2080.00
02759             248.00    -2160.00
02760             240.00    -2160.00
02761             256.00    -2080.00
02762             256.00    -2080.00
02763             256.00    -2080.00
02764             256.00    -2160.00
02765             280.00    -2080.00
02766             264.00    -2080.00
02767             256.00    -2160.00
02768             272.00    -2080.00
02769             280.00    -2000.00
02770             264.00    -2080.00
02771             272.00    -2080.00
02772             288.00    -2000.00
02773             288.00    -2080.00
02774             280.00    -2000.00
02775             280.00    -2000.00
02776             280.00    -2000.00
02777             280.00    -2000.00
02778             280.00    -2000.00
02779             280.00    -2000.00
02780             280.00    -2000.00
02781             272.00    -1840.00
02782             280.00    -1840.00
02783             288.00    -1840.00
02784             280.00    -1840.00
02785             280.00    -1840.00
02786             264.00    -1840.00
02787             272.00    -1840.00
02788             256.00    -1840.00
02789             264.00    -1760.00
02790             256.00    -1760.00
02791             264.00    -1760.00
02792             256.00    -1680.00
02793             248.00    -1680.00
02794             248.00    -1680.00
02795             248.00    -1680.00
02796             232.00    -1520.00
02797             248.00    -1600.00
02798             240.00    -1520.00
02799             224.00    -1520.00
02800             224.00    -1520.00
02801             216.00    -1440.00
02802             216.00    -1440.00
02803             216.00    -1440.00
02804             216.00    -1360.00
02805             216.00    -1360.00
02806             200.00    -1360.00
02807             200.00    -1280.00
02808             192.00    -1200.00
02809             184.00    -1200.00
02810             192.00    -1200.00
02811             192.00    -1120.00
02812             184.00    -1120.00
02813             168.00    -1120.00
02814             168.00    -1040.00
02815             168.00    -1040.00
02816             160.00    -1040.00
02817             152.00     -960.00
02818             160.00     -880.00
02819             152.00     -880.00
02820             152.00     -880.00
02821             144.00     -880.00
02822             136.00     -720.00
02823             136.00     -720.00
02824             128.00     -720.00
02825             128.00     -720.00
02826             128.00     -560.00
02827             120.00     -560.00
02828             104.00     -560.00
02829             104.00     -480.00
02830             120.00     -480.00
02831              96.00     -320.00
02832              96.00     -400.00
02833              88.00     -320.00
02834              88.00     -240.00
02835              88.00     -240.00
02836              72.00     -160.00
02837              72.00     -240.00
02838              64.00     -160.00
02839              64.00      -80.00
02840              64.00      -80.00
02841              64.00        0.00
02842              64.00        0.00
02843              72.00        0.00
02844              64.00      160.00
02845              64.00      160.00
02846              64.00      240.00
02847              56.00      160.00
02848              56.00      240.00
02849              80.00      240.00
02850             256.00      400.00
02851             184.00      400.00
02852            -208.00      400.00
02853            -168.00      400.00
02854             216.00      480.00
02855             160.00      640.00
02856            -384.00      480.00
02857            -352.00      480.00
02858             256.00      720.00
02859             256.00      800.00
02860            -296.00      640.00
02861            -232.00      560.00
02862             312.00      880.00
02863             136.00      880.00
02864            -344.00      720.00
02865            -120.00      800.00
02866             280.00     1120.00
02867             -32.00      960.00
02868            -312.00      880.00
02869              -8.00     1040.00
02870             184.00     1200.00
02871            -160.00     1120.00
02872            -216.00     1040.00
02873              96.00     1200.00
02874              24.00     1280.00
02875            -248.00     1200.00
02876            -104.00     1200.00
02877              88.00     1440.00
02878            -128.00     1440.00
02879            -224.00     1360.00
02880              -8.00     1360.00
02881               0.00     1520.00
02882            -192.00     1440.00
02883            -152.00     1440.00
02884               0.00     1600.00
02885             -96.00     1680.00
02886            -184.00     1520.00
02887            -104.00     1600.00
02888             -64.00     1760.00
02889            -144.00     1680.00
02890            -168.00     1680.00
02891             -96.00     1760.00
02892             -96.00     1760.00
02893            -168.00     1760.00
02894            -152.00     1760.00
02895            -112.00     1840.00
02896            -136.00     1840.00
02897            -160.00     1840.00
02898            -136.00     1920.00
02899            -136.00     1840.00
02900            -184.00     1840.00
02901            -168.00     2000.00
02902            -136.00     2000.00
02903            -160.00     2000.00
02904            -184.00     2080.00
02905            -168.00     2000.00
02906            -168.00     2080.00
02907            -184.00     2080.00
02908            -192.00     2080.00
02909            -200.00     2080.00
02910            -192.00     2080.00
02911            -192.00     2160.00
02912            -200.00     2080.00
02913            -200.00     2080.00
02914            -200.00     2160.00
02915            -216.00     2080.00
02916            -208.00     2160.00
02917            -216.00     2160.00
02918            -224.00     2240.00
02919            -232.00     2160.00
02920            -216.00     2160.00
02921            -224.00     2160.00
02922            -248.00     2240.00
02923            -248.00     2160.00
02924            -232.00     2240.00
02925            -248.00     2160.00
02926            -256.00     2160.00
02927            -248.00     2160.00
02928            -256.00     2160.00
02929            -264.00     2160.00
02930            -264.00     2160.00
02931            -256.00     2240.00
02932            -264.00     2160.00
02933            -288.00     2160.00
02934            -264.00     2080.00
02935            -264.00     2240.00
02936            -280.00     2080.00
02937            -280.00     2160.00
02938            -264.00     2160.00
02939            -280.00     2080.00
02940            -288.00     2080.00
02941            -280.00     2080.00
02942            -280.00     2080.00
02943            -280.00     2000.00
02944            -280.00     2080.00
02945            -280.00     2000.00
02946            -288.00     2000.00
02947            -288.00     2000.00
02948            -272.00     2000.00
02949            -264.00     1920.00
02950            -280.00     1840.00
02951            -280.00     2000.00
02952            -280.00     1920.00
02953            -264.00     1840.00
02954            -264.00     1840.00
02955            -264.00     1840.00
02956            -256.00     1840.00
02957            -264.00     1840.00
02958            -256.00     1760.00
02959            -256.00     1680.00
02960            -256.00     1760.00
02961            -256.00     1680.00
02962            -248.00     1680.00
02963            -232.00     1680.00
02964            -248.00     1600.00
02965            -240.00     1600.00
02966            -224.00     1600.00
02967            -232.00     1520.00
02968            -224.00     1600.00
02969            -224.00     1440.00
02970            -224.00     1440.00
02971            -216.00     1440.00
02972            -216.00     1360.00
02973            -216.00     1360.00
02974            -200.00     1360.00
02975            -216.00     1280.00
02976            -192.00     1200.00
02977            -192.00     1280.00
02978            -184.00     1200.00
02979            -192.00     1200.00
02980            -168.00     1120.00
02981            -160.00     1120.00
02982            -168.00     1040.00
02983            -168.00     1040.00
02984            -160.00      960.00
02985            -168.00      960.00
02986            -160.00      880.00
02987            -152.00      880.00
02988            -136.00      880.00
02989            -136.00      800.00
02990            -128.00      720.00
02991            -120.00      720.00
02992            -128.00      720.00
02993            -136.00      720.00
02994            -128.00      560.00
02995            -104.00      560.00
02996            -120.00      560.00
02997            -104.00      480.00
02998            -104.00      480.00
02999             -88.00      480.00
03000             -88.00      400.00
03001             -88.00      400.00
03002             -88.00      320.00
03003             -80.00      320.00
03004             -88.00      240.00
03005             -72.00      160.00
03006             -64.00      160.00
03007             -64.00      160.00
03008             -56.00       80.00
03009             -40.00       80.00
03010             -32.00       80.00
03011             -24.00      -80.00
03012             -24.00      -80.00
03013              -8.00      -80.00
03014             -16.00     -160.00
03015              -8.00     -240.00
03016               8.00     -160.00
03017             192.00     -240.00
03018             192.00     -400.00
03019            -224.00     -240.00
03020            -264.00     -320.00
03021             104.00     -480.00
03022             344.00     -480.00
03023            -168.00     -480.00
03024            -408.00     -480.00
03025              -8.00     -720.00
03026             320.00     -560.00
03027             -24.00     -560.00
03028            -248.00     -800.00
03029             120.00     -800.00
03030             296.00     -720.00
03031             -24.00     -800.00
03032            -160.00     -880.00
03033             128.00     -880.00
03034             160.00     -800.00
03035             -32.00     -960.00
03036               8.00    -1120.00
03037             144.00    -1040.00
03038              32.00    -1040.00
03039              -8.00    -1120.00
03040             152.00    -1120.00
03041             136.00    -1120.00
03042              -8.00    -1200.00
03043              64.00    -1280.00
03044             200.00    -1200.00
03045              88.00    -1280.00
03046             -24.00    -1360.00
03047             104.00    -1360.00
03048             184.00    -1360.00
03049              64.00    -1440.00
03050              24.00    -1520.00
03051             136.00    -1520.00
03052             152.00    -1440.00
03053              88.00    -1520.00
03054              88.00    -1600.00
03055             152.00    -1520.00
03056             112.00    -1600.00
03057              88.00    -1760.00
03058             144.00    -1680.00
03059             160.00    -1680.00
03060             112.00    -1760.00
03061             120.00    -1760.00
03062             152.00    -1760.00
03063             144.00    -1760.00
03064             136.00    -1840.00
03065             184.00    -1760.00
03066             168.00    -1760.00
03067             128.00    -1920.00
03068             144.00    -1920.00
03069             176.00    -1920.00
03070             184.00    -1840.00
03071             168.00    -1920.00
03072             184.00    -1920.00
03073             184.00    -2000.00
03074             184.00    -2000.00
03075             184.00    -2000.00
03076             192.00    -2000.00
03077             192.00    -2000.00
03078             200.00    -2080.00
03079             200.00    -2000.00
03080             200.00    -2080.00
03081             216.00    -2080.00
03082             216.00    -2080.00
03083             216.00    -2080.00
03084             224.00    -2080.00
03085             216.00    -2080.00
03086             216.00    -2080.00
03087             232.00    -2080.00
03088             232.00    -2080.00
03089             248.00    -2080.00
03090             232.00    -2160.00
03091             248.00    -2080.00
03092             256.00    -2080.00
03093             248.00    -2080.00
03094             256.00    -2080.00
03095             256.00    -2080.00
03096             256.00    -2000.00
03097             256.00    -2160.00
03098             264.00    -2080.00
03099             256.00    -2080.00
03100             256.00    -2080.00
03101             272.00    -2080.00
03102             280.00    -2080.00
03103             272.00    -2080.00
03104             264.00    -2080.00
03105             280.00    -2000.00
03106             280.00    -2000.00
03107             264.00    -2080.00
03108             280.00    -2000.00
03109             280.00    -2000.00
03110             280.00    -2000.00
03111             272.00    -1920.00
03112             280.00    -1920.00
03113             264.00    -1920.00
03114             280.00    -2000.00
03115             280.00    -2000.00
03116             280.00    -1840.00
03117             272.00    -1920.00
03118             256.00    -1840.00
03119             272.00    -1840.00
03120             264.00    -1840.00
03121             272.00    -1760.00
03122             256.00    -1760.00
03123             256.00    -1760.00
03124             264.00    -1760.00
03125             256.00    -1680.00
03126             256.00    -1680.00
03127             248.00    -1680.00
03128             248.00    -1680.00
03129             248.00    -1520.00
03130             232.00    -1520.00
03131             232.00    -1520.00
03132             248.00    -1440.00
03133             224.00    -1520.00
03134             216.00    -1440.00
03135             224.00    -1360.00
03136             216.00    -1440.00
03137             208.00    -1360.00
03138             216.00    -1360.00
03139             216.00    -1360.00
03140             200.00    -1200.00
03141             200.00    -1280.00
03142             200.00    -1200.00
03143             192.00    -1200.00
03144             192.00    -1200.00
03145             184.00    -1120.00
03146             184.00    -1120.00
03147             160.00    -1040.00
03148             168.00    -1040.00
03149             160.00    -1040.00
03150             160.00     -960.00
03151             152.00     -880.00
03152             152.00     -880.00
03153             152.00     -800.00
03154             136.00     -800.00
03155             136.00     -800.00
03156             136.00     -720.00
03157             128.00     -720.00
03158             128.00     -720.00
03159             120.00     -560.00
03160             120.00     -560.00
03161             120.00     -560.00
03162             120.00     -480.00
03163             112.00     -480.00
03164              96.00     -400.00
03165              96.00     -320.00
03166              88.00     -320.00
03167              96.00     -240.00
03168              88.00     -240.00
03169              80.00     -240.00
03170              64.00     -160.00
03171              64.00     -160.00
03172              64.00      -80.00
03173              64.00      -80.00
03174              72.00        0.00
03175              64.00      -80.00
03176              64.00       80.00
03177              64.00       80.00
03178              64.00       80.00
03179              64.00      160.00
03180              56.00      240.00
03181              48.00      240.00
03182              64.00      240.00
03183             216.00      400.00
03184             232.00      400.00
03185            -168.00      400.00
03186            -200.00      400.00
03187             136.00      480.00
03188             248.00      560.00
03189            -320.00      480.00
03190            -424.00      480.00
03191             152.00      560.00
03192             344.00      880.00
03193            -224.00      720.00
03194            -296.00      560.00
03195             232.00      880.00
03196             232.00      960.00
03197            -288.00      800.00
03198            -216.00      720.00
03199             256.00     1040.00
03200              64.00     1040.00
03201            -312.00      880.00
03202             -96.00     1040.00
03203             192.00     1200.00
03204             -96.00     1120.00
03205            -248.00     1040.00
03206              48.00     1200.00
03207              72.00     1360.00
03208            -224.00     1200.00
03209            -160.00     1200.00
03210              88.00     1360.00
03211             -64.00     1440.00
03212            -224.00     1360.00
03213             -56.00     1440.00
03214              24.00     1520.00
03215            -168.00     1520.00
03216            -168.00     1440.00
03217             -16.00     1600.00
03218             -64.00     1680.00
03219            -168.00     1520.00
03220            -128.00     1600.00
03221             -56.00     1840.00
03222            -120.00     1680.00
03223            -168.00     1680.00
03224            -104.00     1760.00
03225             -88.00     1840.00
03226            -160.00     1760.00
03227            -160.00     1760.00
03228            -120.00     1840.00
03229            -128.00     1840.00
03230            -160.00     1760.00
03231            -152.00     1920.00
03232            -136.00     1920.00
03233            -176.00     1920.00
03234            -168.00     2000.00
03235            -136.00     1920.00
03236            -160.00     2000.00
03237            -184.00     2000.00
03238            -168.00     2080.00
03239            -168.00     2080.00
03240            -184.00     2000.00
03241            -184.00     2080.00
03242            -192.00     2080.00
03243            -192.00     2080.00
03244            -192.00     2160.00
03245            -200.00     2080.00
03246            -208.00     2080.00
03247            -200.00     2160.00
03248            -216.00     2240.00
03249            -216.00     2160.00
03250            -200.00     2240.00
03251            -224.00     2160.00
03252            -232.00     2160.00
03253            -224.00     2160.00
03254            -224.00     2240.00
03255            -240.00     2160.00
03256            -248.00     2240.00
03257            -232.00     2160.00
03258            -248.00     2240.00
03259            -256.00     2160.00
03260            -256.00     2240.00
03261            -256.00     2240.00
03262            -264.00     2160.00
03263            -256.00     2160.00
03264            -256.00     2160.00
03265            -264.00     2240.00
03266            -288.00     2160.00
03267            -264.00     2160.00
03268            -264.00     2160.00
03269            -280.00     2160.00
03270            -280.00     2160.00
03271            -264.00     2080.00
03272            -272.00     2240.00
03273            -288.00     2160.00
03274            -280.00     2080.00
03275            -280.00     2080.00
03276            -280.00     2080.00
03277            -280.00     2080.00
03278            -272.00     2000.00
03279            -288.00     2000.00
03280            -288.00     2000.00
03281            -280.00     2000.00
03282            -264.00     2000.00
03283            -280.00     2000.00
03284            -280.00     1920.00
03285            -264.00     1840.00
03286            -264.00     1840.00
03287            -264.00     1840.00
03288            -256.00     1840.00
03289            -264.00     1840.00
03290            -256.00     1760.00
03291            -256.00     1760.00
03292            -256.00     1760.00
03293            -256.00     1760.00
03294            -248.00     1680.00
03295            -248.00     1680.00
03296            -232.00     1680.00
03297            -240.00     1680.00
03298            -232.00     1600.00
03299            -232.00     1600.00
03300            -232.00     1520.00
03301            -224.00     1520.00
03302            -224.00     1520.00
03303            -224.00     1440.00
03304            -216.00     1440.00
03305            -216.00     1440.00
03306            -216.00     1440.00
03307            -208.00     1360.00
03308            -200.00     1360.00
03309            -192.00     1280.00
03310            -192.00     1200.00
03311            -192.00     1200.00
03312            -192.00     1200.00
03313            -184.00     1200.00
03314            -168.00     1120.00
03315            -168.00     1120.00
03316            -168.00     1040.00
03317            -176.00     1040.00
03318            -168.00      960.00
03319            -160.00      880.00
03320            -152.00      880.00
03321            -136.00      880.00
03322            -136.00      800.00
03323            -128.00      800.00
03324            -136.00      800.00
03325            -128.00      720.00
03326            -128.00      640.00
03327            -128.00      560.00
03328            -128.00      640.00
03329            -104.00      560.00
03330            -104.00      560.00
03331            -104.00      480.00
03332            -104.00      400.00
03333             -96.00      480.00
03334             -72.00      400.00
03335             -88.00      240.00
03336             -88.00      320.00
03337             -72.00      240.00
03338             -72.00      240.00
03339             -64.00      160.00
03340             -56.00      160.00
03341             -56.00       80.00
03342             -40.00       80.00
03343             -32.00       80.00
03344             -32.00      -80.00
03345             -24.00      -80.00
03346              -8.00      -80.00
03347              -8.00     -160.00
03348              -8.00     -160.00
03349               0.00     -240.00
03350             152.00     -240.00
03351             248.00     -400.00
03352            -152.00     -240.00
03353            -288.00     -240.00
03354               8.00     -480.00
03355             352.00     -480.00
03356             -64.00     -480.00
03357            -416.00     -480.00
03358            -104.00     -640.00
03359             320.00     -640.00
03360              64.00     -560.00
03361            -256.00     -800.00
03362              32.00     -800.00
03363             312.00     -720.00
03364              48.00     -720.00
03365            -176.00     -960.00
03366              72.00     -960.00
03367             192.00     -800.00
03368              -8.00     -880.00
03369             -24.00    -1120.00
03370             152.00     -960.00
03371              56.00     -960.00
03372             -32.00    -1120.00
03373             120.00    -1200.00
03374             160.00    -1120.00
03375               0.00    -1200.00
03376              24.00    -1280.00
03377             184.00    -1280.00
03378             120.00    -1200.00
03379             -24.00    -1360.00
03380              72.00    -1440.00
03381             192.00    -1360.00
03382              88.00    -1360.00
03383              24.00    -1520.00
03384             120.00    -1440.00
03385             160.00    -1360.00
03386              88.00    -1600.00
03387              88.00    -1600.00
03388             152.00    -1520.00
03389             128.00    -1680.00
03390              96.00    -1760.00
03391             128.00    -1760.00
03392             160.00    -1680.00
03393             120.00    -1760.00
03394             120.00    -1840.00
03395             160.00    -1760.00
03396             152.00    -1840.00
03397             120.00    -1840.00
03398             160.00    -1840.00
03399             176.00    -1840.00
03400             136.00    -1840.00
03401             136.00    -1840.00
03402             184.00    -1840.00
03403             184.00    -1920.00
03404             168.00    -1920.00
03405             176.00    -1920.00
03406             184.00    -2000.00
03407             184.00    -2000.00
03408             192.00    -2000.00
03409             192.00    -2000.00
03410             192.00    -2000.00
03411             200.00    -2080.00
03412             200.00    -2000.00
03413             200.00    -2080.00
03414             216.00    -2000.00
03415             216.00    -2080.00
03416             216.00    -2080.00
03417             224.00    -2080.00
03418             224.00    -2080.00
03419             216.00    -2080.00
03420             232.00    -2160.00
03421             240.00    -2160.00
03422             232.00    -2080.00
03423             232.00    -2160.00
03424             248.00    -2080.00
03425             256.00    -2080.00
03426             232.00    -2160.00
03427             248.00    -2080.00
03428             256.00    -2080.00
03429             256.00    -2080.00
03430             256.00    -2080.00
03431             264.00    -2080.00
03432             264.00    -2080.00
03433             256.00    -2080.00
03434             264.00    -2080.00
03435             280.00    -2000.00
03436             272.00    -2080.00
03437             272.00    -2080.00
03438             280.00    -2080.00
03439             288.00    -2000.00
03440             280.00    -2000.00
03441             272.00    -2000.00
03442             272.00    -2000.00
03443             280.00    -2000.00
03444             280.00    -2000.00
03445             280.00    -2000.00
03446             280.00    -1920.00
03447             264.00    -1920.00
03448             264.00    -1920.00
03449             280.00    -1840.00
03450             264.00    -1840.00
03451             264.00    -1840.00
03452             264.00    -1840.00
03453             264.00    -1840.00
03454             264.00    -1760.00
03455             256.00    -1760.00
03456             256.00    -1760.00
03457             264.00    -1760.00
03458             256.00    -1760.00
03459             256.00    -1680.00
03460             248.00    -1680.00
03461             248.00    -1680.00
03462             248.00    -1680.00
03463             248.00    -1600.00
03464             240.00    -1520.00
03465             224.00    -1440.00
03466             224.00    -1520.00
03467             224.00    -1440.00
03468             224.00    -1440.00
03469             216.00    -1440.00
03470             216.00    -1440.00
03471             216.00    -1360.00
03472             216.00    -1360.00
03473             208.00    -1360.00
03474             200.00    -1200.00
03475             192.00    -1200.00
03476             192.00    -1200.00
03477             192.00    -1200.00
03478             184.00    -1120.00
03479             184.00    -1120.00
03480             176.00    -1040.00
03481             160.00    -1040.00
03482             184.00    -1040.00
03483             160.00    -1040.00
03484             160.00     -960.00
03485             152.00     -880.00
03486             152.00     -880.00
03487             144.00     -800.00
03488             136.00     -800.00
03489             136.00     -800.00
03490             128.00     -720.00
03491             128.00     -640.00
03492             128.00     -560.00
03493             120.00     -560.00
03494             104.00     -560.00
03495             104.00     -560.00
03496             104.00     -400.00
03497             104.00     -480.00
03498              96.00     -400.00
03499              96.00     -320.00
03500              88.00     -320.00
03501              88.00     -240.00
03502              88.00     -240.00
03503              72.00     -160.00
03504              72.00     -160.00
03505              64.00      -80.00
03506              64.00      -80.00
03507              64.00        0.00
03508              64.00      -80.00
03509              64.00        0.00
03510              64.00       80.00
03511              64.00       80.00
03512              64.00      160.00
03513              56.00      160.00
03514              56.00      240.00
03515              56.00      240.00
03516             168.00      320.00
03517             280.00      400.00
03518             -96.00      400.00
03519            -232.00      400.00
03520              56.00      400.00
03521             296.00      560.00
03522            -216.00      560.00
03523            -456.00      480.00
03524              32.00      560.00
03525             384.00      800.00
03526            -112.00      640.00
03527            -360.00      560.00
03528             128.00      800.00
03529             312.00      880.00
03530            -216.00      800.00
03531            -288.00      800.00
03532             192.00      960.00
03533             160.00     1040.00
03534            -280.00      880.00
03535            -168.00      960.00
03536             192.00     1200.00
03537             -24.00     1120.00
03538            -264.00     1040.00
03539              -8.00     1200.00
03540             120.00     1360.00
03541            -176.00     1280.00
03542            -200.00     1200.00
03543              64.00     1360.00
03544              -8.00     1440.00
03545            -232.00     1280.00
03546             -96.00     1360.00
03547              40.00     1520.00
03548            -128.00     1440.00
03549            -200.00     1440.00
03550             -40.00     1520.00
03551             -40.00     1680.00
03552            -168.00     1520.00
03553            -152.00     1600.00
03554             -56.00     1680.00
03555            -104.00     1680.00
03556            -168.00     1600.00
03557            -120.00     1680.00
03558             -80.00     1760.00
03559            -152.00     1680.00
03560            -168.00     1760.00
03561            -128.00     1760.00
03562            -128.00     1840.00
03563            -160.00     1840.00
03564            -152.00     1840.00
03565            -128.00     1920.00
03566            -168.00     1920.00
03567            -184.00     2000.00
03568            -152.00     2000.00
03569            -160.00     2000.00
03570            -192.00     2000.00
03571            -176.00     2000.00
03572            -168.00     2000.00
03573            -176.00     2000.00
03574            -192.00     2080.00
03575            -192.00     2080.00
03576            -192.00     2080.00
03577            -192.00     2000.00
03578            -200.00     2160.00
03579            -216.00     2080.00
03580            -200.00     2160.00
03581            -216.00     2160.00
03582            -216.00     2080.00
03583            -200.00     2160.00
03584            -216.00     2160.00
03585            -232.00     2240.00
03586            -224.00     2160.00
03587            -224.00     2160.00
03588            -240.00     2240.00
03589            -248.00     2160.00
03590            -232.00     2240.00
03591            -232.00     2160.00
03592            -256.00     2240.00
03593            -256.00     2160.00
03594            -248.00     2160.00
03595            -264.00     2160.00
03596            -264.00     2240.00
03597            -248.00     2160.00
03598            -264.00     2240.00
03599            -272.00     2160.00
03600            -264.00     2160.00
03601            -256.00     2240.00
03602            -272.00     2160.00
03603            -288.00     2080.00
03604            -264.00     2160.00
03605            -264.00     2160.00
03606            -280.00     2080.00
03607            -280.00     2080.00
03608            -280.00     2080.00
03609            -280.00     2080.00
03610            -280.00     2080.00
03611            -272.00     2080.00
03612            -280.00     2080.00
03613            -288.00     2000.00
03614            -272.00     2000.00
03615            -264.00     2000.00
03616            -272.00     2000.00
03617            -288.00     1920.00
03618            -264.00     1840.00
03619            -264.00     1920.00
03620            -264.00     1840.00
03621            -264.00     1840.00
03622            -264.00     1760.00
03623            -256.00     1840.00
03624            -264.00     1760.00
03625            -256.00     1760.00
03626            -256.00     1760.00
03627            -256.00     1680.00
03628            -256.00     1760.00
03629            -232.00     1680.00
03630            -248.00     1600.00
03631            -248.00     1680.00
03632            -232.00     1600.00
03633            -224.00     1520.00
03634            -224.00     1520.00
03635            -224.00     1440.00
03636            -232.00     1520.00
03637            -216.00     1440.00
03638            -216.00     1440.00
03639            -216.00     1360.00
03640            -200.00     1360.00
03641            -216.00     1360.00
03642            -200.00     1360.00
03643            -192.00     1280.00
03644            -192.00     1200.00
03645            -192.00     1200.00
03646            -184.00     1200.00
03647            -168.00     1120.00
03648            -168.00     1120.00
03649            -184.00     1040.00
03650            -168.00      960.00
03651            -168.00     1040.00
03652            -160.00      960.00
03653            -160.00      880.00
03654            -136.00      880.00
03655            -136.00      800.00
03656            -136.00      720.00
03657            -120.00      720.00
03658            -128.00      720.00
03659            -128.00      720.00
03660            -128.00      640.00
03661            -128.00      640.00
03662            -104.00      560.00
03663            -104.00      480.00
03664            -104.00      480.00
03665             -96.00      480.00
03666             -88.00      400.00
03667             -88.00      400.00
03668             -88.00      240.00
03669             -88.00      240.00
03670             -80.00      240.00
03671             -72.00      240.00
03672             -72.00      240.00
03673             -64.00      160.00
03674             -56.00       80.00
03675             -40.00       80.00
03676             -40.00       80.00
03677             -32.00        0.00
03678              -8.00      -80.00
03679              -8.00      -80.00
03680              -8.00     -160.00
03681              -8.00     -160.00
03682              -8.00     -160.00
03683              96.00     -240.00
03684             280.00     -320.00
03685             -72.00     -320.00
03686            -296.00     -240.00
03687             -72.00     -480.00
03688             328.00     -400.00
03689              56.00     -480.00
03690            -408.00     -480.00
03691            -200.00     -640.00
03692             280.00     -640.00
03693             152.00     -560.00
03694            -232.00     -720.00
03695             -64.00     -800.00
03696             296.00     -800.00
03697             128.00     -720.00
03698            -184.00     -880.00
03699              24.00     -960.00
03700             200.00     -800.00
03701              24.00     -880.00
03702             -56.00    -1120.00
03703             120.00    -1040.00
03704              88.00     -960.00
03705             -32.00    -1120.00
03706              88.00    -1200.00
03707             184.00    -1120.00
03708              24.00    -1200.00
03709              -8.00    -1360.00
03710             168.00    -1200.00
03711             152.00    -1200.00
03712              -8.00    -1360.00
03713              40.00    -1440.00
03714             192.00    -1360.00
03715             120.00    -1360.00
03716              24.00    -1440.00
03717             104.00    -1520.00
03718             160.00    -1440.00
03719              96.00    -1520.00
03720              72.00    -1600.00
03721             128.00    -1520.00
03722             152.00    -1520.00
03723              96.00    -1680.00
03724             120.00    -1680.00
03725             160.00    -1680.00
03726             128.00    -1760.00
03727             104.00    -1760.00
03728             152.00    -1760.00
03729             160.00    -1760.00
03730             128.00    -1840.00
03731             152.00    -1840.00
03732             184.00    -1760.00
03733             152.00    -1840.00
03734             136.00    -1920.00
03735             176.00    -1840.00
03736             184.00    -1840.00
03737             168.00    -2000.00
03738             176.00    -2000.00
03739             184.00    -2000.00
03740             184.00    -2000.00
03741             192.00    -1920.00
03742             192.00    -2000.00
03743             192.00    -2000.00
03744             200.00    -2000.00
03745             200.00    -2080.00
03746             200.00    -2080.00
03747             208.00    -2000.00
03748             200.00    -2080.00
03749             216.00    -2080.00
03750             224.00    -2080.00
03751             224.00    -2080.00
03752             216.00    -2080.00
03753             224.00    -2160.00
03754             240.00    -2080.00
03755             232.00    -2080.00
03756             232.00    -2080.00
03757             248.00    -2080.00
03758             256.00    -2080.00
03759             248.00    -2080.00
03760             248.00    -2080.00
03761             256.00    -2080.00
03762             256.00    -2080.00
03763             248.00    -2160.00
03764             264.00    -2080.00
03765             264.00    -2080.00
03766             256.00    -2080.00
03767             256.00    -2080.00
03768             280.00    -2080.00
03769             280.00    -2080.00
03770             256.00    -2080.00
03771             272.00    -2080.00
03772             280.00    -2000.00
03773             280.00    -2000.00
03774             280.00    -2080.00
03775             280.00    -2000.00
03776             280.00    -2000.00
03777             264.00    -2000.00
03778             280.00    -2000.00
03779             280.00    -1920.00
03780             264.00    -1920.00
03781             280.00    -2000.00
03782             280.00    -1840.00
03783             264.00    -1840.00
03784             272.00    -1840.00
03785             264.00    -1840.00
03786             264.00    -1840.00
03787             264.00    -1840.00
03788             264.00    -1760.00
03789             256.00    -1760.00
03790             264.00    -1760.00
03791             256.00    -1760.00
03792             248.00    -1680.00
03793             248.00    -1680.00
03794             248.00    -1680.00
03795             248.00    -1680.00
03796             248.00    -1680.00
03797             240.00    -1520.00
03798             248.00    -1520.00
03799             224.00    -1520.00
03800             224.00    -1440.00
03801             224.00    -1440.00
03802             224.00    -1440.00
03803             216.00    -1360.00
03804             216.00    -1440.00
03805             216.00    -1360.00
03806             200.00    -1360.00
03807             200.00    -1360.00
03808             200.00    -1200.00
03809             192.00    -1200.00
03810             192.00    -1200.00
03811             192.00    -1200.00
03812             184.00    -1120.00
03813             168.00    -1120.00
03814             168.00    -1040.00
03815             168.00    -1040.00
03816             168.00     -960.00
03817             152.00     -880.00
03818             160.00     -880.00
03819             152.00     -880.00
03820             136.00     -800.00
03821             144.00     -720.00
03822             136.00     -800.00
03823             128.00     -720.00
03824             128.00     -720.00
03825             128.00     -720.00
03826             120.00     -560.00
03827             120.00     -560.00
03828             104.00     -480.00
03829             120.00     -480.00
03830             104.00     -480.00
03831              96.00     -400.00
03832              88.00     -320.00
03833              88.00     -400.00
03834              88.00     -320.00
03835              88.00     -240.00
03836              72.00     -240.00
03837              64.00     -160.00
03838              64.00     -160.00
03839              64.00      -80.00
03840              64.00      -80.00
03841              64.00        0.00
03842              64.00        0.00
03843              64.00       80.00
03844              64.00       80.00
03845              64.00      160.00
03846              56.00      240.00
03847              56.00      240.00
03848              56.00      240.00
03849             128.00      240.00
03850             288.00      400.00
03851              -8.00      400.00
03852            -232.00      400.00
03853             -24.00      400.00
03854             312.00      560.00
03855            -104.00      560.00
03856            -464.00      480.00
03857            -104.00      560.00
03858             392.00      800.00
03859               0.00      800.00
03860            -376.00      560.00
03861              24.00      720.00
03862             360.00     1040.00
03863            -112.00      880.00
03864            -336.00      720.00
03865             104.00     1040.00
03866             224.00     1120.00
03867            -224.00      880.00
03868            -232.00      880.00
03869             152.00     1200.00
03870              64.00     1200.00
03871            -256.00     1040.00
03872             -72.00     1120.00
03873             136.00     1360.00
03874            -120.00     1280.00
03875            -232.00     1200.00
03876              24.00     1280.00
03877              32.00     1440.00
03878            -216.00     1360.00
03879            -152.00     1360.00
03880              40.00     1440.00
03881             -88.00     1520.00
03882            -200.00     1440.00
03883             -64.00     1520.00
03884             -16.00     1680.00
03885            -152.00     1520.00
03886            -168.00     1520.00
03887             -64.00     1760.00
03888             -96.00     1760.00
03889            -168.00     1680.00
03890            -136.00     1680.00
03891             -80.00     1760.00
03892            -128.00     1760.00
03893            -168.00     1680.00
03894            -136.00     1840.00
03895            -112.00     1840.00
03896            -160.00     1840.00
03897            -160.00     1840.00
03898            -136.00     2000.00
03899            -160.00     1840.00
03900            -192.00     1920.00
03901            -160.00     2000.00
03902            -152.00     2000.00
03903            -184.00     2000.00
03904            -184.00     2080.00
03905            -168.00     2000.00
03906            -176.00     2080.00
03907            -192.00     2080.00
03908            -192.00     2000.00
03909            -192.00     2080.00
03910            -192.00     2080.00
03911            -200.00     2080.00
03912            -200.00     2080.00
03913            -200.00     2080.00
03914            -216.00     2160.00
03915            -224.00     2160.00
03916            -208.00     2160.00
03917            -216.00     2240.00
03918            -232.00     2160.00
03919            -224.00     2160.00
03920            -224.00     2240.00
03921            -232.00     2160.00
03922            -256.00     2240.00
03923            -232.00     2160.00
03924            -232.00     2240.00
03925            -248.00     2160.00
03926            -256.00     2240.00
03927            -248.00     2160.00
03928            -256.00     2160.00
03929            -264.00     2240.00
03930            -248.00     2160.00
03931            -256.00     2240.00
03932            -272.00     2080.00
03933            -280.00     2080.00
03934            -256.00     2240.00
03935            -264.00     2160.00
03936            -280.00     2160.00
03937            -272.00     2160.00
03938            -264.00     2080.00
03939            -280.00     2080.00
03940            -280.00     2080.00
03941            -264.00     2080.00
03942            -280.00     2080.00
03943            -280.00     2000.00
03944            -264.00     2080.00
03945            -280.00     2080.00
03946            -280.00     2000.00
03947            -280.00     2000.00
03948            -264.00     2000.00
03949            -264.00     2000.00
03950            -272.00     2000.00
03951            -264.00     1840.00
03952            -280.00     1920.00
03953            -264.00     1840.00
03954            -264.00     1920.00
03955            -264.00     1760.00
03956            -264.00     1840.00
03957            -256.00     1760.00
03958            -256.00     1760.00
03959            -256.00     1760.00
03960            -256.00     1680.00
03961            -248.00     1680.00
03962            -232.00     1680.00
03963            -248.00     1680.00
03964            -248.00     1600.00
03965            -232.00     1520.00
03966            -232.00     1520.00
03967            -232.00     1520.00
03968            -224.00     1520.00
03969            -224.00     1520.00
03970            -216.00     1440.00
03971            -216.00     1440.00
03972            -216.00     1360.00
03973            -216.00     1360.00
03974            -200.00     1360.00
03975            -208.00     1280.00
03976            -192.00     1280.00
03977            -184.00     1200.00
03978            -192.00     1200.00
03979            -192.00     1200.00
03980            -168.00     1200.00
03981            -160.00     1120.00
03982            -168.00     1040.00
03983            -184.00     1040.00
03984            -168.00     1040.00
03985            -160.00      960.00
03986            -168.00      880.00
03987            -152.00      880.00
03988            -128.00      800.00
03989            -136.00      800.00
03990            -128.00      720.00
03991            -120.00      720.00
03992            -120.00      720.00
03993            -128.00      640.00
03994            -120.00      640.00
03995            -112.00      560.00
03996            -104.00      560.00
03997            -104.00      480.00
03998             -96.00      480.00
03999             -88.00      400.00
04000             -88.00      400.00
04001             -88.00      400.00
04002             -80.00      320.00
04003             -72.00      240.00
04004             -64.00      240.00
04005             -64.00      240.00
04006             -56.00      160.00
04007             -56.00       80.00
04008             -56.00       80.00
04009             -40.00       80.00
04010             -32.00        0.00
04011             -16.00      -80.00
04012              -8.00      -80.00
04013              -8.00      -80.00
04014              -8.00     -160.00
04015             -16.00     -240.00
04016              64.00     -160.00
04017             264.00     -320.00
04018              24.00     -400.00
04019            -296.00     -240.00
04020            -152.00     -400.00
04021             280.00     -480.00
04022             168.00     -480.00
04023            -360.00     -480.00
04024            -288.00     -560.00
04025             216.00     -720.00
04026             224.00     -480.00
04027            -192.00     -720.00
04028            -136.00     -800.00
04029             256.00     -800.00
04030             200.00     -720.00
04031            -160.00     -880.00
04032             -40.00     -960.00
04033             200.00     -800.00
04034              64.00     -880.00
04035             -64.00    -1040.00
04036              88.00    -1040.00
04037             112.00     -960.00
04038             -24.00    -1040.00
04039              40.00    -1200.00
04040             184.00    -1120.00
04041              64.00    -1120.00
04042             -32.00    -1280.00
04043             136.00    -1280.00
04044             184.00    -1200.00
04045               0.00    -1280.00
04046               8.00    -1440.00
04047             160.00    -1360.00
04048             144.00    -1360.00
04049              24.00    -1520.00
04050              72.00    -1520.00
04051             168.00    -1520.00
04052             120.00    -1520.00
04053              64.00    -1600.00
04054             120.00    -1520.00
04055             152.00    -1520.00
04056             104.00    -1680.00
04057             112.00    -1680.00
04058             152.00    -1680.00
04059             128.00    -1760.00
04060             104.00    -1760.00
04061             152.00    -1760.00
04062             160.00    -1760.00
04063             128.00    -1840.00
04064             136.00    -1840.00
04065             184.00    -1840.00
04066             160.00    -1840.00
04067             136.00    -1840.00
04068             160.00    -1920.00
04069             192.00    -1840.00
04070             168.00    -2000.00
04071             168.00    -2000.00
04072             184.00    -2000.00
04073             184.00    -2000.00
04074             184.00    -2000.00
04075             192.00    -2000.00
04076             192.00    -2000.00
04077             192.00    -2000.00
04078             216.00    -2080.00
04079             200.00    -2080.00
04080             200.00    -2080.00
04081             216.00    -2000.00
04082             216.00    -2080.00
04083             232.00    -2080.00
04084             224.00    -2080.00
04085             216.00    -2080.00
04086             216.00    -2080.00
04087             232.00    -2080.00
04088             232.00    -2080.00
04089             224.00    -2160.00
04090             240.00    -2080.00
04091             256.00    -2080.00
04092             248.00    -2160.00
04093             248.00    -2160.00
04094             256.00    -2080.00
04095             256.00    -2080.00
04096             248.00    -2080.00
04097             256.00    -2160.00
04098             272.00    -2080.00
04099             256.00    -2080.00
04100             256.00    -2080.00
04101             264.00    -2080.00
04102             272.00    -2000.00
04103             264.00    -2080.00
04104             264.00    -2080.00
04105             288.00    -2000.00
04106             280.00    -2000.00
04107             264.00    -2000.00
04108             280.00    -2000.00
04109             280.00    -2000.00
04110             280.00    -2000.00
04111             272.00    -2000.00
04112             280.00    -2000.00
04113             264.00    -2000.00
04114             264.00    -1920.00
04115             280.00    -1920.00
04116             280.00    -1840.00
04117             264.00    -1840.00
04118             264.00    -1840.00
04119             264.00    -1840.00
04120             264.00    -1840.00
04121             256.00    -1760.00
04122             264.00    -1760.00
04123             256.00    -1760.00
04124             256.00    -1680.00
04125             256.00    -1760.00
04126             256.00    -1760.00
04127             248.00    -1680.00
04128             248.00    -1600.00
04129             248.00    -1600.00
04130             248.00    -1680.00
04131             248.00    -1520.00
04132             224.00    -1520.00
04133             224.00    -1440.00
04134             224.00    -1440.00
04135             224.00    -1440.00
04136             216.00    -1440.00
04137             216.00    -1360.00
04138             216.00    -1360.00
04139             216.00    -1360.00
04140             200.00    -1280.00
04141             200.00    -1280.00
04142             192.00    -1200.00
04143             192.00    -1200.00
04144             192.00    -1120.00
04145             184.00    -1120.00
04146             168.00    -1040.00
04147             168.00    -1040.00
04148             168.00    -1040.00
04149             168.00     -960.00
04150             160.00     -960.00
04151             160.00     -880.00
04152             152.00     -880.00
04153             144.00     -800.00
04154             136.00     -800.00
04155             136.00     -800.00
04156             128.00     -720.00
04157             120.00     -720.00
04158             128.00     -640.00
04159             120.00     -560.00
04160             104.00     -640.00
04161             104.00     -560.00
04162             104.00     -480.00
04163             104.00     -480.00
04164              96.00     -480.00
04165              88.00     -320.00
04166              96.00     -320.00
04167              80.00     -240.00
04168              88.00     -240.00
04169              88.00     -160.00
04170              64.00     -160.00
04171              64.00     -160.00
04172              64.00      -80.00
04173              64.00      -80.00
04174              64.00        0.00
04175              64.00       80.00
04176              56.00       80.00
04177              64.00       80.00
04178              64.00       80.00
04179              64.00      160.00
04180              40.00      240.00
04181              56.00      240.00
04182             104.00      320.00
04183             288.00      400.00
04184              80.00      400.00
04185            -240.00      400.00
04186             -96.00      400.00
04187             288.00      560.00
04188              24.00      560.00
04189            -448.00      480.00
04190            -224.00      560.00
04191             352.00      720.00
04192             128.00      800.00
04193            -360.00      560.00
04194             -96.00      720.00
04195             360.00      880.00
04196               0.00      880.00
04197            -360.00      720.00
04198               0.00      880.00
04199             280.00     1120.00
04200            -144.00      960.00
04201            -288.00      880.00
04202              88.00     1120.00
04203             128.00     1200.00
04204            -224.00     1120.00
04205            -136.00     1120.00
04206             128.00     1360.00
04207             -56.00     1360.00
04208            -256.00     1200.00
04209             -24.00     1280.00
04210              72.00     1440.00
04211            -184.00     1360.00
04212            -184.00     1360.00
04213              24.00     1440.00
04214             -48.00     1520.00
04215            -216.00     1440.00
04216            -104.00     1520.00
04217               0.00     1680.00
04218            -128.00     1680.00
04219            -176.00     1520.00
04220             -72.00     1680.00
04221             -72.00     1680.00
04222            -160.00     1600.00
04223            -152.00     1680.00
04224             -88.00     1760.00
04225            -120.00     1760.00
04226            -168.00     1760.00
04227            -152.00     1840.00
04228            -120.00     1840.00
04229            -152.00     1760.00
04230            -160.00     1840.00
04231            -136.00     1840.00
04232            -152.00     1920.00
04233            -184.00     1840.00
04234            -160.00     2000.00
04235            -152.00     1920.00
04236            -176.00     2000.00
04237            -192.00     2000.00
04238            -168.00     2000.00
04239            -168.00     2000.00
04240            -184.00     2080.00
04241            -200.00     2080.00
04242            -192.00     2000.00
04243            -192.00     2080.00
04244            -192.00     2080.00
04245            -200.00     2160.00
04246            -208.00     2160.00
04247            -216.00     2240.00
04248            -216.00     2160.00
04249            -216.00     2160.00
04250            -216.00     2160.00
04251            -232.00     2160.00
04252            -232.00     2240.00
04253            -216.00     2160.00
04254            -224.00     2240.00
04255            -240.00     2160.00
04256            -232.00     2160.00
04257            -232.00     2240.00
04258            -256.00     2160.00
04259            -256.00     2240.00
04260            -248.00     2160.00
04261            -256.00     2160.00
04262            -256.00     2240.00
04263            -248.00     2240.00
04264            -256.00     2160.00
04265            -264.00     2160.00
04266            -280.00     2240.00
04267            -256.00     2160.00
04268            -264.00     2240.00
04269            -280.00     2080.00
04270            -272.00     2160.00
04271            -264.00     2160.00
04272            -280.00     2080.00
04273            -280.00     2080.00
04274            -280.00     2080.00
04275            -280.00     2080.00
04276            -280.00     2080.00
04277            -264.00     2080.00
04278            -280.00     2000.00
04279            -288.00     2000.00
04280            -288.00     2000.00
04281            -264.00     2000.00
04282            -272.00     2000.00
04283            -280.00     1920.00
04284            -272.00     1920.00
04285            -264.00     1840.00
04286            -280.00     1840.00
04287            -264.00     1840.00
04288            -264.00     1840.00
04289            -264.00     1840.00
04290            -264.00     1840.00
04291            -256.00     1760.00
04292            -256.00     1760.00
04293            -256.00     1680.00
04294            -256.00     1760.00
04295            -248.00     1680.00
04296            -248.00     1600.00
04297            -248.00     1680.00
04298            -248.00     1520.00
04299            -232.00     1520.00
04300            -232.00     1520.00
04301            -224.00     1440.00
04302            -224.00     1520.00
04303            -224.00     1440.00
04304            -216.00     1440.00
04305            -216.00     1440.00
04306            -200.00     1440.00
04307            -200.00     1360.00
04308            -200.00     1280.00
04309            -192.00     1280.00
04310            -192.00     1200.00
04311            -192.00     1200.00
04312            -184.00     1120.00
04313            -168.00     1120.00
04314            -168.00     1040.00
04315            -168.00     1040.00
04316            -168.00     1040.00
04317            -160.00     1040.00
04318            -160.00      880.00
04319            -160.00      880.00
04320            -160.00      880.00
04321            -136.00      800.00
04322            -128.00      800.00
04323            -128.00      720.00
04324            -120.00      720.00
04325            -120.00      720.00
04326            -128.00      640.00
04327            -128.00      560.00
04328            -104.00      560.00
04329            -104.00      560.00
04330            -104.00      480.00
04331            -104.00      400.00
04332             -96.00      400.00
04333             -88.00      400.00
04334             -72.00      320.00
04335             -72.00      320.00
04336             -72.00      240.00
04337             -88.00      240.00
04338             -72.00      240.00
04339             -64.00      240.00
04340             -56.00       80.00
04341             -40.00       80.00
04342             -40.00        0.00
04343             -24.00      -80.00
04344             -16.00      -80.00
04345              -8.00     -160.00
04346              -8.00     -160.00
04347              -8.00     -160.00
04348              -8.00     -160.00
04349              32.00     -160.00
04350             240.00     -320.00
04351             104.00     -400.00
04352            -280.00     -240.00
04353            -216.00     -320.00
04354             216.00     -480.00
04355             264.00     -480.00
04356            -296.00     -480.00
04357            -360.00     -560.00
04358             120.00     -720.00
04359             288.00     -560.00
04360            -128.00     -560.00
04361            -200.00     -800.00
04362             216.00     -800.00
04363             256.00     -720.00
04364            -104.00     -800.00
04365            -112.00     -960.00
04366             184.00     -880.00
04367             104.00     -800.00
04368             -64.00    -1040.00
04369              56.00    -1120.00
04370             128.00    -1040.00
04371              -8.00    -1040.00
04372               8.00    -1120.00
04373             184.00    -1120.00
04374              96.00    -1120.00
04375             -32.00    -1280.00
04376              88.00    -1280.00
04377             192.00    -1200.00
04378              32.00    -1280.00
04379              -8.00    -1440.00
04380             136.00    -1440.00
04381             160.00    -1360.00
04382              32.00    -1440.00
04383              56.00    -1520.00
04384             160.00    -1440.00
04385             128.00    -1520.00
04386              72.00    -1680.00
04387             104.00    -1600.00
04388             152.00    -1520.00
04389             104.00    -1680.00
04390              96.00    -1680.00
04391             152.00    -1680.00
04392             152.00    -1680.00
04393             120.00    -1760.00
04394             136.00    -1760.00
04395             160.00    -1760.00
04396             136.00    -1840.00
04397             136.00    -1840.00
04398             184.00    -1840.00
04399             168.00    -1840.00
04400             136.00    -1840.00
04401             152.00    -1840.00
04402             184.00    -1840.00
04403             168.00    -2000.00
04404             168.00    -1920.00
04405             184.00    -2000.00
04406             184.00    -2000.00
04407             184.00    -2000.00
04408             192.00    -2000.00
04409             192.00    -2000.00
04410             192.00    -2080.00
04411             200.00    -2080.00
04412             200.00    -2000.00
04413             216.00    -2080.00
04414             208.00    -2080.00
04415             216.00    -2080.00
04416             216.00    -2080.00
04417             224.00    -2160.00
04418             216.00    -2080.00
04419             216.00    -2080.00
04420             224.00    -2160.00
04421             232.00    -2080.00
04422             224.00    -2160.00
04423             232.00    -2080.00
04424             248.00    -2080.00
04425             256.00    -2160.00
04426             232.00    -2080.00
04427             248.00    -2160.00
04428             256.00    -2080.00
04429             248.00    -2160.00
04430             256.00    -2080.00
04431             264.00    -2080.00
04432             264.00    -2080.00
04433             256.00    -2080.00
04434             264.00    -2080.00
04435             280.00    -2080.00
04436             264.00    -2000.00
04437             264.00    -2080.00
04438             280.00    -2080.00
04439             280.00    -2080.00
04440             280.00    -2000.00
04441             280.00    -2000.00
04442             280.00    -2000.00
04443             280.00    -2000.00
04444             280.00    -2000.00
04445             280.00    -2000.00
04446             272.00    -1920.00
04447             264.00    -2000.00
04448             264.00    -2000.00
04449             280.00    -1920.00
04450             280.00    -1840.00
04451             264.00    -1840.00
04452             264.00    -1840.00
04453             264.00    -1840.00
04454             256.00    -1840.00
04455             256.00    -1760.00
04456             264.00    -1760.00
04457             256.00    -1760.00
04458             256.00    -1680.00
04459             248.00    -1680.00
04460             248.00    -1600.00
04461             248.00    -1680.00
04462             248.00    -1600.00
04463             248.00    -1600.00
04464             232.00    -1520.00
04465             224.00    -1520.00
04466             224.00    -1520.00
04467             232.00    -1520.00
04468             224.00    -1440.00
04469             216.00    -1440.00
04470             216.00    -1360.00
04471             216.00    -1360.00
04472             216.00    -1280.00
04473             216.00    -1280.00
04474             192.00    -1200.00
04475             192.00    -1200.00
04476             192.00    -1200.00
04477             192.00    -1120.00
04478             184.00    -1200.00
04479             168.00    -1120.00
04480             168.00    -1120.00
04481             168.00    -1040.00
04482             168.00     -960.00
04483             160.00     -960.00
04484             152.00     -960.00
04485             152.00     -880.00
04486             136.00     -880.00
04487             136.00     -800.00
04488             136.00     -720.00
04489             128.00     -720.00
04490             128.00     -720.00
04491             128.00     -720.00
04492             120.00     -560.00
04493             112.00     -560.00
04494             104.00     -560.00
04495             104.00     -480.00
04496             104.00     -480.00
04497              96.00     -400.00
04498              96.00     -400.00
04499              88.00     -400.00
04500              80.00     -320.00
04501              72.00     -240.00
04502              72.00     -240.00
04503              72.00     -160.00
04504              64.00     -160.00
04505              64.00      -80.00
04506              64.00      -80.00
04507              64.00        0.00
04508              56.00       80.00
04509              64.00       80.00
04510              64.00       80.00
04511              64.00      160.00
04512              64.00      160.00
04513              56.00      160.00
04514              48.00      240.00
04515              80.00      240.00
04516             264.00      320.00
04517             160.00      400.00
04518            -216.00      400.00
04519            -160.00      400.00
04520             232.00      480.00
04521             136.00      560.00
04522            -400.00      480.00
04523            -320.00      480.00
04524             288.00      640.00
04525             248.00      800.00
04526            -320.00      640.00
04527            -192.00      640.00
04528             328.00      880.00
04529             120.00      880.00
04530            -352.00      800.00
04531            -104.00      800.00
04532             280.00     1040.00
04533             -40.00     1040.00
04534            -312.00      880.00
04535              16.00     1040.00
04536             168.00     1200.00
04537            -168.00     1120.00
04538            -200.00     1120.00
04539             104.00     1200.00
04540              16.00     1280.00
04541            -256.00     1200.00
04542             -80.00     1200.00
04543              88.00     1440.00
04544            -128.00     1360.00
04545            -216.00     1360.00
04546              -8.00     1440.00
04547              -8.00     1600.00
04548            -192.00     1520.00
04549            -152.00     1440.00
04550              -8.00     1680.00
04551            -104.00     1680.00
04552            -192.00     1520.00
04553            -104.00     1680.00
04554             -64.00     1760.00
04555            -160.00     1680.00
04556            -168.00     1680.00
04557            -104.00     1760.00
04558            -104.00     1760.00
04559            -168.00     1760.00
04560            -160.00     1840.00
04561            -104.00     1840.00
04562            -144.00     1760.00
04563            -168.00     1840.00
04564            -136.00     1920.00
04565            -152.00     1840.00
04566            -192.00     1920.00
04567            -168.00     2000.00
04568            -144.00     2000.00
04569            -168.00     2000.00
04570            -200.00     2000.00
04571            -184.00     2000.00
04572            -168.00     2000.00
04573            -192.00     2080.00
04574            -192.00     2000.00
04575            -184.00     2080.00
04576            -192.00     2080.00
04577            -192.00     2080.00
04578            -208.00     2080.00
04579            -216.00     2160.00
04580            -200.00     2080.00
04581            -216.00     2160.00
04582            -200.00     2080.00
04583            -208.00     2160.00
04584            -232.00     2240.00
04585            -232.00     2160.00
04586            -224.00     2240.00
04587            -224.00     2160.00
04588            -248.00     2160.00
04589            -240.00     2160.00
04590            -232.00     2240.00
04591            -232.00     2240.00
04592            -256.00     2160.00
04593            -248.00     2160.00
04594            -256.00     2080.00
04595            -256.00     2240.00
04596            -256.00     2160.00
04597            -248.00     2240.00
04598            -264.00     2160.00
04599            -272.00     2160.00
04600            -256.00     2240.00
04601            -256.00     2080.00
04602            -280.00     2160.00
04603            -280.00     2080.00
04604            -264.00     2080.00
04605            -280.00     2160.00
04606            -280.00     2080.00
04607            -264.00     2080.00
04608            -280.00     2080.00
04609            -280.00     2080.00
04610            -272.00     2080.00
04611            -280.00     2080.00
04612            -280.00     2000.00
04613            -272.00     2000.00
04614            -264.00     2000.00
04615            -264.00     1920.00
04616            -280.00     1920.00
04617            -288.00     1920.00
04618            -272.00     1840.00
04619            -264.00     1920.00
04620            -272.00     1840.00
04621            -264.00     1840.00
04622            -264.00     1760.00
04623            -264.00     1840.00
04624            -256.00     1760.00
04625            -264.00     1760.00
04626            -264.00     1680.00
04627            -256.00     1680.00
04628            -256.00     1680.00
04629            -248.00     1680.00
04630            -248.00     1680.00
04631            -232.00     1600.00
04632            -232.00     1520.00
04633            -232.00     1520.00
04634            -232.00     1520.00
04635            -232.00     1440.00
04636            -224.00     1520.00
04637            -216.00     1440.00
04638            -216.00     1440.00
04639            -200.00     1360.00
04640            -200.00     1360.00
04641            -200.00     1280.00
04642            -192.00     1280.00
04643            -192.00     1200.00
04644            -192.00     1200.00
04645            -184.00     1200.00
04646            -168.00     1200.00
04647            -160.00     1120.00
04648            -160.00     1120.00
04649            -168.00     1040.00
04650            -168.00     1040.00
04651            -160.00      960.00
04652            -160.00      880.00
04653            -152.00      880.00
04654            -136.00      880.00
04655            -128.00      800.00
04656            -128.00      800.00
04657            -120.00      720.00
04658            -120.00      720.00
04659            -128.00      720.00
04660            -128.00      640.00
04661            -112.00      560.00
04662            -104.00      560.00
04663            -104.00      480.00
04664            -104.00      480.00
04665             -96.00      400.00
04666             -72.00      400.00
04667             -88.00      400.00
04668             -72.00      320.00
04669             -72.00      240.00
04670             -72.00      240.00
04671             -72.00      160.00
04672             -64.00      160.00
04673             -64.00      160.00
04674             -56.00       80.00
04675             -40.00       80.00
04676             -32.00        0.00
04677             -24.00      -80.00
04678              -8.00      -80.00
04679             -24.00     -160.00
04680              -8.00     -160.00
04681              -8.00     -160.00
04682               8.00     -240.00
04683             192.00     -320.00
04684             184.00     -400.00
04685            -240.00     -240.00
04686            -256.00     -320.00
04687             120.00     -480.00
04688             328.00     -480.00
04689            -200.00     -480.00
04690            -408.00     -480.00
04691               8.00     -720.00
04692             320.00     -560.00
04693             -40.00     -640.00
04694            -240.00     -800.00
04695             128.00     -800.00
04696             288.00     -720.00
04697             -40.00     -800.00
04698            -152.00     -960.00
04699             136.00     -960.00
04700             136.00     -880.00
04701             -40.00     -960.00
04702              16.00    -1120.00
04703             152.00    -1040.00
04704               8.00    -1040.00
04705              -8.00    -1120.00
04706             160.00    -1200.00
04707             128.00    -1120.00
04708             -24.00    -1200.00
04709              56.00    -1360.00
04710             200.00    -1200.00
04711              72.00    -1280.00
04712             -24.00    -1440.00
04713             120.00    -1360.00
04714             192.00    -1360.00
04715              56.00    -1440.00
04716              32.00    -1600.00
04717             144.00    -1440.00
04718             152.00    -1440.00
04719              88.00    -1600.00
04720              88.00    -1680.00
04721             152.00    -1520.00
04722             128.00    -1680.00
04723              96.00    -1680.00
04724             152.00    -1680.00
04725             152.00    -1680.00
04726             120.00    -1760.00
04727             128.00    -1760.00
04728             160.00    -1760.00
04729             152.00    -1840.00
04730             128.00    -1840.00
04731             168.00    -1840.00
04732             184.00    -1840.00
04733             136.00    -1840.00
04734             152.00    -1840.00
04735             184.00    -1840.00
04736             176.00    -1920.00
04737             160.00    -2000.00
04738             184.00    -2000.00
04739             184.00    -2000.00
04740             184.00    -2000.00
04741             192.00    -2000.00
04742             192.00    -2000.00
04743             192.00    -2000.00
04744             200.00    -2080.00
04745             200.00    -2000.00
04746             200.00    -2080.00
04747             200.00    -2080.00
04748             208.00    -2080.00
04749             216.00    -2080.00
04750             224.00    -2080.00
04751             224.00    -2080.00
04752             216.00    -2160.00
04753             224.00    -2160.00
04754             240.00    -2080.00
04755             224.00    -2080.00
04756             232.00    -2080.00
04757             248.00    -2080.00
04758             248.00    -2160.00
04759             232.00    -2160.00
04760             248.00    -2160.00
04761             248.00    -2080.00
04762             248.00    -2080.00
04763             256.00    -2160.00
04764             264.00    -2080.00
04765             264.00    -2080.00
04766             256.00    -2000.00
04767             256.00    -2080.00
04768             264.00    -2080.00
04769             264.00    -2080.00
04770             264.00    -2000.00
04771             280.00    -2080.00
04772             280.00    -2080.00
04773             264.00    -2000.00
04774             272.00    -2080.00
04775             280.00    -2000.00
04776             280.00    -2000.00
04777             280.00    -2000.00
04778             280.00    -2000.00
04779             280.00    -1920.00
04780             272.00    -1840.00
04781             280.00    -1920.00
04782             280.00    -1840.00
04783             280.00    -1840.00
04784             264.00    -1840.00
04785             264.00    -1840.00
04786             272.00    -1840.00
04787             264.00    -1840.00
04788             264.00    -1840.00
04789             256.00    -1760.00
04790             264.00    -1760.00
04791             256.00    -1760.00
04792             248.00    -1680.00
04793             256.00    -1680.00
04794             248.00    -1600.00
04795             248.00    -1680.00
04796             248.00    -1600.00
04797             248.00    -1520.00
04798             240.00    -1520.00
04799             224.00    -1520.00
04800             224.00    -1440.00
04801             224.00    -1440.00
04802             216.00    -1440.00
04803             216.00    -1440.00
04804             216.00    -1360.00
04805             216.00    -1360.00
04806             200.00    -1280.00
04807             200.00    -1280.00
04808             200.00    -1200.00
04809             184.00    -1200.00
04810             192.00    -1200.00
04811             192.00    -1120.00
04812             168.00    -1120.00
04813             160.00    -1120.00
04814             160.00    -1040.00
04815             160.00    -1040.00
04816             160.00    -1040.00
04817             160.00     -880.00
04818             152.00     -880.00
04819             136.00     -960.00
04820             128.00     -800.00
04821             128.00     -800.00
04822             128.00     -800.00
04823             128.00     -720.00
04824             128.00     -640.00
04825             128.00     -640.00
04826             104.00     -560.00
04827             104.00     -560.00
04828             104.00     -480.00
04829             104.00     -480.00
04830             104.00     -320.00
04831              96.00     -320.00
04832              88.00     -400.00
04833              88.00     -320.00
04834              88.00     -240.00
04835              72.00     -240.00
04836              72.00     -240.00
04837              64.00     -160.00
04838              64.00      -80.00
04839              64.00        0.00
04840              64.00      -80.00
04841              64.00        0.00
04842              64.00       80.00
04843              72.00       80.00
04844              72.00      160.00
04845              56.00      160.00
04846              40.00      240.00
04847              56.00      240.00
04848              64.00      240.00
04849             224.00      320.00
04850             240.00      400.00
04851            -168.00      400.00
04852            -200.00      400.00
04853             136.00      400.00
04854             232.00      640.00
04855            -320.00      560.00
04856            -392.00      480.00
04857             168.00      560.00
04858             328.00      800.00
04859            -248.00      640.00
04860            -296.00      560.00
04861             256.00      880.00
04862             232.00      880.00
04863            -304.00      720.00
04864            -200.00      800.00
04865             264.00     1040.00
04866              56.00     1040.00
04867            -304.00      880.00
04868             -72.00     1040.00
04869             192.00     1200.00
04870            -104.00     1120.00
04871            -232.00     1040.00
04872              56.00     1200.00
04873              72.00     1360.00
04874            -224.00     1200.00
04875            -144.00     1200.00
04876              88.00     1440.00
04877             -80.00     1440.00
04878            -232.00     1360.00
04879             -40.00     1440.00
04880              16.00     1520.00
04881            -168.00     1440.00
04882            -168.00     1440.00
04883             -24.00     1520.00
04884             -72.00     1680.00
04885            -192.00     1520.00
04886            -128.00     1520.00
04887             -56.00     1680.00
04888            -136.00     1680.00
04889            -184.00     1600.00
04890            -104.00     1760.00
04891             -96.00     1760.00
04892            -160.00     1760.00
04893            -168.00     1760.00
04894            -120.00     1840.00
04895            -136.00     1840.00
04896            -168.00     1840.00
04897            -136.00     1840.00
04898            -136.00     1840.00
04899            -184.00     1920.00
04900            -168.00     1920.00
04901            -160.00     1920.00
04902            -160.00     2000.00
04903            -192.00     2000.00
04904            -184.00     2080.00
04905            -168.00     2000.00
04906            -184.00     2000.00
04907            -192.00     2080.00
04908            -200.00     2080.00
04909            -184.00     2080.00
04910            -192.00     2080.00
04911            -200.00     2080.00
04912            -208.00     2080.00
04913            -200.00     2160.00
04914            -216.00     2160.00
04915            -216.00     2240.00
04916            -200.00     2160.00
04917            -224.00     2080.00
04918            -240.00     2240.00
04919            -216.00     2160.00
04920            -224.00     2240.00
04921            -248.00     2240.00
04922            -240.00     2160.00
04923            -232.00     2240.00
04924            -232.00     2160.00
04925            -256.00     2240.00
04926            -248.00     2160.00
04927            -248.00     2160.00
04928            -264.00     2240.00
04929            -256.00     2160.00
04930            -248.00     2240.00
04931            -264.00     2160.00
04932            -280.00     2160.00
04933            -264.00     2160.00
04934            -264.00     2160.00
04935            -264.00     2160.00
04936            -280.00     2240.00
04937            -264.00     2080.00
04938            -272.00     2160.00
04939            -280.00     2080.00
04940            -280.00     2080.00
04941            -280.00     2080.00
04942            -280.00     2080.00
04943            -280.00     2000.00
04944            -280.00     2000.00
04945            -288.00     2080.00
04946            -288.00     2000.00
04947            -272.00     2000.00
04948            -280.00     1920.00
04949            -288.00     1920.00
04950            -280.00     1920.00
04951            -264.00     1920.00
04952            -272.00     1840.00
04953            -264.00     1840.00
04954            -264.00     1840.00
04955            -264.00     1760.00
04956            -264.00     1840.00
04957            -264.00     1760.00
04958            -256.00     1760.00
04959            -256.00     1680.00
04960            -256.00     1680.00
04961            -248.00     1680.00
04962            -248.00     1680.00
04963            -240.00     1600.00
04964            -248.00     1520.00
04965            -232.00     1520.00
04966            -232.00     1520.00
04967            -232.00     1520.00
04968            -224.00     1440.00
04969            -216.00     1440.00
04970            -216.00     1440.00
04971            -216.00     1440.00
04972            -216.00     1360.00
04973            -200.00     1360.00
04974            -200.00     1280.00
04975            -200.00     1280.00
04976            -184.00     1200.00
04977            -184.00     1200.00
04978            -192.00     1200.00
04979            -184.00     1120.00
04980            -160.00     1120.00
04981            -160.00     1040.00
04982            -168.00     1040.00
04983            -168.00      960.00
04984            -168.00      960.00
04985            -160.00      880.00
04986            -152.00      880.00
04987            -136.00      800.00
04988            -136.00      800.00
04989            -128.00      800.00
04990            -128.00      720.00
04991            -120.00      720.00
04992            -128.00      720.00
04993            -128.00      640.00
04994            -120.00      560.00
04995            -104.00      560.00
04996            -104.00      480.00
04997             -96.00      480.00
04998            -104.00      480.00
04999             -80.00      400.00
05000             -88.00      400.00
