Unit:(mV)
                     CH1         CH2
Frequency              ? 299.376 kHz
00001             -40.00      -80.00
00002               0.00     -160.00
00003              24.00     -240.00
00004              24.00     -320.00
00005               0.00     -320.00
00006              -8.00     -400.00
00007              -8.00     -480.00
00008              40.00     -560.00
00009             376.00     -640.00
00010             712.00     -880.00
00011             184.00    -1040.00
00012           -1016.00     -880.00
00013           -1016.00     -880.00
00014             384.00    -1120.00
00015             952.00    -1120.00
00016            -320.00     -960.00
00017            -264.00    -1200.00
00018             728.00    -1680.00
00019             152.00    -1120.00
00020            -416.00    -1360.00
00021               8.00    -2000.00
00022             312.00    -1520.00
00023             104.00    -1280.00
00024              80.00    -2000.00
00025             -24.00    -2160.00
00026             -16.00    -1360.00
00027             144.00    -1920.00
00028             120.00    -2400.00
00029              96.00    -1840.00
00030             224.00    -2000.00
00031             -56.00    -2480.00
00032               0.00    -2320.00
00033             480.00    -2000.00
00034              16.00    -2480.00
00035            -192.00    -2640.00
00036             424.00    -2400.00
00037             312.00    -2480.00
00038            -224.00    -2800.00
00039             200.00    -2720.00
00040             384.00    -2640.00
00041              24.00    -2800.00
00042             128.00    -2960.00
00043             280.00    -2720.00
00044             120.00    -2800.00
00045             128.00    -3120.00
00046             280.00    -3040.00
00047             192.00    -2960.00
00048             128.00    -3280.00
00049             200.00    -3200.00
00050             256.00    -3040.00
00051             208.00    -3280.00
00052             192.00    -3440.00
00053             256.00    -3280.00
00054             248.00    -3360.00
00055             200.00    -3520.00
00056             248.00    -3440.00
00057             288.00    -3440.00
00058             256.00    -3600.00
00059             264.00    -3600.00
00060             288.00    -3520.00
00061             248.00    -3680.00
00062             280.00    -3680.00
00063             352.00    -3600.00
00064             304.00    -3760.00
00065             288.00    -3760.00
00066             344.00    -3680.00
00067             320.00    -3760.00
00068             296.00    -3920.00
00069             360.00    -3760.00
00070             384.00    -3760.00
00071             344.00    -3920.00
00072             384.00    -3920.00
00073             408.00    -3920.00
00074             352.00    -3840.00
00075             376.00    -3920.00
00076             448.00    -3920.00
00077             440.00    -3920.00
00078             400.00    -3920.00
00079             448.00    -3920.00
00080             472.00    -3920.00
00081             432.00    -4000.00
00082             456.00    -4000.00
00083             512.00    -3920.00
00084             512.00    -3920.00
00085             488.00    -3920.00
00086             528.00    -3920.00
00087             536.00    -3920.00
00088             504.00    -3920.00
00089             536.00    -3840.00
00090             576.00    -3920.00
00091             568.00    -3920.00
00092             552.00    -3920.00
00093             576.00    -3840.00
00094             576.00    -3760.00
00095             568.00    -3840.00
00096             600.00    -3760.00
00097             608.00    -3760.00
00098             592.00    -3760.00
00099             600.00    -3760.00
00100             608.00    -3760.00
00101             576.00    -3760.00
00102             584.00    -3680.00
00103             608.00    -3600.00
00104             608.00    -3680.00
00105             584.00    -3600.00
00106             584.00    -3600.00
00107             576.00    -3520.00
00108             568.00    -3440.00
00109             576.00    -3440.00
00110             576.00    -3440.00
00111             568.00    -3440.00
00112             544.00    -3360.00
00113             544.00    -3280.00
00114             528.00    -3200.00
00115             512.00    -3120.00
00116             520.00    -3120.00
00117             512.00    -3120.00
00118             504.00    -3040.00
00119             488.00    -3040.00
00120             472.00    -2960.00
00121             456.00    -2880.00
00122             456.00    -2800.00
00123             456.00    -2800.00
00124             448.00    -2800.00
00125             416.00    -2720.00
00126             416.00    -2640.00
00127             400.00    -2640.00
00128             384.00    -2560.00
00129             384.00    -2480.00
00130             384.00    -2480.00
00131             360.00    -2400.00
00132             352.00    -2320.00
00133             344.00    -2320.00
00134             320.00    -2160.00
00135             312.00    -2160.00
00136             320.00    -2080.00
00137             312.00    -2080.00
00138             288.00    -2000.00
00139             280.00    -1920.00
00140             264.00    -1840.00
00141             256.00    -1760.00
00142             248.00    -1680.00
00143             248.00    -1680.00
00144             232.00    -1520.00
00145             216.00    -1520.00
00146             216.00    -1440.00
00147             200.00    -1360.00
00148             192.00    -1280.00
00149             192.00    -1200.00
00150             192.00    -1120.00
00151             192.00    -1120.00
00152             160.00    -1040.00
00153             152.00     -880.00
00154             136.00     -880.00
00155             136.00     -800.00
00156             144.00     -720.00
00157             136.00     -560.00
00158             120.00     -560.00
00159             104.00     -480.00
00160             104.00     -400.00
00161              96.00     -240.00
00162              96.00     -240.00
00163              88.00     -160.00
00164              88.00      -80.00
00165              80.00      -80.00
00166              72.00       80.00
00167              64.00       80.00
00168              72.00      240.00
00169             104.00      240.00
00170             120.00      320.00
00171             120.00      400.00
00172              80.00      400.00
00173              56.00      480.00
00174              32.00      560.00
00175             152.00      640.00
00176             648.00      800.00
00177             728.00      880.00
00178            -632.00      880.00
00179           -1016.00      720.00
00180            -536.00      880.00
00181             984.00     1440.00
00182             256.00     1280.00
00183            -768.00     1040.00
00184             280.00     1200.00
00185             792.00     1680.00
00186            -760.00     1680.00
00187            -680.00     1120.00
00188             752.00     1520.00
00189             192.00     2160.00
00190            -648.00     1520.00
00191              72.00     1440.00
00192             168.00     2320.00
00193            -320.00     2160.00
00194            -192.00     1360.00
00195              88.00     2160.00
00196              32.00     2640.00
00197            -216.00     1760.00
00198            -288.00     2080.00
00199              96.00     2800.00
00200              56.00     2320.00
00201            -488.00     2080.00
00202             -72.00     2800.00
00203             232.00     2640.00
00204            -440.00     2320.00
00205            -280.00     2800.00
00206             152.00     2800.00
00207            -264.00     2640.00
00208            -224.00     2800.00
00209               8.00     2960.00
00210            -264.00     3040.00
00211            -216.00     2960.00
00212            -104.00     2960.00
00213            -240.00     3280.00
00214            -168.00     3120.00
00215            -176.00     3120.00
00216            -264.00     3360.00
00217            -216.00     3280.00
00218            -168.00     3280.00
00219            -192.00     3440.00
00220            -256.00     3360.00
00221            -264.00     3360.00
00222            -216.00     3600.00
00223            -264.00     3520.00
00224            -264.00     3440.00
00225            -200.00     3600.00
00226            -296.00     3680.00
00227            -352.00     3600.00
00228            -264.00     3680.00
00229            -224.00     3760.00
00230            -320.00     3680.00
00231            -336.00     3680.00
00232            -264.00     3840.00
00233            -320.00     3920.00
00234            -392.00     3760.00
00235            -312.00     3920.00
00236            -320.00     3920.00
00237            -408.00     3840.00
00238            -328.00     3920.00
00239            -320.00     4000.00
00240            -440.00     3920.00
00241            -440.00     3840.00
00242            -360.00     4080.00
00243            -384.00     4000.00
00244            -472.00     3920.00
00245            -424.00     4000.00
00246            -408.00     4080.00
00247            -488.00     4000.00
00248            -480.00     3920.00
00249            -440.00     4000.00
00250            -480.00     4000.00
00251            -512.00     3920.00
00252            -488.00     4000.00
00253            -504.00     4000.00
00254            -560.00     4000.00
00255            -552.00     3920.00
00256            -512.00     4000.00
00257            -552.00     4000.00
00258            -576.00     3920.00
00259            -560.00     4000.00
00260            -576.00     3920.00
00261            -600.00     3920.00
00262            -584.00     3920.00
00263            -576.00     3920.00
00264            -608.00     3760.00
00265            -592.00     3840.00
00266            -584.00     3840.00
00267            -616.00     3760.00
00268            -616.00     3760.00
00269            -584.00     3760.00
00270            -576.00     3680.00
00271            -584.00     3680.00
00272            -584.00     3680.00
00273            -600.00     3600.00
00274            -600.00     3600.00
00275            -576.00     3600.00
00276            -552.00     3520.00
00277            -576.00     3440.00
00278            -568.00     3360.00
00279            -544.00     3440.00
00280            -552.00     3360.00
00281            -552.00     3360.00
00282            -536.00     3280.00
00283            -512.00     3280.00
00284            -512.00     3200.00
00285            -488.00     3120.00
00286            -488.00     3120.00
00287            -504.00     3040.00
00288            -488.00     2960.00
00289            -448.00     2960.00
00290            -448.00     2960.00
00291            -448.00     2800.00
00292            -424.00     2800.00
00293            -424.00     2800.00
00294            -416.00     2720.00
00295            -400.00     2640.00
00296            -384.00     2560.00
00297            -376.00     2480.00
00298            -360.00     2400.00
00299            -344.00     2400.00
00300            -352.00     2320.00
00301            -352.00     2320.00
00302            -320.00     2160.00
00303            -296.00     2160.00
00304            -312.00     2080.00
00305            -304.00     2000.00
00306            -288.00     2000.00
00307            -288.00     1920.00
00308            -264.00     1840.00
00309            -248.00     1760.00
00310            -232.00     1760.00
00311            -232.00     1600.00
00312            -232.00     1520.00
00313            -224.00     1520.00
00314            -232.00     1440.00
00315            -224.00     1280.00
00316            -192.00     1280.00
00317            -168.00     1200.00
00318            -168.00     1200.00
00319            -168.00     1040.00
00320            -160.00     1040.00
00321            -160.00      960.00
00322            -144.00      800.00
00323            -136.00      800.00
00324            -136.00      720.00
00325            -136.00      640.00
00326            -128.00      560.00
00327            -120.00      480.00
00328            -104.00      400.00
00329             -96.00      320.00
00330             -88.00      240.00
00331             -80.00      240.00
00332             -72.00      160.00
00333             -88.00       80.00
00334             -64.00      -80.00
00335             -40.00      -80.00
00336               0.00      -80.00
00337              32.00     -240.00
00338              24.00     -240.00
00339               0.00     -320.00
00340               0.00     -480.00
00341             -16.00     -480.00
00342              40.00     -560.00
00343             360.00     -560.00
00344             704.00     -880.00
00345             200.00     -960.00
00346           -1016.00     -800.00
00347           -1016.00     -800.00
00348             360.00    -1120.00
00349             968.00    -1120.00
00350            -312.00     -960.00
00351            -280.00    -1280.00
00352             704.00    -1680.00
00353             160.00    -1040.00
00354            -408.00    -1280.00
00355               0.00    -2000.00
00356             320.00    -1520.00
00357             120.00    -1200.00
00358              80.00    -2000.00
00359             -24.00    -2160.00
00360             -32.00    -1440.00
00361             128.00    -1920.00
00362             128.00    -2400.00
00363              96.00    -1840.00
00364             232.00    -1920.00
00365             -40.00    -2480.00
00366              -8.00    -2320.00
00367             480.00    -2000.00
00368              24.00    -2560.00
00369            -200.00    -2560.00
00370             424.00    -2320.00
00371             312.00    -2480.00
00372            -232.00    -2720.00
00373             192.00    -2720.00
00374             384.00    -2560.00
00375              24.00    -2800.00
00376             136.00    -2960.00
00377             280.00    -2720.00
00378             120.00    -2800.00
00379             128.00    -3120.00
00380             280.00    -2960.00
00381             192.00    -2960.00
00382             128.00    -3200.00
00383             192.00    -3200.00
00384             256.00    -3120.00
00385             216.00    -3280.00
00386             200.00    -3360.00
00387             264.00    -3280.00
00388             248.00    -3360.00
00389             200.00    -3440.00
00390             240.00    -3360.00
00391             288.00    -3440.00
00392             256.00    -3600.00
00393             272.00    -3520.00
00394             280.00    -3600.00
00395             248.00    -3680.00
00396             280.00    -3680.00
00397             352.00    -3600.00
00398             312.00    -3680.00
00399             288.00    -3760.00
00400             344.00    -3680.00
00401             328.00    -3760.00
00402             304.00    -3920.00
00403             360.00    -3760.00
00404             384.00    -3760.00
00405             352.00    -3920.00
00406             384.00    -3920.00
00407             408.00    -3760.00
00408             360.00    -3920.00
00409             376.00    -3920.00
00410             448.00    -3920.00
00411             440.00    -3840.00
00412             400.00    -3920.00
00413             448.00    -4000.00
00414             472.00    -3920.00
00415             440.00    -4000.00
00416             456.00    -3920.00
00417             512.00    -3920.00
00418             504.00    -3920.00
00419             480.00    -4000.00
00420             520.00    -3920.00
00421             520.00    -3920.00
00422             512.00    -3920.00
00423             536.00    -3920.00
00424             576.00    -3920.00
00425             568.00    -3920.00
00426             560.00    -3920.00
00427             576.00    -3760.00
00428             576.00    -3840.00
00429             576.00    -3840.00
00430             600.00    -3760.00
00431             600.00    -3760.00
00432             600.00    -3760.00
00433             600.00    -3760.00
00434             600.00    -3680.00
00435             584.00    -3760.00
00436             584.00    -3680.00
00437             600.00    -3680.00
00438             600.00    -3600.00
00439             584.00    -3600.00
00440             584.00    -3520.00
00441             576.00    -3520.00
00442             576.00    -3520.00
00443             576.00    -3440.00
00444             576.00    -3360.00
00445             568.00    -3360.00
00446             544.00    -3360.00
00447             544.00    -3360.00
00448             536.00    -3280.00
00449             520.00    -3280.00
00450             520.00    -3120.00
00451             512.00    -3120.00
00452             512.00    -3120.00
00453             488.00    -3040.00
00454             472.00    -2960.00
00455             464.00    -2880.00
00456             464.00    -2880.00
00457             472.00    -2800.00
00458             448.00    -2800.00
00459             416.00    -2720.00
00460             408.00    -2640.00
00461             408.00    -2640.00
00462             408.00    -2560.00
00463             384.00    -2480.00
00464             376.00    -2480.00
00465             360.00    -2400.00
00466             352.00    -2400.00
00467             336.00    -2320.00
00468             320.00    -2160.00
00469             320.00    -2160.00
00470             320.00    -2160.00
00471             312.00    -2080.00
00472             280.00    -2000.00
00473             272.00    -1920.00
00474             264.00    -1840.00
00475             264.00    -1840.00
00476             256.00    -1680.00
00477             248.00    -1680.00
00478             232.00    -1520.00
00479             216.00    -1440.00
00480             216.00    -1440.00
00481             216.00    -1360.00
00482             192.00    -1280.00
00483             192.00    -1200.00
00484             192.00    -1200.00
00485             184.00    -1040.00
00486             152.00    -1040.00
00487             160.00     -960.00
00488             152.00     -880.00
00489             144.00     -800.00
00490             128.00     -720.00
00491             128.00     -560.00
00492             120.00     -560.00
00493             120.00     -560.00
00494             104.00     -320.00
00495             104.00     -320.00
00496              96.00     -240.00
00497              88.00     -240.00
00498              88.00     -160.00
00499              72.00      -80.00
00500              72.00       80.00
00501              64.00      160.00
00502              64.00      160.00
00503              96.00      240.00
00504             120.00      320.00
00505             120.00      400.00
00506              72.00      400.00
00507              56.00      560.00
00508              32.00      560.00
00509             136.00      720.00
00510             640.00      800.00
00511             736.00      880.00
00512            -608.00      800.00
00513           -1016.00      800.00
00514            -568.00      880.00
00515             984.00     1360.00
00516             288.00     1360.00
00517            -768.00      960.00
00518             256.00     1120.00
00519             808.00     1680.00
00520            -744.00     1680.00
00521            -704.00     1200.00
00522             736.00     1520.00
00523             216.00     2160.00
00524            -648.00     1520.00
00525              56.00     1360.00
00526             184.00     2320.00
00527            -312.00     2240.00
00528            -200.00     1360.00
00529              96.00     2160.00
00530              40.00     2640.00
00531            -200.00     1840.00
00532            -296.00     2000.00
00533              96.00     2800.00
00534              64.00     2320.00
00535            -488.00     2160.00
00536             -88.00     2800.00
00537             248.00     2640.00
00538            -432.00     2320.00
00539            -288.00     2800.00
00540             152.00     2800.00
00541            -256.00     2720.00
00542            -232.00     2800.00
00543              24.00     2880.00
00544            -264.00     3040.00
00545            -232.00     2960.00
00546             -88.00     2960.00
00547            -232.00     3200.00
00548            -168.00     3120.00
00549            -168.00     3120.00
00550            -264.00     3360.00
00551            -216.00     3200.00
00552            -168.00     3280.00
00553            -192.00     3440.00
00554            -256.00     3360.00
00555            -264.00     3440.00
00556            -216.00     3520.00
00557            -264.00     3520.00
00558            -264.00     3520.00
00559            -200.00     3600.00
00560            -296.00     3680.00
00561            -352.00     3600.00
00562            -264.00     3600.00
00563            -232.00     3760.00
00564            -328.00     3760.00
00565            -344.00     3760.00
00566            -264.00     3920.00
00567            -328.00     3920.00
00568            -392.00     3760.00
00569            -304.00     3920.00
00570            -320.00     3920.00
00571            -408.00     3840.00
00572            -344.00     3920.00
00573            -320.00     4000.00
00574            -440.00     3920.00
00575            -440.00     3920.00
00576            -352.00     4000.00
00577            -384.00     4000.00
00578            -472.00     3920.00
00579            -424.00     4000.00
00580            -408.00     4080.00
00581            -480.00     4000.00
00582            -480.00     4000.00
00583            -440.00     4080.00
00584            -480.00     4080.00
00585            -520.00     4000.00
00586            -480.00     4000.00
00587            -504.00     4080.00
00588            -552.00     3920.00
00589            -544.00     3920.00
00590            -512.00     4000.00
00591            -552.00     4000.00
00592            -568.00     3920.00
00593            -552.00     4000.00
00594            -576.00     3920.00
00595            -600.00     3920.00
00596            -576.00     3920.00
00597            -576.00     3920.00
00598            -608.00     3840.00
00599            -584.00     3840.00
00600            -576.00     3840.00
00601            -608.00     3760.00
00602            -608.00     3680.00
00603            -584.00     3760.00
00604            -584.00     3760.00
00605            -584.00     3680.00
00606            -584.00     3680.00
00607            -600.00     3680.00
00608            -600.00     3600.00
00609            -576.00     3600.00
00610            -552.00     3600.00
00611            -576.00     3440.00
00612            -568.00     3440.00
00613            -552.00     3360.00
00614            -552.00     3360.00
00615            -552.00     3360.00
00616            -536.00     3280.00
00617            -520.00     3280.00
00618            -512.00     3280.00
00619            -488.00     3120.00
00620            -488.00     3040.00
00621            -496.00     3040.00
00622            -480.00     2960.00
00623            -448.00     2960.00
00624            -440.00     2960.00
00625            -448.00     2800.00
00626            -440.00     2800.00
00627            -424.00     2720.00
00628            -416.00     2720.00
00629            -392.00     2640.00
00630            -392.00     2640.00
00631            -384.00     2480.00
00632            -376.00     2480.00
00633            -352.00     2400.00
00634            -360.00     2320.00
00635            -360.00     2320.00
00636            -328.00     2160.00
00637            -312.00     2240.00
00638            -296.00     2080.00
00639            -296.00     2000.00
00640            -288.00     1920.00
00641            -280.00     1840.00
00642            -272.00     1840.00
00643            -256.00     1760.00
00644            -240.00     1760.00
00645            -248.00     1600.00
00646            -232.00     1520.00
00647            -232.00     1520.00
00648            -224.00     1440.00
00649            -216.00     1360.00
00650            -192.00     1360.00
00651            -168.00     1200.00
00652            -168.00     1120.00
00653            -184.00     1120.00
00654            -168.00      960.00
00655            -152.00      960.00
00656            -136.00      880.00
00657            -136.00      800.00
00658            -136.00      720.00
00659            -136.00      560.00
00660            -120.00      560.00
00661            -104.00      480.00
00662             -96.00      480.00
00663             -96.00      400.00
00664             -96.00      240.00
00665             -88.00      160.00
00666             -64.00       80.00
00667             -64.00       80.00
00668             -64.00      -80.00
00669             -40.00      -80.00
00670               0.00     -160.00
00671              32.00     -240.00
00672              32.00     -320.00
00673               8.00     -320.00
00674              -8.00     -400.00
00675              -8.00     -400.00
00676              32.00     -560.00
00677             352.00     -640.00
00678             704.00     -880.00
00679             216.00     -960.00
00680           -1016.00     -880.00
00681           -1016.00     -800.00
00682             336.00    -1120.00
00683             984.00    -1200.00
00684            -296.00    -1040.00
00685            -288.00    -1280.00
00686             696.00    -1680.00
00687             176.00    -1120.00
00688            -408.00    -1200.00
00689               0.00    -2000.00
00690             320.00    -1520.00
00691             120.00    -1200.00
00692              88.00    -2000.00
00693             -24.00    -2160.00
00694             -32.00    -1360.00
00695             128.00    -1840.00
00696             128.00    -2400.00
00697              88.00    -1840.00
00698             232.00    -1920.00
00699             -56.00    -2480.00
00700             -24.00    -2320.00
00701             480.00    -2000.00
00702              32.00    -2560.00
00703            -216.00    -2640.00
00704             408.00    -2320.00
00705             328.00    -2400.00
00706            -232.00    -2720.00
00707             184.00    -2640.00
00708             384.00    -2480.00
00709              24.00    -2720.00
00710             128.00    -2960.00
00711             280.00    -2720.00
00712             128.00    -2800.00
00713             128.00    -3120.00
00714             280.00    -3040.00
00715             200.00    -2960.00
00716             128.00    -3200.00
00717             192.00    -3280.00
00718             256.00    -3040.00
00719             216.00    -3280.00
00720             200.00    -3360.00
00721             264.00    -3280.00
00722             256.00    -3360.00
00723             200.00    -3440.00
00724             240.00    -3360.00
00725             296.00    -3440.00
00726             264.00    -3600.00
00727             264.00    -3520.00
00728             288.00    -3600.00
00729             248.00    -3680.00
00730             280.00    -3680.00
00731             352.00    -3600.00
00732             312.00    -3680.00
00733             288.00    -3760.00
00734             344.00    -3680.00
00735             320.00    -3760.00
00736             304.00    -3840.00
00737             360.00    -3840.00
00738             384.00    -3760.00
00739             352.00    -3840.00
00740             384.00    -3920.00
00741             408.00    -3840.00
00742             360.00    -3920.00
00743             376.00    -4000.00
00744             448.00    -3920.00
00745             448.00    -3920.00
00746             408.00    -3920.00
00747             448.00    -4000.00
00748             480.00    -3840.00
00749             440.00    -4000.00
00750             448.00    -4000.00
00751             512.00    -3920.00
00752             512.00    -3920.00
00753             480.00    -3920.00
00754             520.00    -3920.00
00755             536.00    -3920.00
00756             504.00    -3920.00
00757             536.00    -3920.00
00758             584.00    -3840.00
00759             568.00    -3920.00
00760             552.00    -3840.00
00761             576.00    -3840.00
00762             576.00    -3840.00
00763             568.00    -3840.00
00764             584.00    -3760.00
00765             600.00    -3760.00
00766             600.00    -3760.00
00767             600.00    -3760.00
00768             600.00    -3760.00
00769             576.00    -3680.00
00770             584.00    -3680.00
00771             608.00    -3680.00
00772             608.00    -3600.00
00773             584.00    -3600.00
00774             584.00    -3600.00
00775             576.00    -3440.00
00776             568.00    -3520.00
00777             568.00    -3440.00
00778             576.00    -3360.00
00779             552.00    -3360.00
00780             544.00    -3360.00
00781             544.00    -3360.00
00782             536.00    -3280.00
00783             512.00    -3280.00
00784             520.00    -3120.00
00785             512.00    -3120.00
00786             504.00    -3120.00
00787             488.00    -3040.00
00788             472.00    -2880.00
00789             456.00    -2880.00
00790             456.00    -2880.00
00791             456.00    -2800.00
00792             448.00    -2800.00
00793             424.00    -2720.00
00794             416.00    -2720.00
00795             400.00    -2640.00
00796             392.00    -2560.00
00797             392.00    -2480.00
00798             384.00    -2400.00
00799             360.00    -2400.00
00800             360.00    -2320.00
00801             344.00    -2320.00
00802             320.00    -2160.00
00803             320.00    -2160.00
00804             320.00    -2080.00
00805             312.00    -2080.00
00806             296.00    -2000.00
00807             280.00    -1840.00
00808             264.00    -1840.00
00809             256.00    -1760.00
00810             256.00    -1680.00
00811             248.00    -1680.00
00812             240.00    -1520.00
00813             216.00    -1440.00
00814             216.00    -1440.00
00815             200.00    -1360.00
00816             192.00    -1280.00
00817             184.00    -1200.00
00818             192.00    -1120.00
00819             184.00    -1040.00
00820             160.00    -1040.00
00821             152.00     -880.00
00822             144.00     -880.00
00823             128.00     -800.00
00824             136.00     -720.00
00825             128.00     -640.00
00826             120.00     -480.00
00827             104.00     -480.00
00828              96.00     -320.00
00829              96.00     -400.00
00830              96.00     -240.00
00831              88.00     -160.00
00832              88.00      -80.00
00833              72.00      -80.00
00834              72.00       80.00
00835              64.00       80.00
00836              72.00      160.00
00837              96.00      240.00
00838             128.00      320.00
00839             120.00      400.00
00840              72.00      480.00
00841              56.00      480.00
00842              32.00      560.00
00843             128.00      640.00
00844             640.00      800.00
00845             736.00      960.00
00846            -576.00      800.00
00847           -1016.00      800.00
00848            -600.00      880.00
00849             984.00     1360.00
00850             320.00     1360.00
00851            -760.00     1040.00
00852             224.00     1120.00
00853             832.00     1680.00
00854            -712.00     1680.00
00855            -728.00     1120.00
00856             736.00     1520.00
00857             232.00     2160.00
00858            -648.00     1520.00
00859              40.00     1440.00
00860             192.00     2320.00
00861            -296.00     2240.00
00862            -216.00     1440.00
00863              96.00     2160.00
00864              32.00     2720.00
00865            -200.00     1840.00
00866            -296.00     2000.00
00867              88.00     2800.00
00868              64.00     2320.00
00869            -488.00     2080.00
00870            -104.00     2800.00
00871             256.00     2640.00
00872            -416.00     2400.00
00873            -296.00     2800.00
00874             152.00     2880.00
00875            -256.00     2720.00
00876            -248.00     2800.00
00877               8.00     2880.00
00878            -264.00     3040.00
00879            -224.00     3040.00
00880             -88.00     2960.00
00881            -232.00     3120.00
00882            -168.00     3120.00
00883            -168.00     3120.00
00884            -264.00     3360.00
00885            -216.00     3280.00
00886            -168.00     3280.00
00887            -200.00     3440.00
00888            -256.00     3360.00
00889            -264.00     3360.00
00890            -216.00     3440.00
00891            -256.00     3520.00
00892            -264.00     3600.00
00893            -200.00     3600.00
00894            -296.00     3680.00
00895            -352.00     3600.00
00896            -264.00     3600.00
00897            -232.00     3760.00
00898            -320.00     3680.00
00899            -344.00     3680.00
00900            -272.00     3840.00
00901            -320.00     3840.00
00902            -392.00     3760.00
00903            -312.00     3920.00
00904            -312.00     3920.00
00905            -408.00     3920.00
00906            -336.00     3920.00
00907            -320.00     4000.00
00908            -424.00     3920.00
00909            -448.00     3920.00
00910            -360.00     4000.00
00911            -384.00     4000.00
00912            -456.00     3920.00
00913            -432.00     4000.00
00914            -408.00     4080.00
00915            -480.00     4000.00
00916            -480.00     4000.00
00917            -440.00     4000.00
00918            -488.00     4000.00
00919            -520.00     3920.00
00920            -480.00     4080.00
00921            -488.00     4080.00
00922            -552.00     3920.00
00923            -552.00     3920.00
00924            -512.00     4080.00
00925            -544.00     3920.00
00926            -576.00     3920.00
00927            -552.00     3920.00
00928            -576.00     3920.00
00929            -600.00     3920.00
00930            -576.00     3920.00
00931            -576.00     3920.00
00932            -600.00     3840.00
00933            -584.00     3840.00
00934            -576.00     3920.00
00935            -616.00     3760.00
00936            -616.00     3760.00
00937            -584.00     3760.00
00938            -584.00     3760.00
00939            -600.00     3760.00
00940            -584.00     3680.00
00941            -592.00     3680.00
00942            -600.00     3600.00
00943            -576.00     3600.00
00944            -552.00     3600.00
00945            -568.00     3440.00
00946            -568.00     3440.00
00947            -544.00     3440.00
00948            -552.00     3360.00
00949            -552.00     3360.00
00950            -536.00     3280.00
00951            -512.00     3280.00
00952            -512.00     3200.00
00953            -488.00     3120.00
00954            -496.00     3040.00
00955            -512.00     3040.00
00956            -480.00     3040.00
00957            -456.00     2960.00
00958            -448.00     2960.00
00959            -448.00     2800.00
00960            -440.00     2800.00
00961            -424.00     2720.00
00962            -424.00     2640.00
00963            -408.00     2640.00
00964            -384.00     2640.00
00965            -384.00     2480.00
00966            -368.00     2480.00
00967            -352.00     2400.00
00968            -352.00     2320.00
00969            -360.00     2240.00
00970            -328.00     2240.00
00971            -304.00     2160.00
00972            -312.00     2080.00
00973            -312.00     2000.00
00974            -288.00     2000.00
00975            -288.00     1840.00
00976            -280.00     1760.00
00977            -248.00     1760.00
00978            -232.00     1680.00
00979            -232.00     1680.00
00980            -232.00     1520.00
00981            -224.00     1520.00
00982            -224.00     1440.00
00983            -224.00     1360.00
00984            -192.00     1280.00
00985            -168.00     1280.00
00986            -168.00     1200.00
00987            -168.00     1040.00
00988            -160.00      960.00
00989            -152.00      880.00
00990            -152.00      800.00
00991            -128.00      800.00
00992            -136.00      720.00
00993            -136.00      640.00
00994            -128.00      560.00
00995            -104.00      480.00
00996             -96.00      400.00
00997             -96.00      400.00
00998             -88.00      240.00
00999             -72.00      240.00
01000             -72.00       80.00
01001             -72.00       80.00
01002             -64.00        0.00
01003             -40.00     -160.00
01004               0.00     -160.00
01005              32.00     -160.00
01006              24.00     -320.00
01007               8.00     -320.00
01008              -8.00     -480.00
01009              -8.00     -560.00
01010              32.00     -560.00
01011             344.00     -720.00
01012             704.00     -880.00
01013             232.00     -960.00
01014           -1016.00     -800.00
01015           -1016.00     -800.00
01016             312.00    -1120.00
01017             984.00    -1120.00
01018            -288.00    -1040.00
01019            -296.00    -1360.00
01020             680.00    -1680.00
01021             192.00    -1120.00
01022            -416.00    -1280.00
01023             -24.00    -2000.00
01024             320.00    -1520.00
01025             112.00    -1200.00
01026              72.00    -2000.00
01027             -24.00    -2160.00
01028             -32.00    -1360.00
01029             128.00    -1920.00
01030             128.00    -2400.00
01031              72.00    -1840.00
01032             224.00    -1840.00
01033             -40.00    -2480.00
01034             -32.00    -2320.00
01035             472.00    -2000.00
01036              56.00    -2480.00
01037            -224.00    -2640.00
01038             392.00    -2400.00
01039             344.00    -2480.00
01040            -224.00    -2800.00
01041             168.00    -2720.00
01042             384.00    -2560.00
01043              32.00    -2720.00
01044             128.00    -2960.00
01045             288.00    -2800.00
01046             128.00    -2800.00
01047             128.00    -3120.00
01048             280.00    -2960.00
01049             192.00    -2880.00
01050             128.00    -3200.00
01051             192.00    -3280.00
01052             264.00    -3040.00
01053             216.00    -3200.00
01054             200.00    -3440.00
01055             256.00    -3280.00
01056             256.00    -3360.00
01057             208.00    -3440.00
01058             240.00    -3440.00
01059             288.00    -3440.00
01060             256.00    -3600.00
01061             280.00    -3600.00
01062             288.00    -3440.00
01063             256.00    -3680.00
01064             288.00    -3680.00
01065             352.00    -3600.00
01066             312.00    -3680.00
01067             288.00    -3760.00
01068             344.00    -3760.00
01069             328.00    -3760.00
01070             296.00    -3840.00
01071             360.00    -3760.00
01072             384.00    -3760.00
01073             344.00    -3840.00
01074             384.00    -3920.00
01075             408.00    -3840.00
01076             360.00    -3920.00
01077             376.00    -3920.00
01078             448.00    -3920.00
01079             440.00    -3920.00
01080             400.00    -4000.00
01081             440.00    -3920.00
01082             472.00    -3920.00
01083             440.00    -3920.00
01084             448.00    -4000.00
01085             512.00    -3920.00
01086             504.00    -3920.00
01087             480.00    -3920.00
01088             512.00    -4000.00
01089             520.00    -3840.00
01090             504.00    -3920.00
01091             528.00    -3920.00
01092             576.00    -3920.00
01093             560.00    -3920.00
01094             544.00    -3920.00
01095             576.00    -3840.00
01096             576.00    -3840.00
01097             568.00    -3760.00
01098             600.00    -3760.00
01099             616.00    -3760.00
01100             600.00    -3760.00
01101             600.00    -3760.00
01102             600.00    -3680.00
01103             584.00    -3680.00
01104             584.00    -3680.00
01105             600.00    -3600.00
01106             608.00    -3680.00
01107             584.00    -3600.00
01108             576.00    -3600.00
01109             576.00    -3520.00
01110             568.00    -3440.00
01111             576.00    -3440.00
01112             576.00    -3440.00
01113             568.00    -3360.00
01114             544.00    -3360.00
01115             544.00    -3280.00
01116             536.00    -3280.00
01117             520.00    -3280.00
01118             520.00    -3200.00
01119             520.00    -3040.00
01120             504.00    -3120.00
01121             488.00    -3040.00
01122             480.00    -2960.00
01123             472.00    -2880.00
01124             464.00    -2880.00
01125             456.00    -2800.00
01126             448.00    -2800.00
01127             424.00    -2800.00
01128             416.00    -2640.00
01129             408.00    -2640.00
01130             392.00    -2560.00
01131             384.00    -2480.00
01132             384.00    -2480.00
01133             376.00    -2400.00
01134             360.00    -2400.00
01135             344.00    -2320.00
01136             320.00    -2160.00
01137             312.00    -2160.00
01138             320.00    -2080.00
01139             320.00    -2000.00
01140             296.00    -2000.00
01141             280.00    -1920.00
01142             264.00    -1840.00
01143             256.00    -1840.00
01144             256.00    -1760.00
01145             248.00    -1680.00
01146             240.00    -1520.00
01147             216.00    -1520.00
01148             216.00    -1440.00
01149             200.00    -1360.00
01150             184.00    -1360.00
01151             192.00    -1200.00
01152             192.00    -1200.00
01153             184.00    -1040.00
01154             160.00    -1040.00
01155             152.00     -880.00
01156             152.00     -880.00
01157             136.00     -800.00
01158             128.00     -720.00
01159             136.00     -640.00
01160             120.00     -560.00
01161             112.00     -480.00
01162              96.00     -400.00
01163              96.00     -320.00
01164              88.00     -240.00
01165              88.00     -160.00
01166              88.00     -160.00
01167              72.00      -80.00
01168              72.00        0.00
01169              64.00       80.00
01170              72.00      160.00
01171              96.00      240.00
01172             120.00      320.00
01173             120.00      400.00
01174              88.00      400.00
01175              56.00      480.00
01176              32.00      560.00
01177             128.00      640.00
01178             632.00      800.00
01179             760.00      880.00
01180            -544.00      880.00
01181           -1016.00      800.00
01182            -632.00      880.00
01183             984.00     1360.00
01184             360.00     1360.00
01185            -760.00     1040.00
01186             192.00     1200.00
01187             856.00     1680.00
01188            -704.00     1680.00
01189            -744.00     1200.00
01190             728.00     1520.00
01191             248.00     2160.00
01192            -648.00     1520.00
01193              32.00     1360.00
01194             192.00     2320.00
01195            -296.00     2240.00
01196            -224.00     1360.00
01197              88.00     2080.00
01198              32.00     2720.00
01199            -200.00     1760.00
01200            -296.00     2000.00
01201              72.00     2800.00
01202              72.00     2320.00
01203            -480.00     2080.00
01204            -120.00     2800.00
01205             248.00     2640.00
01206            -408.00     2320.00
01207            -312.00     2800.00
01208             160.00     2800.00
01209            -240.00     2720.00
01210            -256.00     2800.00
01211              24.00     2960.00
01212            -256.00     2960.00
01213            -232.00     2960.00
01214             -96.00     2960.00
01215            -248.00     3280.00
01216            -184.00     3120.00
01217            -168.00     3120.00
01218            -280.00     3360.00
01219            -224.00     3280.00
01220            -168.00     3280.00
01221            -192.00     3440.00
01222            -256.00     3360.00
01223            -280.00     3280.00
01224            -224.00     3520.00
01225            -264.00     3440.00
01226            -264.00     3440.00
01227            -200.00     3600.00
01228            -296.00     3680.00
01229            -352.00     3600.00
01230            -264.00     3680.00
01231            -224.00     3760.00
01232            -320.00     3680.00
01233            -344.00     3680.00
01234            -264.00     3920.00
01235            -328.00     3920.00
01236            -400.00     3760.00
01237            -312.00     3920.00
01238            -312.00     3920.00
01239            -392.00     3920.00
01240            -352.00     3920.00
01241            -320.00     4000.00
01242            -432.00     3920.00
01243            -440.00     3920.00
01244            -360.00     4000.00
01245            -376.00     4080.00
01246            -456.00     3920.00
01247            -424.00     4000.00
01248            -408.00     4080.00
01249            -480.00     4000.00
01250            -480.00     3920.00
01251            -440.00     4000.00
01252            -480.00     4000.00
01253            -520.00     4000.00
01254            -480.00     4000.00
01255            -488.00     4000.00
01256            -552.00     3920.00
01257            -552.00     4000.00
01258            -512.00     4000.00
01259            -544.00     4000.00
01260            -568.00     3920.00
01261            -552.00     4000.00
01262            -576.00     3920.00
01263            -592.00     3920.00
01264            -576.00     4000.00
01265            -576.00     3920.00
01266            -600.00     3760.00
01267            -584.00     3840.00
01268            -576.00     3840.00
01269            -616.00     3760.00
01270            -616.00     3760.00
01271            -584.00     3760.00
01272            -576.00     3680.00
01273            -600.00     3680.00
01274            -584.00     3680.00
01275            -600.00     3680.00
01276            -600.00     3600.00
01277            -576.00     3520.00
01278            -560.00     3520.00
01279            -568.00     3440.00
01280            -568.00     3440.00
01281            -552.00     3360.00
01282            -552.00     3360.00
01283            -552.00     3360.00
01284            -536.00     3280.00
01285            -520.00     3280.00
01286            -512.00     3120.00
01287            -504.00     3120.00
01288            -504.00     3120.00
01289            -504.00     3040.00
01290            -480.00     3040.00
01291            -448.00     2960.00
01292            -448.00     2960.00
01293            -448.00     2800.00
01294            -440.00     2800.00
01295            -424.00     2720.00
01296            -424.00     2640.00
01297            -408.00     2640.00
01298            -384.00     2560.00
01299            -384.00     2480.00
01300            -360.00     2480.00
01301            -360.00     2400.00
01302            -352.00     2400.00
01303            -360.00     2320.00
01304            -328.00     2240.00
01305            -312.00     2160.00
01306            -312.00     2160.00
01307            -296.00     2000.00
01308            -288.00     2000.00
01309            -288.00     1840.00
01310            -264.00     1840.00
01311            -248.00     1760.00
01312            -248.00     1680.00
01313            -232.00     1680.00
01314            -224.00     1520.00
01315            -224.00     1440.00
01316            -224.00     1440.00
01317            -224.00     1360.00
01318            -200.00     1360.00
01319            -168.00     1200.00
01320            -168.00     1120.00
01321            -168.00     1040.00
01322            -160.00     1040.00
01323            -152.00      960.00
01324            -152.00      880.00
01325            -136.00      720.00
01326            -128.00      720.00
01327            -128.00      560.00
01328            -128.00      560.00
01329            -112.00      480.00
01330             -96.00      400.00
01331             -96.00      400.00
01332             -88.00      240.00
01333             -80.00      240.00
01334             -72.00      160.00
01335             -72.00       80.00
01336             -64.00        0.00
01337             -40.00      -80.00
01338               0.00     -160.00
01339              32.00     -240.00
01340              24.00     -240.00
01341               8.00     -400.00
01342               0.00     -400.00
01343             -16.00     -480.00
01344              32.00     -560.00
01345             328.00     -640.00
01346             696.00     -880.00
01347             256.00    -1040.00
01348           -1016.00     -800.00
01349           -1016.00     -800.00
01350             280.00    -1120.00
01351             984.00    -1200.00
01352            -272.00    -1040.00
01353            -320.00    -1280.00
01354             672.00    -1680.00
01355             216.00    -1040.00
01356            -408.00    -1200.00
01357             -32.00    -2000.00
01358             328.00    -1600.00
01359             112.00    -1200.00
01360              80.00    -2000.00
01361             -24.00    -2160.00
01362             -40.00    -1360.00
01363             128.00    -1840.00
01364             128.00    -2400.00
01365              72.00    -1840.00
01366             232.00    -1840.00
01367             -40.00    -2480.00
01368             -40.00    -2320.00
01369             472.00    -2000.00
01370              64.00    -2480.00
01371            -224.00    -2480.00
01372             392.00    -2320.00
01373             352.00    -2400.00
01374            -224.00    -2800.00
01375             168.00    -2720.00
01376             392.00    -2480.00
01377              40.00    -2720.00
01378             120.00    -2960.00
01379             288.00    -2800.00
01380             128.00    -2800.00
01381             128.00    -3120.00
01382             280.00    -2960.00
01383             208.00    -2960.00
01384             128.00    -3120.00
01385             184.00    -3200.00
01386             256.00    -3040.00
01387             216.00    -3280.00
01388             200.00    -3440.00
01389             264.00    -3280.00
01390             256.00    -3280.00
01391             208.00    -3520.00
01392             240.00    -3440.00
01393             288.00    -3440.00
01394             256.00    -3600.00
01395             280.00    -3520.00
01396             288.00    -3520.00
01397             248.00    -3600.00
01398             288.00    -3680.00
01399             344.00    -3600.00
01400             312.00    -3680.00
01401             296.00    -3760.00
01402             352.00    -3760.00
01403             328.00    -3760.00
01404             296.00    -3760.00
01405             360.00    -3840.00
01406             384.00    -3760.00
01407             344.00    -3840.00
01408             384.00    -3920.00
01409             408.00    -3840.00
01410             360.00    -3920.00
01411             376.00    -4000.00
01412             448.00    -3920.00
01413             440.00    -3920.00
01414             392.00    -3920.00
01415             448.00    -3920.00
01416             472.00    -3920.00
01417             424.00    -3920.00
01418             448.00    -4000.00
01419             512.00    -3840.00
01420             504.00    -3920.00
01421             480.00    -3920.00
01422             520.00    -4000.00
01423             536.00    -3920.00
01424             504.00    -3920.00
01425             520.00    -3920.00
01426             576.00    -3840.00
01427             568.00    -3920.00
01428             552.00    -3920.00
01429             584.00    -3840.00
01430             576.00    -3840.00
01431             568.00    -3840.00
01432             600.00    -3760.00
01433             608.00    -3760.00
01434             600.00    -3760.00
01435             600.00    -3760.00
01436             600.00    -3680.00
01437             576.00    -3760.00
01438             576.00    -3680.00
01439             600.00    -3680.00
01440             600.00    -3600.00
01441             584.00    -3600.00
01442             600.00    -3600.00
01443             576.00    -3520.00
01444             576.00    -3520.00
01445             568.00    -3520.00
01446             576.00    -3440.00
01447             568.00    -3360.00
01448             544.00    -3360.00
01449             544.00    -3360.00
01450             536.00    -3280.00
01451             520.00    -3280.00
01452             520.00    -3280.00
01453             520.00    -3120.00
01454             512.00    -3040.00
01455             504.00    -3040.00
01456             480.00    -2880.00
01457             464.00    -2960.00
01458             456.00    -2880.00
01459             472.00    -2800.00
01460             448.00    -2800.00
01461             424.00    -2720.00
01462             416.00    -2720.00
01463             408.00    -2640.00
01464             392.00    -2640.00
01465             384.00    -2480.00
01466             384.00    -2400.00
01467             376.00    -2400.00
01468             360.00    -2400.00
01469             344.00    -2320.00
01470             328.00    -2160.00
01471             320.00    -2160.00
01472             312.00    -2080.00
01473             312.00    -2080.00
01474             296.00    -2000.00
01475             280.00    -1920.00
01476             256.00    -1840.00
01477             256.00    -1840.00
01478             256.00    -1760.00
01479             248.00    -1680.00
01480             232.00    -1520.00
01481             216.00    -1520.00
01482             208.00    -1440.00
01483             216.00    -1360.00
01484             200.00    -1280.00
01485             192.00    -1200.00
01486             192.00    -1200.00
01487             168.00    -1040.00
01488             160.00     -960.00
01489             152.00    -1040.00
01490             152.00     -800.00
01491             144.00     -800.00
01492             136.00     -720.00
01493             136.00     -640.00
01494             128.00     -560.00
01495             104.00     -480.00
01496              96.00     -400.00
01497             104.00     -320.00
01498              88.00     -240.00
01499              72.00     -240.00
01500              88.00      -80.00
01501              72.00        0.00
01502              80.00        0.00
01503              64.00       80.00
01504              72.00      160.00
01505              96.00      240.00
01506             128.00      320.00
01507             120.00      400.00
01508              88.00      480.00
01509              56.00      560.00
01510              32.00      560.00
01511             128.00      640.00
01512             616.00      880.00
01513             768.00      880.00
01514            -512.00      880.00
01515           -1016.00      800.00
01516            -664.00      880.00
01517             984.00     1360.00
01518             392.00     1360.00
01519            -760.00     1040.00
01520             168.00     1120.00
01521             864.00     1680.00
01522            -680.00     1680.00
01523            -768.00     1120.00
01524             720.00     1520.00
01525             264.00     2160.00
01526            -648.00     1520.00
01527               8.00     1360.00
01528             200.00     2320.00
01529            -288.00     2320.00
01530            -224.00     1360.00
01531              96.00     2080.00
01532              40.00     2720.00
01533            -200.00     1840.00
01534            -296.00     2000.00
01535              72.00     2880.00
01536              80.00     2320.00
01537            -480.00     2080.00
01538            -128.00     2800.00
01539             256.00     2640.00
01540            -392.00     2320.00
01541            -320.00     2800.00
01542             152.00     2960.00
01543            -232.00     2720.00
01544            -256.00     2800.00
01545              16.00     2880.00
01546            -264.00     3040.00
01547            -240.00     2960.00
01548             -88.00     2960.00
01549            -232.00     3200.00
01550            -184.00     3120.00
01551            -168.00     3120.00
01552            -264.00     3360.00
01553            -224.00     3280.00
01554            -168.00     3280.00
01555            -200.00     3440.00
01556            -256.00     3360.00
01557            -272.00     3360.00
01558            -224.00     3520.00
01559            -264.00     3440.00
01560            -264.00     3440.00
01561            -200.00     3680.00
01562            -296.00     3760.00
01563            -360.00     3600.00
01564            -280.00     3600.00
01565            -224.00     3760.00
01566            -296.00     3760.00
01567            -328.00     3680.00
01568            -272.00     3920.00
01569            -360.00     3920.00
01570            -416.00     3760.00
01571            -312.00     3920.00
01572            -288.00     3920.00
01573            -392.00     3920.00
01574            -352.00     3840.00
01575            -320.00     4000.00
01576            -432.00     3920.00
01577            -448.00     3920.00
01578            -352.00     4000.00
01579            -368.00     4000.00
01580            -464.00     3920.00
01581            -432.00     3920.00
01582            -416.00     4000.00
01583            -488.00     4000.00
01584            -488.00     4000.00
01585            -424.00     4080.00
01586            -456.00     4080.00
01587            -512.00     3920.00
01588            -488.00     4000.00
01589            -504.00     4080.00
01590            -552.00     3920.00
01591            -544.00     3920.00
01592            -504.00     4000.00
01593            -544.00     4000.00
01594            -576.00     3920.00
01595            -568.00     3920.00
01596            -576.00     3920.00
01597            -576.00     3920.00
01598            -576.00     4000.00
01599            -576.00     3920.00
01600            -600.00     3840.00
01601            -584.00     3760.00
01602            -576.00     3920.00
01603            -608.00     3760.00
01604            -608.00     3760.00
01605            -584.00     3760.00
01606            -584.00     3760.00
01607            -600.00     3680.00
01608            -584.00     3680.00
01609            -600.00     3600.00
01610            -600.00     3600.00
01611            -576.00     3600.00
01612            -568.00     3520.00
01613            -576.00     3440.00
01614            -568.00     3440.00
01615            -552.00     3360.00
01616            -552.00     3440.00
01617            -552.00     3280.00
01618            -536.00     3280.00
01619            -520.00     3200.00
01620            -520.00     3200.00
01621            -504.00     3120.00
01622            -488.00     3120.00
01623            -512.00     3120.00
01624            -480.00     2960.00
01625            -448.00     2960.00
01626            -448.00     2960.00
01627            -456.00     2800.00
01628            -440.00     2800.00
01629            -424.00     2800.00
01630            -416.00     2720.00
01631            -408.00     2640.00
01632            -384.00     2640.00
01633            -384.00     2560.00
01634            -360.00     2480.00
01635            -352.00     2400.00
01636            -352.00     2400.00
01637            -352.00     2320.00
01638            -320.00     2160.00
01639            -296.00     2240.00
01640            -296.00     2080.00
01641            -312.00     2000.00
01642            -288.00     2000.00
01643            -280.00     1840.00
01644            -264.00     1840.00
01645            -256.00     1760.00
01646            -232.00     1680.00
01647            -248.00     1680.00
01648            -224.00     1520.00
01649            -216.00     1520.00
01650            -224.00     1440.00
01651            -216.00     1360.00
01652            -192.00     1200.00
01653            -168.00     1200.00
01654            -168.00     1200.00
01655            -168.00     1040.00
01656            -160.00     1040.00
01657            -152.00      880.00
01658            -152.00      880.00
01659            -136.00      800.00
01660            -128.00      720.00
01661            -136.00      640.00
01662            -120.00      560.00
01663            -104.00      480.00
01664             -96.00      480.00
01665             -96.00      320.00
01666             -88.00      240.00
01667             -72.00      240.00
01668             -72.00      160.00
01669             -72.00       80.00
01670             -64.00       80.00
01671             -40.00      -80.00
01672               0.00     -160.00
01673              32.00     -240.00
01674              32.00     -240.00
01675               8.00     -320.00
01676              -8.00     -400.00
01677             -24.00     -480.00
01678              32.00     -560.00
01679             320.00     -560.00
01680             696.00     -880.00
01681             280.00     -960.00
01682           -1016.00     -800.00
01683           -1016.00     -800.00
01684             232.00    -1040.00
01685             984.00    -1120.00
01686            -256.00    -1040.00
01687            -328.00    -1200.00
01688             648.00    -1680.00
01689             240.00    -1120.00
01690            -408.00    -1200.00
01691             -40.00    -1920.00
01692             328.00    -1520.00
01693             120.00    -1200.00
01694              72.00    -1920.00
01695              -8.00    -2160.00
01696             -40.00    -1360.00
01697             120.00    -1840.00
01698             136.00    -2400.00
01699              64.00    -1920.00
01700             248.00    -1840.00
01701             -32.00    -2480.00
01702             -40.00    -2320.00
01703             472.00    -2000.00
01704              72.00    -2480.00
01705            -224.00    -2640.00
01706             384.00    -2320.00
01707             360.00    -2400.00
01708            -224.00    -2720.00
01709             152.00    -2720.00
01710             400.00    -2480.00
01711              40.00    -2720.00
01712             112.00    -2960.00
01713             288.00    -2720.00
01714             128.00    -2800.00
01715             120.00    -3120.00
01716             272.00    -2960.00
01717             200.00    -2880.00
01718             136.00    -3200.00
01719             192.00    -3280.00
01720             264.00    -3040.00
01721             216.00    -3280.00
01722             200.00    -3360.00
01723             264.00    -3280.00
01724             256.00    -3280.00
01725             200.00    -3440.00
01726             232.00    -3440.00
01727             288.00    -3440.00
01728             256.00    -3600.00
01729             264.00    -3600.00
01730             288.00    -3520.00
01731             248.00    -3600.00
01732             280.00    -3680.00
01733             344.00    -3680.00
01734             312.00    -3680.00
01735             288.00    -3760.00
01736             328.00    -3680.00
01737             320.00    -3760.00
01738             296.00    -3760.00
01739             352.00    -3760.00
01740             384.00    -3760.00
01741             352.00    -3840.00
01742             376.00    -3920.00
01743             408.00    -3920.00
01744             360.00    -3920.00
01745             376.00    -3920.00
01746             440.00    -3920.00
01747             440.00    -3920.00
01748             400.00    -3920.00
01749             440.00    -3920.00
01750             472.00    -3920.00
01751             440.00    -3920.00
01752             448.00    -4000.00
01753             504.00    -3920.00
01754             504.00    -3920.00
01755             480.00    -4000.00
01756             520.00    -3920.00
01757             520.00    -3920.00
01758             504.00    -3920.00
01759             536.00    -3920.00
01760             576.00    -3920.00
01761             568.00    -3840.00
01762             552.00    -3920.00
01763             576.00    -3840.00
01764             576.00    -3840.00
01765             568.00    -3840.00
01766             600.00    -3840.00
01767             616.00    -3760.00
01768             600.00    -3760.00
01769             600.00    -3760.00
01770             600.00    -3680.00
01771             584.00    -3680.00
01772             584.00    -3680.00
01773             608.00    -3680.00
01774             600.00    -3680.00
01775             584.00    -3600.00
01776             584.00    -3520.00
01777             576.00    -3600.00
01778             568.00    -3440.00
01779             576.00    -3440.00
01780             576.00    -3440.00
01781             568.00    -3360.00
01782             544.00    -3360.00
01783             552.00    -3280.00
01784             536.00    -3280.00
01785             520.00    -3280.00
01786             528.00    -3120.00
01787             520.00    -3120.00
01788             504.00    -3040.00
01789             488.00    -3040.00
01790             480.00    -2960.00
01791             472.00    -2880.00
01792             456.00    -2880.00
01793             456.00    -2800.00
01794             448.00    -2800.00
01795             424.00    -2800.00
01796             416.00    -2640.00
01797             408.00    -2640.00
01798             384.00    -2640.00
01799             392.00    -2480.00
01800             384.00    -2400.00
01801             376.00    -2400.00
01802             352.00    -2320.00
01803             344.00    -2320.00
01804             320.00    -2320.00
01805             320.00    -2160.00
01806             312.00    -2080.00
01807             312.00    -2000.00
01808             288.00    -2000.00
01809             280.00    -1840.00
01810             264.00    -1840.00
01811             256.00    -1760.00
01812             256.00    -1680.00
01813             248.00    -1680.00
01814             232.00    -1520.00
01815             216.00    -1520.00
01816             216.00    -1440.00
01817             200.00    -1360.00
01818             192.00    -1280.00
01819             192.00    -1200.00
01820             192.00    -1200.00
01821             184.00    -1040.00
01822             160.00    -1040.00
01823             152.00     -880.00
01824             136.00     -880.00
01825             136.00     -800.00
01826             136.00     -720.00
01827             128.00     -720.00
01828             120.00     -560.00
01829             104.00     -560.00
01830             104.00     -400.00
01831              96.00     -320.00
01832              96.00     -240.00
01833              96.00     -240.00
01834              88.00     -160.00
01835              72.00      -80.00
01836              64.00       80.00
01837              64.00       80.00
01838              72.00      160.00
01839              96.00      240.00
01840             120.00      240.00
01841             120.00      400.00
01842              88.00      480.00
01843              56.00      480.00
01844              32.00      560.00
01845             120.00      640.00
01846             608.00      800.00
01847             768.00      880.00
01848            -472.00      880.00
01849           -1016.00      720.00
01850            -680.00      880.00
01851             984.00     1360.00
01852             424.00     1360.00
01853            -744.00      960.00
01854             136.00     1120.00
01855             880.00     1600.00
01856            -648.00     1680.00
01857            -792.00     1200.00
01858             696.00     1520.00
01859             288.00     2160.00
01860            -640.00     1600.00
01861              -8.00     1360.00
01862             216.00     2320.00
01863            -280.00     2320.00
01864            -232.00     1360.00
01865              96.00     2080.00
01866              40.00     2720.00
01867            -192.00     1840.00
01868            -304.00     1920.00
01869              64.00     2800.00
01870              88.00     2320.00
01871            -480.00     2000.00
01872            -152.00     2800.00
01873             256.00     2720.00
01874            -384.00     2320.00
01875            -336.00     2800.00
01876             152.00     2880.00
01877            -232.00     2720.00
01878            -264.00     2800.00
01879               8.00     2880.00
01880            -248.00     3040.00
01881            -248.00     2960.00
01882             -96.00     2960.00
01883            -240.00     3200.00
01884            -192.00     3120.00
01885            -168.00     3120.00
01886            -264.00     3360.00
01887            -224.00     3280.00
01888            -168.00     3280.00
01889            -200.00     3440.00
01890            -256.00     3360.00
01891            -280.00     3360.00
01892            -224.00     3520.00
01893            -264.00     3520.00
01894            -264.00     3440.00
01895            -200.00     3600.00
01896            -288.00     3680.00
01897            -352.00     3600.00
01898            -264.00     3680.00
01899            -224.00     3760.00
01900            -320.00     3760.00
01901            -344.00     3680.00
01902            -264.00     3840.00
01903            -320.00     3840.00
01904            -392.00     3760.00
01905            -320.00     3920.00
01906            -312.00     3920.00
01907            -400.00     3920.00
01908            -352.00     3920.00
01909            -320.00     4000.00
01910            -424.00     4000.00
01911            -440.00     3920.00
01912            -352.00     4000.00
01913            -368.00     4000.00
01914            -456.00     3920.00
01915            -440.00     3920.00
01916            -392.00     4080.00
01917            -480.00     4000.00
01918            -488.00     3920.00
01919            -424.00     4080.00
01920            -480.00     4080.00
01921            -512.00     3920.00
01922            -480.00     4000.00
01923            -488.00     4080.00
01924            -552.00     3920.00
01925            -552.00     3920.00
01926            -512.00     4000.00
01927            -544.00     4000.00
01928            -568.00     3920.00
01929            -552.00     3920.00
01930            -576.00     3920.00
01931            -592.00     3920.00
01932            -576.00     3920.00
01933            -576.00     3920.00
01934            -600.00     3920.00
01935            -600.00     3840.00
01936            -576.00     3840.00
01937            -616.00     3760.00
01938            -616.00     3760.00
01939            -600.00     3760.00
01940            -584.00     3760.00
01941            -584.00     3680.00
01942            -584.00     3680.00
01943            -584.00     3680.00
01944            -608.00     3600.00
01945            -584.00     3520.00
01946            -552.00     3600.00
01947            -568.00     3440.00
01948            -568.00     3360.00
01949            -552.00     3440.00
01950            -552.00     3360.00
01951            -552.00     3360.00
01952            -536.00     3280.00
01953            -520.00     3280.00
01954            -512.00     3200.00
01955            -504.00     3120.00
01956            -504.00     3120.00
01957            -504.00     3040.00
01958            -488.00     3040.00
01959            -448.00     2960.00
01960            -448.00     2880.00
01961            -448.00     2800.00
01962            -440.00     2800.00
01963            -424.00     2720.00
01964            -416.00     2720.00
01965            -408.00     2640.00
01966            -384.00     2640.00
01967            -384.00     2560.00
01968            -360.00     2480.00
01969            -352.00     2400.00
01970            -352.00     2320.00
01971            -360.00     2320.00
01972            -328.00     2240.00
01973            -296.00     2160.00
01974            -296.00     2160.00
01975            -296.00     2080.00
01976            -288.00     1920.00
01977            -280.00     2000.00
01978            -264.00     1840.00
01979            -248.00     1760.00
01980            -232.00     1760.00
01981            -240.00     1680.00
01982            -232.00     1600.00
01983            -224.00     1520.00
01984            -224.00     1440.00
01985            -224.00     1360.00
01986            -192.00     1280.00
01987            -168.00     1200.00
01988            -168.00     1200.00
01989            -168.00     1120.00
01990            -160.00     1040.00
01991            -160.00      960.00
01992            -144.00      880.00
01993            -136.00      720.00
01994            -136.00      720.00
01995            -128.00      640.00
01996            -128.00      560.00
01997            -120.00      480.00
01998            -104.00      400.00
01999             -96.00      400.00
02000             -88.00      240.00
02001             -72.00      240.00
02002             -72.00      160.00
02003             -72.00       80.00
02004             -64.00      -80.00
02005             -40.00      -80.00
02006               0.00     -160.00
02007              32.00     -240.00
02008              32.00     -320.00
02009               0.00     -400.00
02010              -8.00     -400.00
02011             -24.00     -480.00
02012              32.00     -560.00
02013             320.00     -640.00
02014             696.00     -800.00
02015             288.00    -1040.00
02016           -1016.00     -800.00
02017           -1016.00     -800.00
02018             208.00    -1120.00
02019             984.00    -1120.00
02020            -232.00    -1040.00
02021            -344.00    -1280.00
02022             640.00    -1680.00
02023             248.00    -1120.00
02024            -392.00    -1200.00
02025             -64.00    -2000.00
02026             328.00    -1600.00
02027             120.00    -1200.00
02028              80.00    -1920.00
02029               0.00    -2160.00
02030             -40.00    -1440.00
02031             120.00    -1840.00
02032             136.00    -2400.00
02033              64.00    -1920.00
02034             248.00    -1840.00
02035             -32.00    -2480.00
02036             -40.00    -2320.00
02037             472.00    -2000.00
02038              88.00    -2480.00
02039            -232.00    -2640.00
02040             376.00    -2400.00
02041             384.00    -2400.00
02042            -224.00    -2800.00
02043             152.00    -2720.00
02044             400.00    -2560.00
02045              56.00    -2720.00
02046             112.00    -2960.00
02047             288.00    -2800.00
02048             136.00    -2800.00
02049             120.00    -3120.00
02050             280.00    -2960.00
02051             208.00    -2880.00
02052             128.00    -3120.00
02053             184.00    -3280.00
02054             256.00    -3120.00
02055             216.00    -3280.00
02056             200.00    -3360.00
02057             264.00    -3280.00
02058             256.00    -3280.00
02059             200.00    -3440.00
02060             232.00    -3440.00
02061             288.00    -3440.00
02062             256.00    -3600.00
02063             264.00    -3600.00
02064             280.00    -3520.00
02065             248.00    -3680.00
02066             280.00    -3680.00
02067             344.00    -3600.00
02068             312.00    -3680.00
02069             288.00    -3760.00
02070             328.00    -3680.00
02071             320.00    -3760.00
02072             296.00    -3760.00
02073             352.00    -3840.00
02074             384.00    -3760.00
02075             352.00    -3920.00
02076             376.00    -3920.00
02077             408.00    -3840.00
02078             360.00    -3920.00
02079             368.00    -4000.00
02080             440.00    -3920.00
02081             440.00    -3840.00
02082             408.00    -4000.00
02083             448.00    -4000.00
02084             472.00    -3920.00
02085             440.00    -3920.00
02086             448.00    -4000.00
02087             504.00    -3920.00
02088             504.00    -3920.00
02089             480.00    -4000.00
02090             520.00    -3920.00
02091             536.00    -3920.00
02092             488.00    -3920.00
02093             536.00    -4000.00
02094             576.00    -3920.00
02095             568.00    -3840.00
02096             552.00    -3920.00
02097             584.00    -3840.00
02098             576.00    -3760.00
02099             568.00    -3760.00
02100             600.00    -3760.00
02101             608.00    -3760.00
02102             600.00    -3760.00
02103             600.00    -3760.00
02104             608.00    -3680.00
02105             584.00    -3760.00
02106             584.00    -3680.00
02107             608.00    -3600.00
02108             608.00    -3600.00
02109             600.00    -3600.00
02110             584.00    -3600.00
02111             584.00    -3600.00
02112             568.00    -3520.00
02113             576.00    -3440.00
02114             584.00    -3440.00
02115             568.00    -3360.00
02116             552.00    -3280.00
02117             544.00    -3280.00
02118             536.00    -3280.00
02119             520.00    -3200.00
02120             536.00    -3120.00
02121             520.00    -3120.00
02122             512.00    -3040.00
02123             504.00    -3040.00
02124             472.00    -2960.00
02125             472.00    -2880.00
02126             456.00    -2960.00
02127             464.00    -2800.00
02128             448.00    -2800.00
02129             424.00    -2800.00
02130             416.00    -2640.00
02131             408.00    -2640.00
02132             384.00    -2640.00
02133             392.00    -2480.00
02134             384.00    -2480.00
02135             360.00    -2400.00
02136             352.00    -2400.00
02137             344.00    -2320.00
02138             320.00    -2160.00
02139             312.00    -2160.00
02140             320.00    -2080.00
02141             312.00    -2080.00
02142             288.00    -2000.00
02143             280.00    -2000.00
02144             264.00    -1840.00
02145             256.00    -1760.00
02146             256.00    -1760.00
02147             248.00    -1680.00
02148             232.00    -1520.00
02149             216.00    -1520.00
02150             216.00    -1440.00
02151             200.00    -1360.00
02152             192.00    -1280.00
02153             192.00    -1200.00
02154             192.00    -1200.00
02155             184.00    -1120.00
02156             160.00    -1040.00
02157             152.00     -960.00
02158             152.00     -800.00
02159             136.00     -800.00
02160             144.00     -720.00
02161             136.00     -720.00
02162             128.00     -560.00
02163             112.00     -480.00
02164             104.00     -400.00
02165              96.00     -320.00
02166              96.00     -320.00
02167              88.00     -240.00
02168              88.00      -80.00
02169              72.00      -80.00
02170              72.00        0.00
02171              72.00       80.00
02172              72.00      160.00
02173              96.00      240.00
02174             128.00      240.00
02175             120.00      400.00
02176              88.00      400.00
02177              56.00      560.00
02178              40.00      560.00
02179             120.00      640.00
02180             600.00      800.00
02181             776.00      880.00
02182            -432.00      880.00
02183           -1016.00      720.00
02184            -712.00      880.00
02185             984.00     1360.00
02186             472.00     1360.00
02187            -744.00     1040.00
02188             104.00     1120.00
02189             896.00     1600.00
02190            -624.00     1680.00
02191            -808.00     1120.00
02192             672.00     1520.00
02193             320.00     2160.00
02194            -640.00     1600.00
02195             -32.00     1360.00
02196             216.00     2160.00
02197            -264.00     2320.00
02198            -256.00     1440.00
02199              96.00     2080.00
02200              40.00     2720.00
02201            -192.00     1840.00
02202            -312.00     1920.00
02203              56.00     2800.00
02204              88.00     2320.00
02205            -472.00     2000.00
02206            -160.00     2800.00
02207             256.00     2640.00
02208            -376.00     2320.00
02209            -352.00     2720.00
02210             152.00     2800.00
02211            -216.00     2640.00
02212            -280.00     2720.00
02213              24.00     2880.00
02214            -256.00     3040.00
02215            -256.00     2960.00
02216             -96.00     2960.00
02217            -232.00     3120.00
02218            -192.00     3120.00
02219            -160.00     3120.00
02220            -264.00     3360.00
02221            -232.00     3200.00
02222            -168.00     3280.00
02223            -192.00     3440.00
02224            -248.00     3360.00
02225            -280.00     3360.00
02226            -216.00     3440.00
02227            -256.00     3440.00
02228            -264.00     3440.00
02229            -200.00     3600.00
02230            -280.00     3680.00
02231            -352.00     3600.00
02232            -264.00     3680.00
02233            -224.00     3760.00
02234            -312.00     3680.00
02235            -352.00     3680.00
02236            -264.00     3920.00
02237            -312.00     3840.00
02238            -392.00     3760.00
02239            -312.00     3920.00
02240            -312.00     3920.00
02241            -408.00     3920.00
02242            -352.00     3840.00
02243            -312.00     4000.00
02244            -424.00     4000.00
02245            -440.00     3920.00
02246            -352.00     4000.00
02247            -376.00     4080.00
02248            -456.00     3920.00
02249            -424.00     4000.00
02250            -408.00     4000.00
02251            -472.00     4000.00
02252            -488.00     4000.00
02253            -440.00     4000.00
02254            -472.00     4080.00
02255            -520.00     3920.00
02256            -488.00     4080.00
02257            -480.00     4000.00
02258            -552.00     4000.00
02259            -552.00     3920.00
02260            -512.00     4000.00
02261            -544.00     4000.00
02262            -568.00     3920.00
02263            -560.00     3920.00
02264            -568.00     3920.00
02265            -592.00     3920.00
02266            -576.00     3920.00
02267            -584.00     3920.00
02268            -600.00     3760.00
02269            -600.00     3760.00
02270            -576.00     3920.00
02271            -608.00     3760.00
02272            -616.00     3760.00
02273            -608.00     3760.00
02274            -584.00     3760.00
02275            -600.00     3760.00
02276            -584.00     3600.00
02277            -600.00     3680.00
02278            -608.00     3600.00
02279            -584.00     3600.00
02280            -568.00     3520.00
02281            -568.00     3520.00
02282            -568.00     3360.00
02283            -552.00     3360.00
02284            -552.00     3360.00
02285            -552.00     3280.00
02286            -536.00     3280.00
02287            -512.00     3200.00
02288            -512.00     3200.00
02289            -504.00     3120.00
02290            -496.00     3120.00
02291            -504.00     3120.00
02292            -488.00     2960.00
02293            -448.00     2960.00
02294            -448.00     2960.00
02295            -448.00     2800.00
02296            -440.00     2800.00
02297            -424.00     2720.00
02298            -416.00     2640.00
02299            -400.00     2640.00
02300            -384.00     2640.00
02301            -384.00     2480.00
02302            -360.00     2480.00
02303            -352.00     2400.00
02304            -344.00     2400.00
02305            -352.00     2320.00
02306            -328.00     2160.00
02307            -296.00     2160.00
02308            -296.00     2160.00
02309            -296.00     2000.00
02310            -288.00     2000.00
02311            -280.00     1920.00
02312            -264.00     1840.00
02313            -248.00     1760.00
02314            -232.00     1680.00
02315            -232.00     1680.00
02316            -224.00     1520.00
02317            -224.00     1440.00
02318            -224.00     1440.00
02319            -224.00     1360.00
02320            -192.00     1360.00
02321            -168.00     1200.00
02322            -168.00     1200.00
02323            -168.00     1040.00
02324            -160.00     1040.00
02325            -152.00      960.00
02326            -152.00      800.00
02327            -136.00      800.00
02328            -136.00      720.00
02329            -128.00      640.00
02330            -128.00      560.00
02331            -104.00      480.00
02332            -104.00      400.00
02333             -96.00      400.00
02334             -88.00      240.00
02335             -88.00      240.00
02336             -72.00      160.00
02337             -72.00       80.00
02338             -64.00       80.00
02339             -48.00      -80.00
02340               0.00     -160.00
02341              24.00     -240.00
02342              24.00     -240.00
02343               8.00     -400.00
02344              -8.00     -400.00
02345             -24.00     -480.00
02346              24.00     -560.00
02347             312.00     -640.00
02348             696.00     -800.00
02349             312.00     -960.00
02350           -1016.00     -880.00
02351           -1016.00     -800.00
02352             168.00    -1120.00
02353             984.00    -1200.00
02354            -224.00    -1040.00
02355            -352.00    -1200.00
02356             640.00    -1680.00
02357             280.00    -1120.00
02358            -392.00    -1200.00
02359             -80.00    -2000.00
02360             328.00    -1600.00
02361             128.00    -1200.00
02362              88.00    -1920.00
02363               0.00    -2240.00
02364             -40.00    -1440.00
02365             120.00    -1840.00
02366             152.00    -2400.00
02367              56.00    -1920.00
02368             248.00    -1840.00
02369             -24.00    -2480.00
02370             -56.00    -2320.00
02371             472.00    -2000.00
02372             104.00    -2400.00
02373            -232.00    -2640.00
02374             360.00    -2400.00
02375             384.00    -2480.00
02376            -216.00    -2800.00
02377             128.00    -2720.00
02378             400.00    -2560.00
02379              64.00    -2720.00
02380              96.00    -2960.00
02381             288.00    -2800.00
02382             128.00    -2800.00
02383             128.00    -3120.00
02384             280.00    -3040.00
02385             208.00    -2880.00
02386             136.00    -3200.00
02387             184.00    -3280.00
02388             264.00    -3040.00
02389             216.00    -3280.00
02390             200.00    -3360.00
02391             256.00    -3280.00
02392             256.00    -3360.00
02393             200.00    -3440.00
02394             232.00    -3440.00
02395             280.00    -3440.00
02396             256.00    -3600.00
02397             264.00    -3600.00
02398             280.00    -3440.00
02399             248.00    -3600.00
02400             280.00    -3680.00
02401             344.00    -3680.00
02402             312.00    -3680.00
02403             296.00    -3760.00
02404             344.00    -3680.00
02405             328.00    -3680.00
02406             296.00    -3920.00
02407             352.00    -3760.00
02408             376.00    -3760.00
02409             352.00    -3920.00
02410             368.00    -3920.00
02411             408.00    -3840.00
02412             368.00    -3920.00
02413             376.00    -3920.00
02414             440.00    -3920.00
02415             440.00    -3920.00
02416             392.00    -3920.00
02417             440.00    -3920.00
02418             464.00    -3920.00
02419             448.00    -3920.00
02420             448.00    -4000.00
02421             512.00    -3920.00
02422             504.00    -3920.00
02423             480.00    -4000.00
02424             520.00    -3920.00
02425             528.00    -3920.00
02426             504.00    -3920.00
02427             536.00    -3920.00
02428             576.00    -3920.00
02429             568.00    -3840.00
02430             552.00    -3840.00
02431             584.00    -3840.00
02432             576.00    -3840.00
02433             568.00    -3760.00
02434             600.00    -3840.00
02435             608.00    -3760.00
02436             600.00    -3760.00
02437             592.00    -3760.00
02438             608.00    -3680.00
02439             592.00    -3680.00
02440             584.00    -3680.00
02441             608.00    -3680.00
02442             608.00    -3600.00
02443             584.00    -3600.00
02444             584.00    -3520.00
02445             576.00    -3440.00
02446             576.00    -3520.00
02447             576.00    -3440.00
02448             584.00    -3440.00
02449             568.00    -3440.00
02450             544.00    -3280.00
02451             544.00    -3280.00
02452             536.00    -3360.00
02453             520.00    -3200.00
02454             536.00    -3200.00
02455             520.00    -3120.00
02456             504.00    -3040.00
02457             488.00    -3040.00
02458             480.00    -2960.00
02459             472.00    -2960.00
02460             456.00    -2880.00
02461             456.00    -2800.00
02462             448.00    -2720.00
02463             416.00    -2720.00
02464             416.00    -2720.00
02465             408.00    -2640.00
02466             392.00    -2640.00
02467             384.00    -2480.00
02468             376.00    -2480.00
02469             376.00    -2400.00
02470             352.00    -2400.00
02471             344.00    -2320.00
02472             320.00    -2160.00
02473             320.00    -2160.00
02474             312.00    -2080.00
02475             304.00    -2080.00
02476             288.00    -2000.00
02477             280.00    -1840.00
02478             272.00    -1840.00
02479             256.00    -1760.00
02480             248.00    -1760.00
02481             248.00    -1680.00
02482             240.00    -1520.00
02483             216.00    -1520.00
02484             216.00    -1440.00
02485             216.00    -1360.00
02486             192.00    -1280.00
02487             184.00    -1200.00
02488             184.00    -1120.00
02489             184.00    -1120.00
02490             168.00    -1040.00
02491             152.00     -880.00
02492             152.00     -800.00
02493             144.00     -800.00
02494             128.00     -720.00
02495             128.00     -720.00
02496             128.00     -560.00
02497             120.00     -480.00
02498             112.00     -400.00
02499              96.00     -320.00
02500              96.00     -240.00
02501              96.00     -160.00
02502              88.00     -160.00
02503              72.00      -80.00
02504              80.00       80.00
02505              64.00       80.00
02506              64.00      160.00
02507              96.00      240.00
02508             128.00      320.00
02509             120.00      400.00
02510              88.00      400.00
02511              56.00      480.00
02512              40.00      560.00
02513             104.00      560.00
02514             584.00      800.00
02515             792.00      880.00
02516            -384.00      880.00
02517           -1016.00      720.00
02518            -760.00      880.00
02519             984.00     1360.00
02520             512.00     1360.00
02521            -744.00      960.00
02522              64.00     1120.00
02523             920.00     1600.00
02524            -600.00     1760.00
02525            -840.00     1200.00
02526             648.00     1520.00
02527             344.00     2160.00
02528            -632.00     1680.00
02529             -48.00     1360.00
02530             224.00     2160.00
02531            -264.00     2320.00
02532            -264.00     1440.00
02533              96.00     2000.00
02534              40.00     2800.00
02535            -184.00     1840.00
02536            -296.00     2000.00
02537              32.00     2800.00
02538             104.00     2320.00
02539            -456.00     2080.00
02540            -176.00     2800.00
02541             264.00     2720.00
02542            -360.00     2320.00
02543            -360.00     2720.00
02544             144.00     2800.00
02545            -208.00     2720.00
02546            -288.00     2800.00
02547              24.00     2880.00
02548            -248.00     2960.00
02549            -256.00     3040.00
02550             -88.00     2960.00
02551            -224.00     3200.00
02552            -192.00     3120.00
02553            -160.00     3120.00
02554            -264.00     3360.00
02555            -232.00     3280.00
02556            -168.00     3280.00
02557            -192.00     3440.00
02558            -248.00     3360.00
02559            -264.00     3360.00
02560            -224.00     3520.00
02561            -256.00     3440.00
02562            -264.00     3440.00
02563            -200.00     3680.00
02564            -272.00     3680.00
02565            -352.00     3600.00
02566            -264.00     3600.00
02567            -224.00     3760.00
02568            -312.00     3760.00
02569            -344.00     3680.00
02570            -264.00     3920.00
02571            -312.00     3920.00
02572            -392.00     3760.00
02573            -320.00     3920.00
02574            -296.00     3920.00
02575            -392.00     3920.00
02576            -352.00     3920.00
02577            -312.00     4000.00
02578            -416.00     4000.00
02579            -448.00     3920.00
02580            -360.00     4000.00
02581            -360.00     4080.00
02582            -456.00     3920.00
02583            -440.00     4000.00
02584            -408.00     4000.00
02585            -472.00     4000.00
02586            -488.00     4000.00
02587            -440.00     4000.00
02588            -480.00     4000.00
02589            -520.00     4000.00
02590            -480.00     4000.00
02591            -488.00     4080.00
02592            -560.00     4000.00
02593            -552.00     3920.00
02594            -512.00     4000.00
02595            -552.00     4000.00
02596            -576.00     3920.00
02597            -552.00     3920.00
02598            -576.00     3920.00
02599            -600.00     3920.00
02600            -584.00     3920.00
02601            -576.00     3920.00
02602            -608.00     3840.00
02603            -600.00     3920.00
02604            -576.00     3840.00
02605            -608.00     3760.00
02606            -624.00     3760.00
02607            -600.00     3760.00
02608            -576.00     3760.00
02609            -592.00     3680.00
02610            -584.00     3680.00
02611            -592.00     3680.00
02612            -600.00     3600.00
02613            -576.00     3520.00
02614            -568.00     3520.00
02615            -568.00     3440.00
02616            -576.00     3440.00
02617            -552.00     3440.00
02618            -552.00     3360.00
02619            -544.00     3360.00
02620            -536.00     3280.00
02621            -520.00     3280.00
02622            -512.00     3120.00
02623            -504.00     3120.00
02624            -488.00     3120.00
02625            -504.00     3040.00
02626            -488.00     2960.00
02627            -448.00     3040.00
02628            -448.00     2960.00
02629            -456.00     2800.00
02630            -424.00     2800.00
02631            -424.00     2800.00
02632            -416.00     2720.00
02633            -408.00     2640.00
02634            -384.00     2640.00
02635            -384.00     2480.00
02636            -360.00     2480.00
02637            -344.00     2400.00
02638            -352.00     2320.00
02639            -352.00     2320.00
02640            -328.00     2160.00
02641            -296.00     2240.00
02642            -296.00     2080.00
02643            -296.00     2000.00
02644            -280.00     2000.00
02645            -280.00     1920.00
02646            -264.00     1840.00
02647            -256.00     1760.00
02648            -232.00     1680.00
02649            -232.00     1680.00
02650            -232.00     1520.00
02651            -224.00     1520.00
02652            -224.00     1440.00
02653            -224.00     1360.00
02654            -192.00     1280.00
02655            -168.00     1200.00
02656            -168.00     1120.00
02657            -168.00     1120.00
02658            -160.00      960.00
02659            -160.00      880.00
02660            -144.00      880.00
02661            -136.00      800.00
02662            -136.00      720.00
02663            -136.00      560.00
02664            -128.00      560.00
02665            -112.00      480.00
02666            -104.00      480.00
02667             -96.00      400.00
02668             -88.00      240.00
02669             -72.00      160.00
02670             -72.00      160.00
02671             -72.00       80.00
02672             -64.00        0.00
02673             -48.00      -80.00
02674              -8.00     -160.00
02675              24.00     -240.00
02676              32.00     -240.00
02677               8.00     -320.00
02678               0.00     -400.00
02679              -8.00     -480.00
02680              24.00     -560.00
02681             304.00     -560.00
02682             696.00     -800.00
02683             344.00    -1040.00
02684           -1016.00     -880.00
02685           -1016.00     -800.00
02686             136.00    -1040.00
02687             984.00    -1200.00
02688            -192.00    -1040.00
02689            -360.00    -1200.00
02690             616.00    -1680.00
02691             296.00    -1200.00
02692            -384.00    -1200.00
02693             -88.00    -2000.00
02694             328.00    -1680.00
02695             128.00    -1200.00
02696              80.00    -1840.00
02697               8.00    -2240.00
02698             -40.00    -1440.00
02699             120.00    -1760.00
02700             152.00    -2400.00
02701              56.00    -1840.00
02702             248.00    -1840.00
02703              -8.00    -2480.00
02704             -64.00    -2320.00
02705             472.00    -2000.00
02706             128.00    -2400.00
02707            -232.00    -2640.00
02708             352.00    -2400.00
02709             400.00    -2400.00
02710            -216.00    -2720.00
02711             120.00    -2720.00
02712             392.00    -2560.00
02713              64.00    -2720.00
02714              88.00    -2960.00
02715             288.00    -2800.00
02716             152.00    -2800.00
02717             128.00    -3120.00
02718             264.00    -2960.00
02719             200.00    -2960.00
02720             128.00    -3200.00
02721             168.00    -3200.00
02722             264.00    -3040.00
02723             224.00    -3280.00
02724             192.00    -3360.00
02725             256.00    -3280.00
02726             256.00    -3280.00
02727             208.00    -3440.00
02728             232.00    -3360.00
02729             288.00    -3440.00
02730             256.00    -3600.00
02731             256.00    -3600.00
02732             280.00    -3520.00
02733             256.00    -3680.00
02734             280.00    -3680.00
02735             344.00    -3600.00
02736             312.00    -3680.00
02737             288.00    -3760.00
02738             344.00    -3760.00
02739             328.00    -3760.00
02740             296.00    -3840.00
02741             352.00    -3760.00
02742             376.00    -3760.00
02743             344.00    -3840.00
02744             376.00    -3920.00
02745             408.00    -3840.00
02746             360.00    -3920.00
02747             368.00    -3920.00
02748             448.00    -3920.00
02749             440.00    -3920.00
02750             408.00    -3920.00
02751             440.00    -3920.00
02752             472.00    -3920.00
02753             440.00    -3920.00
02754             448.00    -4000.00
02755             504.00    -3920.00
02756             512.00    -3920.00
02757             488.00    -4000.00
02758             520.00    -3920.00
02759             536.00    -3920.00
02760             504.00    -3920.00
02761             536.00    -3920.00
02762             576.00    -3920.00
02763             568.00    -3920.00
02764             552.00    -3920.00
02765             576.00    -3760.00
02766             584.00    -3760.00
02767             576.00    -3920.00
02768             600.00    -3760.00
02769             608.00    -3760.00
02770             600.00    -3760.00
02771             600.00    -3760.00
02772             600.00    -3760.00
02773             584.00    -3680.00
02774             576.00    -3680.00
02775             600.00    -3600.00
02776             608.00    -3600.00
02777             600.00    -3600.00
02778             584.00    -3600.00
02779             584.00    -3520.00
02780             568.00    -3520.00
02781             568.00    -3440.00
02782             576.00    -3440.00
02783             576.00    -3360.00
02784             544.00    -3360.00
02785             544.00    -3280.00
02786             536.00    -3280.00
02787             520.00    -3280.00
02788             520.00    -3120.00
02789             512.00    -3120.00
02790             504.00    -3040.00
02791             488.00    -3040.00
02792             480.00    -2960.00
02793             472.00    -2880.00
02794             456.00    -2960.00
02795             456.00    -2800.00
02796             440.00    -2800.00
02797             416.00    -2800.00
02798             416.00    -2720.00
02799             400.00    -2640.00
02800             392.00    -2640.00
02801             384.00    -2480.00
02802             384.00    -2480.00
02803             368.00    -2400.00
02804             352.00    -2400.00
02805             344.00    -2320.00
02806             328.00    -2160.00
02807             320.00    -2160.00
02808             312.00    -2080.00
02809             312.00    -2080.00
02810             296.00    -2000.00
02811             288.00    -1920.00
02812             264.00    -1840.00
02813             256.00    -1760.00
02814             256.00    -1760.00
02815             248.00    -1680.00
02816             240.00    -1520.00
02817             224.00    -1520.00
02818             216.00    -1360.00
02819             200.00    -1360.00
02820             192.00    -1280.00
02821             192.00    -1200.00
02822             192.00    -1120.00
02823             184.00    -1120.00
02824             168.00    -1040.00
02825             152.00     -960.00
02826             152.00     -880.00
02827             152.00     -800.00
02828             136.00     -720.00
02829             128.00     -640.00
02830             128.00     -560.00
02831             104.00     -480.00
02832             104.00     -400.00
02833              96.00     -400.00
02834              96.00     -240.00
02835              88.00     -160.00
02836              96.00     -160.00
02837              72.00      -80.00
02838              72.00       80.00
02839              64.00       80.00
02840              72.00      160.00
02841              96.00      160.00
02842             128.00      240.00
02843             120.00      400.00
02844              96.00      480.00
02845              56.00      480.00
02846              32.00      560.00
02847             104.00      560.00
02848             576.00      800.00
02849             792.00      880.00
02850            -352.00      880.00
02851           -1016.00      800.00
02852            -800.00      880.00
02853             984.00     1360.00
02854             544.00     1360.00
02855            -744.00     1040.00
02856              24.00     1120.00
02857             928.00     1520.00
02858            -568.00     1680.00
02859            -864.00     1200.00
02860             632.00     1440.00
02861             360.00     2160.00
02862            -616.00     1680.00
02863             -64.00     1360.00
02864             240.00     2160.00
02865            -248.00     2320.00
02866            -280.00     1440.00
02867              88.00     2000.00
02868              40.00     2720.00
02869            -176.00     1920.00
02870            -296.00     1840.00
02871              32.00     2800.00
02872             120.00     2400.00
02873            -448.00     2080.00
02874            -192.00     2720.00
02875             280.00     2640.00
02876            -344.00     2320.00
02877            -360.00     2720.00
02878             152.00     2800.00
02879            -200.00     2640.00
02880            -296.00     2800.00
02881              24.00     2960.00
02882            -232.00     2960.00
02883            -256.00     3040.00
02884             -88.00     2960.00
02885            -232.00     3120.00
02886            -192.00     3120.00
02887            -160.00     3120.00
02888            -256.00     3360.00
02889            -224.00     3280.00
02890            -168.00     3280.00
02891            -192.00     3440.00
02892            -256.00     3360.00
02893            -280.00     3360.00
02894            -224.00     3520.00
02895            -248.00     3600.00
02896            -264.00     3520.00
02897            -200.00     3600.00
02898            -280.00     3760.00
02899            -352.00     3600.00
02900            -264.00     3600.00
02901            -224.00     3760.00
02902            -312.00     3760.00
02903            -352.00     3680.00
02904            -264.00     3760.00
02905            -296.00     3920.00
02906            -392.00     3760.00
02907            -320.00     3840.00
02908            -296.00     3920.00
02909            -400.00     3840.00
02910            -352.00     3920.00
02911            -320.00     4000.00
02912            -416.00     4000.00
02913            -448.00     3920.00
02914            -352.00     4000.00
02915            -368.00     4080.00
02916            -456.00     4000.00
02917            -440.00     4000.00
02918            -408.00     4000.00
02919            -480.00     4000.00
02920            -488.00     4000.00
02921            -440.00     4080.00
02922            -480.00     4000.00
02923            -520.00     4000.00
02924            -488.00     4000.00
02925            -488.00     4080.00
02926            -552.00     4000.00
02927            -552.00     4000.00
02928            -520.00     4080.00
02929            -544.00     4000.00
02930            -568.00     3920.00
02931            -552.00     3920.00
02932            -576.00     4000.00
02933            -600.00     3920.00
02934            -584.00     3920.00
02935            -584.00     3920.00
02936            -608.00     3760.00
02937            -584.00     3760.00
02938            -584.00     3920.00
02939            -608.00     3760.00
02940            -616.00     3760.00
02941            -592.00     3760.00
02942            -576.00     3760.00
02943            -584.00     3680.00
02944            -584.00     3680.00
02945            -592.00     3680.00
02946            -600.00     3600.00
02947            -576.00     3600.00
02948            -560.00     3520.00
02949            -568.00     3440.00
02950            -576.00     3440.00
02951            -552.00     3440.00
02952            -544.00     3440.00
02953            -552.00     3280.00
02954            -520.00     3280.00
02955            -520.00     3280.00
02956            -512.00     3280.00
02957            -504.00     3120.00
02958            -488.00     3120.00
02959            -504.00     3040.00
02960            -480.00     2960.00
02961            -448.00     2960.00
02962            -448.00     2880.00
02963            -448.00     2880.00
02964            -440.00     2800.00
02965            -416.00     2720.00
02966            -416.00     2720.00
02967            -392.00     2640.00
02968            -384.00     2560.00
02969            -376.00     2480.00
02970            -360.00     2480.00
02971            -352.00     2400.00
02972            -352.00     2320.00
02973            -352.00     2240.00
02974            -328.00     2160.00
02975            -296.00     2160.00
02976            -296.00     2080.00
02977            -296.00     2080.00
02978            -288.00     2000.00
02979            -280.00     1920.00
02980            -264.00     1760.00
02981            -256.00     1760.00
02982            -240.00     1680.00
02983            -248.00     1680.00
02984            -232.00     1600.00
02985            -224.00     1520.00
02986            -224.00     1440.00
02987            -224.00     1360.00
02988            -200.00     1360.00
02989            -168.00     1280.00
02990            -168.00     1200.00
02991            -168.00     1120.00
02992            -160.00     1040.00
02993            -160.00      880.00
02994            -152.00      800.00
02995            -136.00      720.00
02996            -136.00      720.00
02997            -136.00      560.00
02998            -128.00      560.00
02999            -104.00      560.00
03000             -96.00      400.00
03001            -104.00      400.00
03002             -96.00      240.00
03003             -88.00      240.00
03004             -72.00      160.00
03005             -72.00       80.00
03006             -64.00      -80.00
03007             -40.00      -80.00
03008               0.00     -160.00
03009              32.00     -240.00
03010              32.00     -240.00
03011               8.00     -400.00
03012               0.00     -400.00
03013              -8.00     -480.00
03014              24.00     -560.00
03015             280.00     -720.00
03016             680.00     -800.00
03017             344.00     -960.00
03018           -1016.00     -880.00
03019           -1016.00     -800.00
03020              96.00    -1040.00
03021             984.00    -1120.00
03022            -184.00    -1040.00
03023            -360.00    -1200.00
03024             608.00    -1680.00
03025             328.00    -1200.00
03026            -384.00    -1200.00
03027            -104.00    -1920.00
03028             336.00    -1680.00
03029             128.00    -1200.00
03030              88.00    -1840.00
03031              24.00    -2240.00
03032             -56.00    -1440.00
03033             104.00    -1760.00
03034             152.00    -2400.00
03035              48.00    -2000.00
03036             256.00    -1840.00
03037              -8.00    -2480.00
03038             -64.00    -2320.00
03039             456.00    -2000.00
03040             128.00    -2400.00
03041            -248.00    -2640.00
03042             328.00    -2400.00
03043             408.00    -2400.00
03044            -200.00    -2720.00
03045             104.00    -2720.00
03046             392.00    -2560.00
03047              72.00    -2720.00
03048              88.00    -2960.00
03049             288.00    -2800.00
03050             136.00    -2800.00
03051             120.00    -3040.00
03052             272.00    -2960.00
03053             216.00    -2960.00
03054             128.00    -3200.00
03055             168.00    -3280.00
03056             256.00    -3120.00
03057             216.00    -3280.00
03058             192.00    -3360.00
03059             248.00    -3280.00
03060             256.00    -3360.00
03061             200.00    -3440.00
03062             232.00    -3360.00
03063             288.00    -3440.00
03064             256.00    -3600.00
03065             256.00    -3520.00
03066             280.00    -3520.00
03067             248.00    -3680.00
03068             272.00    -3680.00
03069             352.00    -3600.00
03070             320.00    -3760.00
03071             288.00    -3760.00
03072             328.00    -3760.00
03073             328.00    -3760.00
03074             296.00    -3840.00
03075             352.00    -3760.00
03076             384.00    -3760.00
03077             344.00    -3920.00
03078             376.00    -3920.00
03079             408.00    -3840.00
03080             360.00    -3920.00
03081             376.00    -3920.00
03082             440.00    -3920.00
03083             448.00    -3920.00
03084             408.00    -3920.00
03085             440.00    -3920.00
03086             472.00    -3920.00
03087             440.00    -3920.00
03088             448.00    -4000.00
03089             504.00    -3920.00
03090             504.00    -3920.00
03091             480.00    -4000.00
03092             520.00    -3920.00
03093             536.00    -3920.00
03094             512.00    -3920.00
03095             536.00    -3920.00
03096             576.00    -3920.00
03097             576.00    -3920.00
03098             552.00    -3920.00
03099             576.00    -3840.00
03100             584.00    -3840.00
03101             576.00    -3840.00
03102             600.00    -3840.00
03103             608.00    -3760.00
03104             592.00    -3760.00
03105             600.00    -3760.00
03106             608.00    -3680.00
03107             584.00    -3760.00
03108             584.00    -3760.00
03109             600.00    -3600.00
03110             600.00    -3600.00
03111             584.00    -3680.00
03112             584.00    -3600.00
03113             576.00    -3600.00
03114             568.00    -3440.00
03115             568.00    -3520.00
03116             576.00    -3440.00
03117             568.00    -3360.00
03118             552.00    -3440.00
03119             544.00    -3360.00
03120             536.00    -3280.00
03121             512.00    -3280.00
03122             520.00    -3200.00
03123             512.00    -3120.00
03124             512.00    -3120.00
03125             488.00    -3040.00
03126             480.00    -3040.00
03127             464.00    -2960.00
03128             456.00    -2880.00
03129             456.00    -2800.00
03130             448.00    -2800.00
03131             424.00    -2720.00
03132             408.00    -2720.00
03133             408.00    -2640.00
03134             392.00    -2560.00
03135             392.00    -2560.00
03136             384.00    -2480.00
03137             376.00    -2400.00
03138             352.00    -2400.00
03139             336.00    -2240.00
03140             328.00    -2240.00
03141             320.00    -2160.00
03142             320.00    -2080.00
03143             312.00    -2000.00
03144             288.00    -1920.00
03145             280.00    -2000.00
03146             272.00    -1920.00
03147             256.00    -1840.00
03148             256.00    -1680.00
03149             256.00    -1680.00
03150             240.00    -1520.00
03151             232.00    -1520.00
03152             216.00    -1440.00
03153             216.00    -1360.00
03154             192.00    -1280.00
03155             192.00    -1200.00
03156             192.00    -1200.00
03157             184.00    -1120.00
03158             168.00    -1040.00
03159             152.00     -960.00
03160             152.00     -880.00
03161             144.00     -720.00
03162             136.00     -720.00
03163             128.00     -720.00
03164             128.00     -560.00
03165             120.00     -560.00
03166             104.00     -480.00
03167              96.00     -320.00
03168              96.00     -240.00
03169              88.00     -240.00
03170              88.00     -160.00
03171              72.00      -80.00
03172              72.00       80.00
03173              64.00       80.00
03174              64.00      160.00
03175              88.00      160.00
03176             128.00      240.00
03177             120.00      400.00
03178              88.00      400.00
03179              56.00      480.00
03180              32.00      560.00
03181              96.00      640.00
03182             568.00      800.00
03183             808.00      960.00
03184            -312.00      880.00
03185           -1016.00      720.00
03186            -832.00      880.00
03187             984.00     1280.00
03188             592.00     1360.00
03189            -736.00     1040.00
03190              -8.00     1120.00
03191             928.00     1520.00
03192            -536.00     1680.00
03193            -880.00     1200.00
03194             608.00     1440.00
03195             384.00     2160.00
03196            -616.00     1680.00
03197             -96.00     1360.00
03198             248.00     2160.00
03199            -232.00     2320.00
03200            -280.00     1440.00
03201              88.00     2000.00
03202              56.00     2800.00
03203            -168.00     2000.00
03204            -304.00     1840.00
03205              24.00     2800.00
03206             128.00     2400.00
03207            -448.00     2000.00
03208            -200.00     2720.00
03209             280.00     2720.00
03210            -320.00     2320.00
03211            -376.00     2720.00
03212             152.00     2800.00
03213            -184.00     2720.00
03214            -296.00     2800.00
03215              24.00     2960.00
03216            -224.00     3040.00
03217            -256.00     2960.00
03218             -88.00     2960.00
03219            -224.00     3200.00
03220            -192.00     3120.00
03221            -160.00     3120.00
03222            -264.00     3360.00
03223            -224.00     3280.00
03224            -168.00     3120.00
03225            -192.00     3440.00
03226            -240.00     3360.00
03227            -280.00     3360.00
03228            -224.00     3520.00
03229            -256.00     3520.00
03230            -272.00     3440.00
03231            -200.00     3600.00
03232            -264.00     3680.00
03233            -352.00     3600.00
03234            -280.00     3600.00
03235            -224.00     3760.00
03236            -312.00     3680.00
03237            -352.00     3600.00
03238            -272.00     3840.00
03239            -312.00     3920.00
03240            -408.00     3760.00
03241            -320.00     3920.00
03242            -296.00     3920.00
03243            -392.00     3840.00
03244            -360.00     3920.00
03245            -312.00     4000.00
03246            -424.00     4000.00
03247            -448.00     3840.00
03248            -360.00     4000.00
03249            -368.00     4080.00
03250            -456.00     3920.00
03251            -440.00     4000.00
03252            -400.00     4000.00
03253            -472.00     4000.00
03254            -488.00     4000.00
03255            -440.00     4080.00
03256            -480.00     4000.00
03257            -520.00     3920.00
03258            -488.00     4000.00
03259            -488.00     4000.00
03260            -552.00     4000.00
03261            -552.00     4000.00
03262            -520.00     4080.00
03263            -544.00     4000.00
03264            -576.00     3920.00
03265            -552.00     4000.00
03266            -576.00     3920.00
03267            -600.00     3920.00
03268            -584.00     3920.00
03269            -576.00     3920.00
03270            -600.00     3840.00
03271            -600.00     3840.00
03272            -584.00     3920.00
03273            -608.00     3760.00
03274            -616.00     3760.00
03275            -584.00     3760.00
03276            -584.00     3760.00
03277            -600.00     3760.00
03278            -584.00     3680.00
03279            -584.00     3680.00
03280            -608.00     3600.00
03281            -576.00     3600.00
03282            -560.00     3600.00
03283            -576.00     3440.00
03284            -568.00     3440.00
03285            -552.00     3440.00
03286            -544.00     3440.00
03287            -552.00     3280.00
03288            -536.00     3280.00
03289            -520.00     3280.00
03290            -512.00     3200.00
03291            -504.00     3120.00
03292            -488.00     3120.00
03293            -504.00     3040.00
03294            -480.00     2960.00
03295            -456.00     2960.00
03296            -448.00     2960.00
03297            -456.00     2800.00
03298            -440.00     2800.00
03299            -424.00     2800.00
03300            -408.00     2720.00
03301            -392.00     2640.00
03302            -384.00     2640.00
03303            -384.00     2480.00
03304            -384.00     2480.00
03305            -360.00     2480.00
03306            -360.00     2320.00
03307            -352.00     2240.00
03308            -344.00     2320.00
03309            -296.00     2240.00
03310            -296.00     2080.00
03311            -296.00     2000.00
03312            -288.00     2000.00
03313            -280.00     1920.00
03314            -264.00     1840.00
03315            -256.00     1760.00
03316            -240.00     1680.00
03317            -248.00     1680.00
03318            -232.00     1600.00
03319            -224.00     1520.00
03320            -224.00     1440.00
03321            -216.00     1440.00
03322            -192.00     1360.00
03323            -168.00     1280.00
03324            -168.00     1200.00
03325            -168.00     1120.00
03326            -168.00     1040.00
03327            -160.00      960.00
03328            -152.00      880.00
03329            -136.00      800.00
03330            -136.00      720.00
03331            -128.00      560.00
03332            -128.00      560.00
03333            -104.00      560.00
03334             -96.00      400.00
03335             -96.00      320.00
03336             -88.00      320.00
03337             -88.00      240.00
03338             -88.00      160.00
03339             -72.00       80.00
03340             -64.00       80.00
03341             -40.00      -80.00
03342               0.00     -160.00
03343              32.00     -160.00
03344              32.00     -320.00
03345               8.00     -320.00
03346               0.00     -400.00
03347              -8.00     -480.00
03348              24.00     -560.00
03349             280.00     -640.00
03350             696.00     -800.00
03351             384.00     -960.00
03352           -1000.00     -880.00
03353           -1016.00     -800.00
03354              56.00    -1120.00
03355             984.00    -1120.00
03356            -152.00    -1040.00
03357            -376.00    -1200.00
03358             584.00    -1680.00
03359             344.00    -1120.00
03360            -376.00    -1120.00
03361            -120.00    -1920.00
03362             344.00    -1680.00
03363             128.00    -1200.00
03364              88.00    -1840.00
03365              24.00    -2240.00
03366             -56.00    -1440.00
03367             112.00    -1760.00
03368             160.00    -2400.00
03369              40.00    -2000.00
03370             256.00    -1840.00
03371               0.00    -2480.00
03372             -72.00    -2320.00
03373             448.00    -2000.00
03374             152.00    -2480.00
03375            -256.00    -2640.00
03376             320.00    -2400.00
03377             416.00    -2400.00
03378            -200.00    -2720.00
03379              88.00    -2800.00
03380             392.00    -2640.00
03381              80.00    -2720.00
03382              88.00    -2960.00
03383             288.00    -2800.00
03384             152.00    -2800.00
03385             112.00    -3120.00
03386             256.00    -3040.00
03387             216.00    -2880.00
03388             136.00    -3200.00
03389             184.00    -3280.00
03390             256.00    -3120.00
03391             224.00    -3280.00
03392             200.00    -3360.00
03393             248.00    -3280.00
03394             256.00    -3360.00
03395             200.00    -3440.00
03396             232.00    -3440.00
03397             288.00    -3440.00
03398             264.00    -3520.00
03399             264.00    -3600.00
03400             288.00    -3440.00
03401             256.00    -3600.00
03402             280.00    -3680.00
03403             344.00    -3600.00
03404             320.00    -3680.00
03405             288.00    -3760.00
03406             336.00    -3760.00
03407             328.00    -3680.00
03408             304.00    -3840.00
03409             352.00    -3760.00
03410             384.00    -3760.00
03411             352.00    -3840.00
03412             376.00    -3920.00
03413             408.00    -3840.00
03414             368.00    -3840.00
03415             360.00    -4000.00
03416             440.00    -3920.00
03417             448.00    -3840.00
03418             408.00    -3920.00
03419             448.00    -3920.00
03420             472.00    -3920.00
03421             440.00    -3920.00
03422             440.00    -4000.00
03423             512.00    -3920.00
03424             512.00    -3920.00
03425             480.00    -4000.00
03426             520.00    -3920.00
03427             536.00    -3920.00
03428             504.00    -3920.00
03429             520.00    -3920.00
03430             576.00    -3920.00
03431             568.00    -3840.00
03432             552.00    -3920.00
03433             568.00    -3920.00
03434             576.00    -3760.00
03435             568.00    -3920.00
03436             592.00    -3760.00
03437             608.00    -3760.00
03438             600.00    -3760.00
03439             584.00    -3760.00
03440             600.00    -3760.00
03441             584.00    -3760.00
03442             576.00    -3680.00
03443             600.00    -3680.00
03444             608.00    -3600.00
03445             584.00    -3600.00
03446             584.00    -3520.00
03447             576.00    -3600.00
03448             568.00    -3520.00
03449             576.00    -3440.00
03450             576.00    -3440.00
03451             568.00    -3440.00
03452             544.00    -3360.00
03453             536.00    -3280.00
03454             536.00    -3280.00
03455             520.00    -3280.00
03456             520.00    -3200.00
03457             520.00    -3120.00
03458             504.00    -3120.00
03459             488.00    -3120.00
03460             480.00    -2960.00
03461             472.00    -2880.00
03462             456.00    -2960.00
03463             472.00    -2800.00
03464             448.00    -2800.00
03465             416.00    -2720.00
03466             408.00    -2720.00
03467             408.00    -2640.00
03468             392.00    -2640.00
03469             384.00    -2480.00
03470             384.00    -2400.00
03471             360.00    -2400.00
03472             352.00    -2320.00
03473             344.00    -2320.00
03474             336.00    -2160.00
03475             320.00    -2160.00
03476             320.00    -2080.00
03477             312.00    -2000.00
03478             296.00    -1920.00
03479             280.00    -2000.00
03480             272.00    -1840.00
03481             264.00    -1760.00
03482             256.00    -1680.00
03483             248.00    -1680.00
03484             240.00    -1520.00
03485             232.00    -1520.00
03486             224.00    -1440.00
03487             200.00    -1360.00
03488             184.00    -1280.00
03489             192.00    -1200.00
03490             192.00    -1120.00
03491             184.00    -1120.00
03492             168.00    -1040.00
03493             160.00     -880.00
03494             152.00     -880.00
03495             128.00     -800.00
03496             136.00     -720.00
03497             136.00     -720.00
03498             128.00     -560.00
03499             120.00     -480.00
03500             112.00     -400.00
03501             104.00     -320.00
03502              96.00     -320.00
03503              88.00     -240.00
03504              88.00     -160.00
03505              72.00      -80.00
03506              72.00        0.00
03507              64.00       80.00
03508              64.00      160.00
03509              96.00      240.00
03510             120.00      240.00
03511             120.00      400.00
03512              88.00      400.00
03513              56.00      480.00
03514              24.00      560.00
03515              88.00      640.00
03516             552.00      720.00
03517             808.00      880.00
03518            -264.00      880.00
03519           -1016.00      800.00
03520            -872.00      880.00
03521             984.00     1280.00
03522             640.00     1360.00
03523            -720.00     1040.00
03524             -40.00     1040.00
03525             952.00     1600.00
03526            -504.00     1760.00
03527            -904.00     1200.00
03528             584.00     1440.00
03529             416.00     2080.00
03530            -600.00     1680.00
03531            -104.00     1360.00
03532             248.00     2240.00
03533            -224.00     2400.00
03534            -288.00     1440.00
03535              88.00     1840.00
03536              56.00     2800.00
03537            -160.00     2000.00
03538            -320.00     1840.00
03539              16.00     2800.00
03540             136.00     2480.00
03541            -424.00     2080.00
03542            -224.00     2720.00
03543             280.00     2800.00
03544            -312.00     2320.00
03545            -392.00     2800.00
03546             136.00     2880.00
03547            -168.00     2720.00
03548            -312.00     2800.00
03549              16.00     2960.00
03550            -216.00     3040.00
03551            -256.00     3040.00
03552             -88.00     2960.00
03553            -216.00     3280.00
03554            -200.00     3120.00
03555            -160.00     3120.00
03556            -256.00     3360.00
03557            -232.00     3280.00
03558            -168.00     3200.00
03559            -192.00     3440.00
03560            -232.00     3360.00
03561            -280.00     3360.00
03562            -216.00     3520.00
03563            -256.00     3520.00
03564            -272.00     3440.00
03565            -200.00     3600.00
03566            -280.00     3680.00
03567            -352.00     3600.00
03568            -280.00     3680.00
03569            -224.00     3840.00
03570            -296.00     3840.00
03571            -360.00     3680.00
03572            -272.00     3840.00
03573            -312.00     3920.00
03574            -400.00     3760.00
03575            -320.00     3920.00
03576            -296.00     3920.00
03577            -392.00     3920.00
03578            -360.00     3920.00
03579            -320.00     4000.00
03580            -408.00     3920.00
03581            -456.00     3920.00
03582            -360.00     4000.00
03583            -368.00     4080.00
03584            -456.00     3920.00
03585            -448.00     4000.00
03586            -400.00     4080.00
03587            -472.00     4000.00
03588            -504.00     4000.00
03589            -440.00     4080.00
03590            -480.00     4080.00
03591            -520.00     4000.00
03592            -488.00     4080.00
03593            -488.00     4080.00
03594            -552.00     4000.00
03595            -560.00     3920.00
03596            -520.00     4080.00
03597            -536.00     4000.00
03598            -576.00     4000.00
03599            -568.00     4000.00
03600            -576.00     4000.00
03601            -600.00     3920.00
03602            -584.00     3920.00
03603            -568.00     3920.00
03604            -608.00     3920.00
03605            -592.00     3920.00
03606            -576.00     3840.00
03607            -608.00     3760.00
03608            -616.00     3760.00
03609            -600.00     3760.00
03610            -576.00     3760.00
03611            -600.00     3760.00
03612            -584.00     3680.00
03613            -584.00     3680.00
03614            -608.00     3600.00
03615            -584.00     3520.00
03616            -560.00     3600.00
03617            -568.00     3600.00
03618            -576.00     3440.00
03619            -544.00     3440.00
03620            -544.00     3360.00
03621            -552.00     3280.00
03622            -536.00     3280.00
03623            -520.00     3280.00
03624            -512.00     3280.00
03625            -496.00     3120.00
03626            -488.00     3120.00
03627            -504.00     3120.00
03628            -488.00     2960.00
03629            -456.00     3040.00
03630            -440.00     2880.00
03631            -456.00     2800.00
03632            -440.00     2800.00
03633            -424.00     2720.00
03634            -424.00     2720.00
03635            -400.00     2640.00
03636            -392.00     2640.00
03637            -384.00     2480.00
03638            -376.00     2480.00
03639            -352.00     2400.00
03640            -360.00     2400.00
03641            -360.00     2320.00
03642            -328.00     2240.00
03643            -296.00     2160.00
03644            -304.00     2080.00
03645            -312.00     2080.00
03646            -296.00     2000.00
03647            -288.00     2000.00
03648            -272.00     1840.00
03649            -248.00     1840.00
03650            -232.00     1760.00
03651            -248.00     1600.00
03652            -232.00     1520.00
03653            -224.00     1520.00
03654            -224.00     1440.00
03655            -224.00     1360.00
03656            -192.00     1280.00
03657            -176.00     1200.00
03658            -168.00     1200.00
03659            -168.00     1120.00
03660            -160.00     1040.00
03661            -152.00      880.00
03662            -152.00      800.00
03663            -152.00      800.00
03664            -136.00      720.00
03665            -128.00      640.00
03666            -120.00      560.00
03667            -104.00      480.00
03668             -96.00      480.00
03669             -88.00      400.00
03670             -88.00      320.00
03671             -72.00      160.00
03672             -72.00      160.00
03673             -72.00       80.00
03674             -64.00      -80.00
03675             -48.00      -80.00
03676               0.00     -160.00
03677              32.00     -240.00
03678              32.00     -240.00
03679               8.00     -320.00
03680              -8.00     -400.00
03681              -8.00     -400.00
03682              24.00     -560.00
03683             264.00     -640.00
03684             680.00     -880.00
03685             392.00     -960.00
03686            -968.00     -880.00
03687           -1016.00     -800.00
03688              16.00    -1040.00
03689             984.00    -1120.00
03690            -128.00    -1040.00
03691            -384.00    -1120.00
03692             568.00    -1680.00
03693             368.00    -1200.00
03694            -368.00    -1120.00
03695            -136.00    -1920.00
03696             336.00    -1760.00
03697             136.00    -1200.00
03698              88.00    -1840.00
03699              24.00    -2320.00
03700             -64.00    -1440.00
03701             104.00    -1760.00
03702             160.00    -2400.00
03703              32.00    -2000.00
03704             256.00    -1840.00
03705               0.00    -2400.00
03706             -88.00    -2320.00
03707             448.00    -2000.00
03708             168.00    -2400.00
03709            -256.00    -2560.00
03710             312.00    -2400.00
03711             440.00    -2400.00
03712            -200.00    -2720.00
03713              72.00    -2720.00
03714             408.00    -2560.00
03715              88.00    -2720.00
03716              72.00    -2960.00
03717             280.00    -2800.00
03718             152.00    -2800.00
03719             104.00    -3120.00
03720             256.00    -3040.00
03721             224.00    -2880.00
03722             128.00    -3200.00
03723             168.00    -3280.00
03724             256.00    -3120.00
03725             224.00    -3200.00
03726             200.00    -3360.00
03727             256.00    -3280.00
03728             264.00    -3280.00
03729             200.00    -3440.00
03730             224.00    -3440.00
03731             288.00    -3440.00
03732             256.00    -3600.00
03733             264.00    -3600.00
03734             288.00    -3520.00
03735             256.00    -3600.00
03736             272.00    -3680.00
03737             344.00    -3680.00
03738             328.00    -3680.00
03739             288.00    -3840.00
03740             328.00    -3680.00
03741             328.00    -3760.00
03742             296.00    -3840.00
03743             352.00    -3760.00
03744             384.00    -3760.00
03745             352.00    -3840.00
03746             376.00    -3920.00
03747             408.00    -3840.00
03748             376.00    -3840.00
03749             376.00    -3920.00
03750             440.00    -3920.00
03751             448.00    -3920.00
03752             408.00    -3920.00
03753             440.00    -4000.00
03754             472.00    -3920.00
03755             448.00    -3920.00
03756             448.00    -3920.00
03757             504.00    -3920.00
03758             512.00    -3920.00
03759             488.00    -3920.00
03760             520.00    -3920.00
03761             536.00    -3840.00
03762             504.00    -3920.00
03763             520.00    -3920.00
03764             576.00    -3920.00
03765             568.00    -3920.00
03766             544.00    -3920.00
03767             576.00    -3840.00
03768             576.00    -3920.00
03769             568.00    -3840.00
03770             584.00    -3920.00
03771             600.00    -3760.00
03772             600.00    -3760.00
03773             584.00    -3760.00
03774             600.00    -3760.00
03775             584.00    -3760.00
03776             576.00    -3680.00
03777             600.00    -3680.00
03778             608.00    -3680.00
03779             592.00    -3600.00
03780             576.00    -3600.00
03781             584.00    -3520.00
03782             568.00    -3600.00
03783             576.00    -3440.00
03784             576.00    -3440.00
03785             568.00    -3360.00
03786             544.00    -3360.00
03787             544.00    -3360.00
03788             536.00    -3280.00
03789             520.00    -3280.00
03790             520.00    -3280.00
03791             520.00    -3120.00
03792             512.00    -3120.00
03793             488.00    -3120.00
03794             480.00    -2960.00
03795             472.00    -2880.00
03796             456.00    -2880.00
03797             456.00    -2800.00
03798             440.00    -2800.00
03799             424.00    -2720.00
03800             416.00    -2720.00
03801             408.00    -2640.00
03802             392.00    -2640.00
03803             384.00    -2480.00
03804             384.00    -2480.00
03805             376.00    -2400.00
03806             360.00    -2320.00
03807             344.00    -2320.00
03808             328.00    -2160.00
03809             312.00    -2160.00
03810             320.00    -2160.00
03811             312.00    -2080.00
03812             296.00    -2000.00
03813             288.00    -1920.00
03814             264.00    -1840.00
03815             256.00    -1760.00
03816             256.00    -1680.00
03817             248.00    -1680.00
03818             248.00    -1520.00
03819             224.00    -1440.00
03820             216.00    -1440.00
03821             200.00    -1360.00
03822             200.00    -1360.00
03823             192.00    -1200.00
03824             192.00    -1200.00
03825             184.00    -1120.00
03826             168.00    -1040.00
03827             152.00     -960.00
03828             136.00     -880.00
03829             136.00     -800.00
03830             136.00     -720.00
03831             128.00     -720.00
03832             120.00     -560.00
03833             120.00     -480.00
03834             104.00     -480.00
03835             104.00     -320.00
03836              88.00     -240.00
03837              88.00     -240.00
03838              88.00     -160.00
03839              72.00      -80.00
03840              64.00        0.00
03841              72.00       80.00
03842              72.00      160.00
03843              88.00      160.00
03844             120.00      240.00
03845             120.00      400.00
03846              88.00      480.00
03847              56.00      480.00
03848              32.00      560.00
03849              88.00      640.00
03850             536.00      800.00
03851             808.00      880.00
03852            -224.00      880.00
03853           -1016.00      720.00
03854            -904.00      880.00
03855             984.00     1280.00
03856             680.00     1440.00
03857            -712.00      960.00
03858             -72.00     1120.00
03859             960.00     1520.00
03860            -464.00     1680.00
03861            -928.00     1200.00
03862             568.00     1440.00
03863             440.00     2160.00
03864            -592.00     1680.00
03865            -136.00     1280.00
03866             256.00     2160.00
03867            -216.00     2400.00
03868            -296.00     1440.00
03869              88.00     1840.00
03870              56.00     2800.00
03871            -160.00     2000.00
03872            -296.00     1840.00
03873               8.00     2800.00
03874             152.00     2480.00
03875            -424.00     2000.00
03876            -240.00     2720.00
03877             280.00     2720.00
03878            -296.00     2320.00
03879            -408.00     2720.00
03880             136.00     2880.00
03881            -160.00     2720.00
03882            -320.00     2800.00
03883              24.00     2800.00
03884            -216.00     3040.00
03885            -264.00     3040.00
03886             -88.00     2960.00
03887            -224.00     3120.00
03888            -200.00     3120.00
03889            -152.00     3120.00
03890            -256.00     3360.00
03891            -232.00     3280.00
03892            -168.00     3200.00
03893            -192.00     3440.00
03894            -248.00     3360.00
03895            -280.00     3360.00
03896            -232.00     3520.00
03897            -256.00     3600.00
03898            -280.00     3520.00
03899            -208.00     3600.00
03900            -264.00     3680.00
03901            -360.00     3600.00
03902            -288.00     3600.00
03903            -224.00     3840.00
03904            -312.00     3760.00
03905            -352.00     3680.00
03906            -264.00     3840.00
03907            -312.00     3920.00
03908            -400.00     3760.00
03909            -320.00     3840.00
03910            -296.00     4000.00
03911            -400.00     3920.00
03912            -360.00     3920.00
03913            -312.00     4000.00
03914            -416.00     3920.00
03915            -456.00     3920.00
03916            -360.00     3920.00
03917            -368.00     4000.00
03918            -456.00     3920.00
03919            -440.00     4000.00
03920            -392.00     4000.00
03921            -472.00     4080.00
03922            -488.00     4000.00
03923            -440.00     4000.00
03924            -472.00     4000.00
03925            -520.00     3920.00
03926            -488.00     4000.00
03927            -480.00     4080.00
03928            -552.00     4000.00
03929            -552.00     3920.00
03930            -512.00     4000.00
03931            -536.00     4000.00
03932            -576.00     3920.00
03933            -552.00     4000.00
03934            -568.00     3920.00
03935            -584.00     3840.00
03936            -576.00     3920.00
03937            -576.00     3920.00
03938            -600.00     3920.00
03939            -600.00     3840.00
03940            -584.00     3920.00
03941            -608.00     3760.00
03942            -616.00     3760.00
03943            -600.00     3760.00
03944            -584.00     3840.00
03945            -600.00     3680.00
03946            -592.00     3680.00
03947            -584.00     3600.00
03948            -600.00     3600.00
03949            -576.00     3600.00
03950            -560.00     3600.00
03951            -568.00     3440.00
03952            -568.00     3440.00
03953            -552.00     3440.00
03954            -552.00     3440.00
03955            -536.00     3360.00
03956            -536.00     3280.00
03957            -528.00     3280.00
03958            -512.00     3280.00
03959            -520.00     3120.00
03960            -520.00     3120.00
03961            -544.00     3120.00
03962            -488.00     2960.00
03963            -424.00     2960.00
03964            -392.00     2960.00
03965            -408.00     2800.00
03966            -416.00     2800.00
03967            -440.00     2800.00
03968            -480.00     2720.00
03969            -472.00     2640.00
03970            -424.00     2640.00
03971            -360.00     2560.00
03972            -320.00     2480.00
03973            -312.00     2480.00
03974            -328.00     2400.00
03975            -344.00     2320.00
03976            -360.00     2240.00
03977            -328.00     2240.00
03978            -328.00     2160.00
03979            -320.00     2080.00
03980            -296.00     2000.00
03981            -280.00     1840.00
03982            -264.00     1840.00
03983            -232.00     1760.00
03984            -224.00     1760.00
03985            -232.00     1680.00
03986            -224.00     1520.00
03987            -224.00     1520.00
03988            -232.00     1440.00
03989            -248.00     1360.00
03990            -216.00     1360.00
03991            -192.00     1360.00
03992            -168.00     1200.00
03993            -152.00     1120.00
03994            -136.00     1040.00
03995            -128.00      960.00
03996            -128.00      880.00
03997            -136.00      800.00
03998            -152.00      720.00
03999            -160.00      640.00
04000            -152.00      560.00
04001            -128.00      480.00
04002             -96.00      400.00
04003             -64.00      320.00
04004             -64.00      240.00
04005             -64.00      240.00
04006             -72.00      160.00
04007             -88.00       80.00
04008             -88.00        0.00
04009             -72.00      -80.00
04010             -16.00     -160.00
04011              32.00     -160.00
04012              40.00     -240.00
04013              32.00     -400.00
04014               8.00     -400.00
04015              -8.00     -480.00
04016               0.00     -560.00
04017             248.00     -560.00
04018             672.00     -800.00
04019             416.00    -1040.00
04020            -952.00     -880.00
04021           -1016.00     -800.00
04022              -8.00    -1040.00
04023             984.00    -1120.00
04024            -104.00    -1040.00
04025            -392.00    -1200.00
04026             536.00    -1680.00
04027             384.00    -1200.00
04028            -368.00    -1120.00
04029            -168.00    -1840.00
04030             344.00    -1680.00
04031             136.00    -1200.00
04032              72.00    -1840.00
04033              24.00    -2320.00
04034             -56.00    -1440.00
04035             104.00    -1760.00
04036             160.00    -2400.00
04037              24.00    -2000.00
04038             256.00    -1840.00
04039               0.00    -2400.00
04040             -96.00    -2320.00
04041             432.00    -2000.00
04042             184.00    -2400.00
04043            -256.00    -2640.00
04044             296.00    -2400.00
04045             448.00    -2400.00
04046            -192.00    -2720.00
04047              64.00    -2720.00
04048             408.00    -2560.00
04049              96.00    -2720.00
04050              72.00    -2960.00
04051             288.00    -2800.00
04052             160.00    -2800.00
04053             112.00    -3040.00
04054             256.00    -3040.00
04055             224.00    -2880.00
04056             128.00    -3200.00
04057             168.00    -3280.00
04058             256.00    -3120.00
04059             232.00    -3200.00
04060             216.00    -3360.00
04061             256.00    -3280.00
04062             256.00    -3280.00
04063             208.00    -3440.00
04064             232.00    -3440.00
04065             288.00    -3360.00
04066             256.00    -3600.00
04067             264.00    -3600.00
04068             288.00    -3520.00
04069             256.00    -3680.00
04070             280.00    -3680.00
04071             344.00    -3600.00
04072             320.00    -3680.00
04073             296.00    -3760.00
04074             328.00    -3680.00
04075             344.00    -3760.00
04076             288.00    -3840.00
04077             352.00    -3760.00
04078             384.00    -3760.00
04079             360.00    -3840.00
04080             376.00    -3920.00
04081             408.00    -3840.00
04082             360.00    -3840.00
04083             376.00    -3920.00
04084             440.00    -3920.00
04085             448.00    -3920.00
04086             392.00    -4000.00
04087             424.00    -3920.00
04088             472.00    -3920.00
04089             440.00    -4000.00
04090             448.00    -4000.00
04091             504.00    -3920.00
04092             504.00    -3920.00
04093             488.00    -3920.00
04094             504.00    -3920.00
04095             536.00    -3920.00
04096             504.00    -3920.00
04097             528.00    -3920.00
04098             568.00    -3920.00
04099             568.00    -3920.00
04100             552.00    -3920.00
04101             576.00    -3920.00
04102             576.00    -3840.00
04103             568.00    -3760.00
04104             584.00    -3760.00
04105             608.00    -3760.00
04106             592.00    -3760.00
04107             600.00    -3760.00
04108             608.00    -3760.00
04109             592.00    -3680.00
04110             584.00    -3680.00
04111             600.00    -3680.00
04112             600.00    -3600.00
04113             592.00    -3600.00
04114             584.00    -3600.00
04115             576.00    -3520.00
04116             568.00    -3520.00
04117             568.00    -3520.00
04118             584.00    -3440.00
04119             576.00    -3360.00
04120             544.00    -3280.00
04121             544.00    -3280.00
04122             536.00    -3280.00
04123             528.00    -3200.00
04124             520.00    -3280.00
04125             520.00    -3120.00
04126             512.00    -3120.00
04127             504.00    -3040.00
04128             480.00    -2880.00
04129             472.00    -2960.00
04130             472.00    -2800.00
04131             456.00    -2800.00
04132             456.00    -2800.00
04133             440.00    -2720.00
04134             416.00    -2720.00
04135             408.00    -2640.00
04136             392.00    -2640.00
04137             392.00    -2560.00
04138             384.00    -2400.00
04139             376.00    -2400.00
04140             352.00    -2400.00
04141             352.00    -2240.00
04142             328.00    -2160.00
04143             320.00    -2160.00
04144             320.00    -2080.00
04145             312.00    -2080.00
04146             296.00    -2000.00
04147             288.00    -1920.00
04148             264.00    -1840.00
04149             256.00    -1760.00
04150             248.00    -1680.00
04151             256.00    -1680.00
04152             232.00    -1600.00
04153             224.00    -1520.00
04154             216.00    -1440.00
04155             200.00    -1360.00
04156             192.00    -1280.00
04157             184.00    -1200.00
04158             192.00    -1120.00
04159             184.00    -1120.00
04160             168.00    -1040.00
04161             152.00     -960.00
04162             152.00     -880.00
04163             136.00     -800.00
04164             136.00     -720.00
04165             128.00     -720.00
04166             128.00     -560.00
04167             104.00     -480.00
04168             104.00     -400.00
04169              96.00     -320.00
04170              88.00     -240.00
04171              88.00     -240.00
04172              80.00     -160.00
04173              72.00      -80.00
04174              64.00       80.00
04175              72.00       80.00
04176              64.00      160.00
04177              88.00      240.00
04178             120.00      240.00
04179             120.00      240.00
04180              88.00      400.00
04181              64.00      480.00
04182              32.00      560.00
04183              88.00      640.00
04184             536.00      800.00
04185             824.00      880.00
04186            -192.00      880.00
04187           -1016.00      720.00
04188            -936.00      880.00
04189             984.00     1280.00
04190             728.00     1440.00
04191            -704.00      960.00
04192            -112.00     1120.00
04193             968.00     1520.00
04194            -440.00     1760.00
04195            -936.00     1200.00
04196             544.00     1360.00
04197             464.00     2160.00
04198            -576.00     1680.00
04199            -160.00     1280.00
04200             264.00     2160.00
04201            -200.00     2400.00
04202            -296.00     1520.00
04203              88.00     1840.00
04204              56.00     2800.00
04205            -160.00     2080.00
04206            -312.00     1760.00
04207              -8.00     2800.00
04208             152.00     2480.00
04209            -408.00     2000.00
04210            -256.00     2720.00
04211             280.00     2800.00
04212            -296.00     2320.00
04213            -416.00     2720.00
04214             136.00     2880.00
04215            -144.00     2720.00
04216            -320.00     2800.00
04217              24.00     2800.00
04218            -216.00     2960.00
04219            -280.00     3040.00
04220             -88.00     2960.00
04221            -216.00     3200.00
04222            -200.00     3120.00
04223            -160.00     3120.00
04224            -256.00     3360.00
04225            -248.00     3280.00
04226            -168.00     3280.00
04227            -192.00     3440.00
04228            -248.00     3360.00
04229            -288.00     3360.00
04230            -224.00     3520.00
04231            -256.00     3600.00
04232            -280.00     3440.00
04233            -200.00     3600.00
04234            -264.00     3680.00
04235            -352.00     3680.00
04236            -288.00     3680.00
04237            -232.00     3840.00
04238            -312.00     3760.00
04239            -352.00     3680.00
04240            -280.00     3840.00
04241            -304.00     3920.00
04242            -392.00     3760.00
04243            -320.00     3920.00
04244            -304.00     3920.00
04245            -392.00     3920.00
04246            -360.00     3920.00
04247            -312.00     4000.00
04248            -408.00     4000.00
04249            -448.00     3920.00
04250            -360.00     4000.00
04251            -360.00     4080.00
04252            -448.00     4000.00
04253            -448.00     4000.00
04254            -392.00     4080.00
04255            -464.00     4080.00
04256            -488.00     4000.00
04257            -440.00     4000.00
04258            -464.00     4080.00
04259            -512.00     4000.00
04260            -488.00     4000.00
04261            -480.00     4080.00
04262            -552.00     4000.00
04263            -560.00     3920.00
04264            -512.00     4000.00
04265            -544.00     4080.00
04266            -568.00     4000.00
04267            -552.00     4000.00
04268            -568.00     3920.00
04269            -600.00     3920.00
04270            -584.00     3920.00
04271            -576.00     4000.00
04272            -600.00     3920.00
04273            -600.00     3840.00
04274            -576.00     3920.00
04275            -608.00     3760.00
04276            -616.00     3760.00
04277            -600.00     3760.00
04278            -584.00     3760.00
04279            -600.00     3760.00
04280            -584.00     3680.00
04281            -584.00     3600.00
04282            -600.00     3600.00
04283            -584.00     3600.00
04284            -568.00     3600.00
04285            -568.00     3440.00
04286            -576.00     3440.00
04287            -552.00     3440.00
04288            -552.00     3360.00
04289            -552.00     3280.00
04290            -536.00     3280.00
04291            -520.00     3280.00
04292            -512.00     3280.00
04293            -504.00     3200.00
04294            -496.00     3120.00
04295            -512.00     3120.00
04296            -488.00     3040.00
04297            -448.00     2960.00
04298            -448.00     2960.00
04299            -448.00     2800.00
04300            -432.00     2800.00
04301            -424.00     2800.00
04302            -416.00     2720.00
04303            -408.00     2640.00
04304            -392.00     2640.00
04305            -384.00     2480.00
04306            -376.00     2480.00
04307            -360.00     2400.00
04308            -352.00     2400.00
04309            -360.00     2320.00
04310            -328.00     2240.00
04311            -296.00     2160.00
04312            -312.00     2160.00
04313            -296.00     2080.00
04314            -296.00     2000.00
04315            -280.00     1920.00
04316            -272.00     1840.00
04317            -248.00     1760.00
04318            -240.00     1680.00
04319            -240.00     1680.00
04320            -248.00     1680.00
04321            -224.00     1520.00
04322            -224.00     1440.00
04323            -224.00     1360.00
04324            -200.00     1360.00
04325            -176.00     1200.00
04326            -176.00     1120.00
04327            -168.00     1120.00
04328            -168.00     1040.00
04329            -160.00      880.00
04330            -152.00      880.00
04331            -136.00      720.00
04332            -136.00      720.00
04333            -136.00      640.00
04334            -128.00      560.00
04335            -104.00      480.00
04336            -104.00      480.00
04337             -96.00      400.00
04338             -88.00      320.00
04339             -88.00      240.00
04340             -72.00      160.00
04341             -64.00       80.00
04342             -64.00        0.00
04343             -40.00      -80.00
04344              -8.00     -160.00
04345              24.00     -240.00
04346              24.00     -240.00
04347               8.00     -400.00
04348               0.00     -400.00
04349              -8.00     -480.00
04350               8.00     -560.00
04351             256.00     -560.00
04352             672.00     -880.00
04353             424.00     -960.00
04354            -928.00     -880.00
04355           -1016.00     -720.00
04356             -64.00    -1040.00
04357             984.00    -1120.00
04358             -88.00    -1040.00
04359            -416.00    -1120.00
04360             512.00    -1680.00
04361             408.00    -1120.00
04362            -360.00    -1120.00
04363            -168.00    -1840.00
04364             344.00    -1760.00
04365             136.00    -1200.00
04366              72.00    -1760.00
04367              32.00    -2320.00
04368             -64.00    -1520.00
04369              96.00    -1680.00
04370             160.00    -2320.00
04371              24.00    -2080.00
04372             264.00    -1840.00
04373              24.00    -2400.00
04374             -96.00    -2400.00
04375             432.00    -2000.00
04376             200.00    -2400.00
04377            -256.00    -2640.00
04378             280.00    -2400.00
04379             456.00    -2400.00
04380            -184.00    -2720.00
04381              64.00    -2720.00
04382             408.00    -2640.00
04383             104.00    -2640.00
04384              64.00    -3040.00
04385             288.00    -2800.00
04386             160.00    -2800.00
04387             104.00    -3040.00
04388             264.00    -3040.00
04389             224.00    -2880.00
04390             136.00    -3200.00
04391             168.00    -3280.00
04392             264.00    -3120.00
04393             224.00    -3280.00
04394             200.00    -3360.00
04395             248.00    -3360.00
04396             264.00    -3280.00
04397             208.00    -3440.00
04398             224.00    -3440.00
04399             280.00    -3360.00
04400             264.00    -3600.00
04401             264.00    -3600.00
04402             288.00    -3520.00
04403             256.00    -3600.00
04404             280.00    -3680.00
04405             344.00    -3600.00
04406             320.00    -3680.00
04407             288.00    -3760.00
04408             344.00    -3680.00
04409             344.00    -3760.00
04410             304.00    -3760.00
04411             344.00    -3840.00
04412             384.00    -3760.00
04413             352.00    -3840.00
04414             376.00    -3920.00
04415             408.00    -3920.00
04416             376.00    -3840.00
04417             360.00    -3920.00
04418             432.00    -3920.00
04419             448.00    -3920.00
04420             408.00    -3920.00
04421             440.00    -3920.00
04422             480.00    -3920.00
04423             448.00    -3920.00
04424             440.00    -4000.00
04425             504.00    -3920.00
04426             504.00    -3920.00
04427             488.00    -3920.00
04428             512.00    -3920.00
04429             536.00    -3920.00
04430             504.00    -3920.00
04431             520.00    -3920.00
04432             568.00    -3920.00
04433             568.00    -3840.00
04434             552.00    -3920.00
04435             576.00    -3760.00
04436             576.00    -3840.00
04437             568.00    -3840.00
04438             592.00    -3760.00
04439             616.00    -3760.00
04440             600.00    -3760.00
04441             600.00    -3760.00
04442             600.00    -3760.00
04443             584.00    -3760.00
04444             584.00    -3680.00
04445             600.00    -3680.00
04446             616.00    -3600.00
04447             600.00    -3600.00
04448             584.00    -3600.00
04449             576.00    -3440.00
04450             576.00    -3440.00
04451             568.00    -3440.00
04452             576.00    -3440.00
04453             576.00    -3440.00
04454             552.00    -3360.00
04455             544.00    -3280.00
04456             536.00    -3280.00
04457             528.00    -3280.00
04458             520.00    -3120.00
04459             520.00    -3120.00
04460             512.00    -3120.00
04461             496.00    -3040.00
04462             480.00    -3040.00
04463             472.00    -2880.00
04464             472.00    -2960.00
04465             472.00    -2880.00
04466             448.00    -2720.00
04467             424.00    -2720.00
04468             416.00    -2720.00
04469             408.00    -2560.00
04470             384.00    -2640.00
04471             384.00    -2560.00
04472             384.00    -2480.00
04473             376.00    -2480.00
04474             360.00    -2400.00
04475             344.00    -2320.00
04476             320.00    -2160.00
04477             312.00    -2160.00
04478             320.00    -2080.00
04479             320.00    -2000.00
04480             296.00    -2000.00
04481             280.00    -1920.00
04482             264.00    -1840.00
04483             256.00    -1760.00
04484             248.00    -1680.00
04485             248.00    -1680.00
04486             248.00    -1680.00
04487             216.00    -1520.00
04488             216.00    -1440.00
04489             200.00    -1360.00
04490             192.00    -1200.00
04491             184.00    -1200.00
04492             184.00    -1120.00
04493             184.00    -1120.00
04494             168.00    -1040.00
04495             152.00     -880.00
04496             136.00     -800.00
04497             136.00     -800.00
04498             136.00     -720.00
04499             128.00     -720.00
04500             128.00     -560.00
04501             120.00     -480.00
04502             104.00     -400.00
04503              96.00     -320.00
04504              88.00     -240.00
04505              88.00     -240.00
04506              88.00     -160.00
04507              72.00      -80.00
04508              72.00       80.00
04509              72.00      160.00
04510              72.00      160.00
04511              88.00      240.00
04512             120.00      320.00
04513             120.00      400.00
04514              88.00      400.00
04515              56.00      480.00
04516              32.00      560.00
04517              88.00      640.00
04518             512.00      800.00
04519             832.00      960.00
04520            -144.00      880.00
04521           -1016.00      720.00
04522            -960.00      880.00
04523             984.00     1200.00
04524             760.00     1440.00
04525            -688.00      960.00
04526            -136.00     1120.00
04527             976.00     1520.00
04528            -408.00     1840.00
04529            -952.00     1200.00
04530             512.00     1360.00
04531             480.00     2160.00
04532            -568.00     1680.00
04533            -176.00     1280.00
04534             280.00     2080.00
04535            -200.00     2400.00
04536            -312.00     1520.00
04537              88.00     1840.00
04538              56.00     2800.00
04539            -136.00     2000.00
04540            -312.00     1760.00
04541             -16.00     2800.00
04542             160.00     2480.00
04543            -400.00     2000.00
04544            -272.00     2640.00
04545             280.00     2800.00
04546            -264.00     2320.00
04547            -424.00     2720.00
04548             128.00     2880.00
04549            -136.00     2720.00
04550            -320.00     2720.00
04551               0.00     2880.00
04552            -200.00     3040.00
04553            -288.00     3040.00
04554             -96.00     2960.00
04555            -216.00     3120.00
04556            -200.00     3120.00
04557            -152.00     3120.00
04558            -264.00     3280.00
04559            -240.00     3280.00
04560            -168.00     3280.00
04561            -192.00     3440.00
04562            -248.00     3440.00
04563            -288.00     3360.00
04564            -224.00     3520.00
04565            -256.00     3520.00
04566            -272.00     3440.00
04567            -200.00     3600.00
04568            -264.00     3680.00
04569            -352.00     3680.00
04570            -288.00     3600.00
04571            -224.00     3760.00
04572            -296.00     3760.00
04573            -352.00     3680.00
04574            -272.00     3840.00
04575            -296.00     3920.00
04576            -392.00     3760.00
04577            -328.00     3840.00
04578            -296.00     3920.00
04579            -392.00     3920.00
04580            -360.00     3920.00
04581            -312.00     4000.00
04582            -408.00     3920.00
04583            -448.00     3920.00
04584            -360.00     4000.00
04585            -360.00     4080.00
04586            -456.00     3920.00
04587            -440.00     3920.00
04588            -392.00     4000.00
04589            -472.00     4000.00
04590            -488.00     3920.00
04591            -440.00     4080.00
04592            -456.00     4080.00
04593            -520.00     4000.00
04594            -488.00     4000.00
04595            -488.00     4080.00
04596            -552.00     4000.00
04597            -560.00     4000.00
04598            -512.00     4000.00
04599            -536.00     4080.00
04600            -568.00     3920.00
04601            -552.00     3920.00
04602            -568.00     3920.00
04603            -600.00     3920.00
04604            -584.00     3920.00
04605            -568.00     3920.00
04606            -600.00     3840.00
04607            -600.00     3840.00
04608            -584.00     3840.00
04609            -608.00     3840.00
04610            -624.00     3760.00
04611            -600.00     3760.00
04612            -584.00     3760.00
04613            -584.00     3680.00
04614            -584.00     3680.00
04615            -600.00     3680.00
04616            -608.00     3680.00
04617            -584.00     3600.00
04618            -568.00     3600.00
04619            -576.00     3520.00
04620            -576.00     3440.00
04621            -552.00     3440.00
04622            -552.00     3360.00
04623            -568.00     3280.00
04624            -544.00     3280.00
04625            -520.00     3280.00
04626            -512.00     3200.00
04627            -504.00     3120.00
04628            -496.00     3120.00
04629            -512.00     3120.00
04630            -488.00     3040.00
04631            -456.00     2960.00
04632            -448.00     2960.00
04633            -448.00     2800.00
04634            -440.00     2800.00
04635            -424.00     2720.00
04636            -416.00     2640.00
04637            -408.00     2640.00
04638            -384.00     2640.00
04639            -384.00     2560.00
04640            -376.00     2480.00
04641            -352.00     2480.00
04642            -344.00     2400.00
04643            -352.00     2320.00
04644            -336.00     2240.00
04645            -312.00     2160.00
04646            -296.00     2080.00
04647            -296.00     2080.00
04648            -288.00     1920.00
04649            -280.00     2000.00
04650            -264.00     1840.00
04651            -256.00     1760.00
04652            -232.00     1760.00
04653            -232.00     1680.00
04654            -232.00     1600.00
04655            -224.00     1520.00
04656            -224.00     1440.00
04657            -224.00     1360.00
04658            -200.00     1280.00
04659            -184.00     1280.00
04660            -168.00     1200.00
04661            -168.00     1120.00
04662            -160.00     1040.00
04663            -160.00      960.00
04664            -152.00      880.00
04665            -136.00      800.00
04666            -136.00      720.00
04667            -128.00      720.00
04668            -128.00      560.00
04669            -120.00      560.00
04670            -104.00      480.00
04671             -96.00      400.00
04672             -88.00      240.00
04673             -80.00      240.00
04674             -72.00      160.00
04675             -72.00       80.00
04676             -64.00      -80.00
04677             -56.00     -160.00
04678             -16.00     -160.00
04679              24.00     -240.00
04680              32.00     -240.00
04681              16.00     -400.00
04682              -8.00     -400.00
04683             -24.00     -480.00
04684               0.00     -480.00
04685             232.00     -640.00
04686             664.00     -800.00
04687             448.00    -1040.00
04688            -896.00     -880.00
04689           -1016.00     -800.00
04690             -96.00    -1040.00
04691             984.00    -1200.00
04692             -56.00    -1120.00
04693            -424.00    -1120.00
04694             496.00    -1680.00
04695             416.00    -1200.00
04696            -352.00    -1120.00
04697            -184.00    -1840.00
04698             344.00    -1760.00
04699             136.00    -1200.00
04700              72.00    -1760.00
04701              32.00    -2320.00
04702             -64.00    -1520.00
04703             104.00    -1680.00
04704             176.00    -2400.00
04705              24.00    -2000.00
04706             256.00    -1760.00
04707              24.00    -2400.00
04708            -104.00    -2320.00
04709             416.00    -2000.00
04710             216.00    -2400.00
04711            -256.00    -2640.00
04712             264.00    -2400.00
04713             464.00    -2480.00
04714            -176.00    -2720.00
04715              56.00    -2720.00
04716             408.00    -2560.00
04717             120.00    -2720.00
04718              64.00    -2960.00
04719             288.00    -2800.00
04720             160.00    -2800.00
04721             104.00    -3120.00
04722             256.00    -3040.00
04723             232.00    -2880.00
04724             136.00    -3120.00
04725             168.00    -3280.00
04726             256.00    -3040.00
04727             232.00    -3200.00
04728             200.00    -3440.00
04729             256.00    -3280.00
04730             264.00    -3280.00
04731             216.00    -3440.00
04732             224.00    -3440.00
04733             296.00    -3440.00
04734             264.00    -3600.00
04735             264.00    -3520.00
04736             288.00    -3520.00
04737             248.00    -3600.00
04738             264.00    -3680.00
04739             344.00    -3600.00
04740             320.00    -3680.00
04741             288.00    -3760.00
04742             328.00    -3760.00
04743             344.00    -3680.00
04744             296.00    -3760.00
04745             344.00    -3760.00
04746             384.00    -3760.00
04747             352.00    -3840.00
04748             360.00    -3920.00
04749             408.00    -3920.00
04750             368.00    -3920.00
04751             352.00    -3920.00
04752             432.00    -3920.00
04753             448.00    -3920.00
04754             400.00    -3920.00
04755             424.00    -4000.00
04756             472.00    -3920.00
04757             440.00    -3920.00
04758             440.00    -4000.00
04759             496.00    -3920.00
04760             512.00    -3920.00
04761             480.00    -4000.00
04762             512.00    -4000.00
04763             536.00    -3920.00
04764             504.00    -3920.00
04765             520.00    -3920.00
04766             576.00    -3920.00
04767             576.00    -3840.00
04768             552.00    -3920.00
04769             568.00    -3840.00
04770             576.00    -3760.00
04771             568.00    -3920.00
04772             592.00    -3760.00
04773             608.00    -3760.00
04774             600.00    -3760.00
04775             600.00    -3760.00
04776             608.00    -3680.00
04777             584.00    -3680.00
04778             584.00    -3680.00
04779             600.00    -3680.00
04780             600.00    -3600.00
04781             584.00    -3600.00
04782             600.00    -3600.00
04783             584.00    -3600.00
04784             576.00    -3520.00
04785             568.00    -3520.00
04786             568.00    -3440.00
04787             568.00    -3360.00
04788             552.00    -3360.00
04789             552.00    -3280.00
04790             544.00    -3280.00
04791             520.00    -3200.00
04792             520.00    -3200.00
04793             528.00    -3120.00
04794             512.00    -3120.00
04795             504.00    -3040.00
04796             480.00    -3040.00
04797             464.00    -2960.00
04798             448.00    -2880.00
04799             464.00    -2800.00
04800             456.00    -2800.00
04801             440.00    -2800.00
04802             416.00    -2720.00
04803             400.00    -2640.00
04804             392.00    -2640.00
04805             384.00    -2560.00
04806             384.00    -2400.00
04807             368.00    -2480.00
04808             352.00    -2320.00
04809             344.00    -2320.00
04810             328.00    -2240.00
04811             312.00    -2160.00
04812             312.00    -2160.00
04813             320.00    -2080.00
04814             296.00    -2000.00
04815             280.00    -2000.00
04816             264.00    -1840.00
04817             264.00    -1760.00
04818             248.00    -1760.00
04819             248.00    -1680.00
04820             248.00    -1520.00
04821             216.00    -1520.00
04822             216.00    -1440.00
04823             200.00    -1360.00
04824             192.00    -1360.00
04825             192.00    -1280.00
04826             192.00    -1200.00
04827             168.00    -1040.00
04828             160.00    -1040.00
04829             152.00    -1040.00
04830             136.00     -880.00
04831             136.00     -880.00
04832             136.00     -720.00
04833             136.00     -720.00
04834             128.00     -560.00
04835             112.00     -480.00
04836              96.00     -480.00
04837              96.00     -320.00
04838              88.00     -240.00
04839              88.00     -240.00
04840              88.00     -160.00
04841              72.00      -80.00
04842              72.00        0.00
04843              64.00       80.00
04844              72.00      160.00
04845              88.00      240.00
04846             128.00      240.00
04847             120.00      400.00
04848              88.00      400.00
04849              64.00      480.00
04850              32.00      560.00
04851              88.00      560.00
04852             504.00      720.00
04853             832.00      880.00
04854            -120.00      880.00
04855           -1016.00      800.00
04856            -992.00      880.00
04857             960.00     1200.00
04858             792.00     1360.00
04859            -680.00      960.00
04860            -168.00     1120.00
04861             984.00     1520.00
04862            -376.00     1760.00
04863            -960.00     1200.00
04864             488.00     1360.00
04865             504.00     2080.00
04866            -552.00     1680.00
04867            -192.00     1280.00
04868             280.00     2080.00
04869            -192.00     2400.00
04870            -328.00     1520.00
04871              88.00     1840.00
04872              56.00     2720.00
04873            -136.00     2080.00
04874            -312.00     1760.00
04875             -32.00     2720.00
04876             152.00     2480.00
04877            -400.00     2000.00
04878            -296.00     2720.00
04879             288.00     2800.00
04880            -248.00     2400.00
04881            -432.00     2640.00
04882             120.00     2880.00
04883            -128.00     2720.00
04884            -336.00     2720.00
04885               8.00     2880.00
04886            -200.00     2960.00
04887            -280.00     2960.00
04888             -96.00     2960.00
04889            -216.00     3120.00
04890            -216.00     3120.00
04891            -160.00     3040.00
04892            -256.00     3280.00
04893            -232.00     3280.00
04894            -160.00     3280.00
04895            -184.00     3440.00
04896            -248.00     3440.00
04897            -296.00     3360.00
04898            -232.00     3520.00
04899            -248.00     3600.00
04900            -264.00     3440.00
04901            -192.00     3600.00
04902            -256.00     3680.00
04903            -352.00     3680.00
04904            -296.00     3600.00
04905            -232.00     3760.00
04906            -296.00     3760.00
04907            -352.00     3680.00
04908            -288.00     3840.00
04909            -296.00     3920.00
04910            -392.00     3760.00
04911            -336.00     3920.00
04912            -296.00     3920.00
04913            -384.00     3920.00
04914            -352.00     3840.00
04915            -288.00     4000.00
04916            -384.00     3920.00
04917            -448.00     3920.00
04918            -384.00     4000.00
04919            -392.00     4000.00
04920            -488.00     4000.00
04921            -464.00     4000.00
04922            -392.00     4080.00
04923            -440.00     4000.00
04924            -448.00     4000.00
04925            -400.00     4000.00
04926            -448.00     4080.00
04927            -528.00     4000.00
04928            -520.00     4000.00
04929            -512.00     4080.00
04930            -576.00     4000.00
04931            -568.00     3920.00
04932            -488.00     4000.00
04933            -504.00     4000.00
04934            -544.00     3920.00
04935            -544.00     3920.00
04936            -568.00     4000.00
04937            -608.00     4000.00
04938            -608.00     3920.00
04939            -592.00     3920.00
04940            -608.00     3840.00
04941            -608.00     3760.00
04942            -576.00     3920.00
04943            -600.00     3840.00
04944            -608.00     3760.00
04945            -576.00     3760.00
04946            -568.00     3760.00
04947            -584.00     3680.00
04948            -600.00     3680.00
04949            -608.00     3680.00
04950            -624.00     3600.00
04951            -608.00     3600.00
04952            -576.00     3600.00
04953            -568.00     3440.00
04954            -552.00     3440.00
04955            -536.00     3440.00
04956            -528.00     3360.00
04957            -552.00     3280.00
04958            -552.00     3280.00
04959            -544.00     3280.00
04960            -544.00     3200.00
04961            -528.00     3200.00
04962            -504.00     3120.00
04963            -488.00     3120.00
04964            -472.00     2960.00
04965            -440.00     2960.00
04966            -424.00     2960.00
04967            -456.00     2800.00
04968            -456.00     2800.00
04969            -448.00     2720.00
04970            -448.00     2640.00
04971            -408.00     2640.00
04972            -384.00     2640.00
04973            -376.00     2640.00
04974            -352.00     2480.00
04975            -344.00     2400.00
04976            -352.00     2320.00
04977            -360.00     2320.00
04978            -344.00     2320.00
04979            -312.00     2160.00
04980            -312.00     2160.00
04981            -296.00     2080.00
04982            -288.00     2000.00
04983            -264.00     1920.00
04984            -264.00     1840.00
04985            -248.00     1760.00
04986            -232.00     1760.00
04987            -248.00     1680.00
04988            -232.00     1520.00
04989            -224.00     1520.00
04990            -224.00     1440.00
04991            -224.00     1360.00
04992            -192.00     1360.00
04993            -176.00     1200.00
04994            -160.00     1120.00
04995            -168.00     1120.00
04996            -160.00     1040.00
04997            -160.00      880.00
04998            -152.00      800.00
04999            -152.00      800.00
05000            -152.00      720.00
