Unit:(mV)
                     CH1         CH2
Frequency              ? 298.992 kHz
00001              80.00    -1400.00
00002             380.00    -1400.00
00003             800.00    -2000.00
00004             420.00    -2200.00
00005            -400.00    -2200.00
00006            -720.00    -2600.00
00007            -800.00    -2600.00
00008            -260.00    -2400.00
00009             560.00    -3000.00
00010             -60.00    -3000.00
00011            -120.00    -3000.00
00012             340.00    -3800.00
00013             -80.00    -3400.00
00014             100.00    -3800.00
00015             100.00    -4200.00
00016             -60.00    -4000.00
00017             320.00    -4600.00
00018              60.00    -4400.00
00019            -140.00    -4800.00
00020               0.00    -5000.00
00021              20.00    -4600.00
00022              80.00    -5400.00
00023              20.00    -5200.00
00024              80.00    -5400.00
00025               0.00    -5600.00
00026              40.00    -5800.00
00027             160.00    -6000.00
00028              20.00    -5800.00
00029              20.00    -6400.00
00030             100.00    -6400.00
00031             100.00    -6400.00
00032              20.00    -6800.00
00033               0.00    -6800.00
00034             140.00    -7000.00
00035             100.00    -7000.00
00036              60.00    -7200.00
00037              80.00    -7200.00
00038             100.00    -7400.00
00039              80.00    -7600.00
00040             100.00    -7600.00
00041             100.00    -7800.00
00042              60.00    -7800.00
00043              80.00    -8000.00
00044             100.00    -8200.00
00045             100.00    -8200.00
00046              80.00    -8400.00
00047             120.00    -8600.00
00048             140.00    -8600.00
00049              80.00    -8600.00
00050             100.00    -8600.00
00051             140.00    -8800.00
00052             100.00    -8800.00
00053              80.00    -9000.00
00054             100.00    -9000.00
00055             100.00    -9000.00
00056             100.00    -9200.00
00057             140.00    -9200.00
00058             140.00    -9400.00
00059             140.00    -9200.00
00060             120.00    -9400.00
00061             140.00    -9400.00
00062             140.00    -9600.00
00063             140.00    -9600.00
00064             160.00    -9400.00
00065             160.00    -9600.00
00066             160.00    -9800.00
00067             140.00    -9800.00
00068             140.00    -9600.00
00069             140.00    -9800.00
00070             140.00    -9800.00
00071             160.00    -9800.00
00072             140.00    -9800.00
00073             140.00    -9800.00
00074             140.00    -9800.00
00075             140.00    -9800.00
00076             140.00    -9800.00
00077             160.00    -9800.00
00078             160.00    -9800.00
00079             160.00    -9800.00
00080             140.00    -9800.00
00081             160.00    -9800.00
00082             140.00    -9800.00
00083             160.00    -9600.00
00084             160.00    -9800.00
00085             160.00    -9800.00
00086             160.00    -9800.00
00087             140.00    -9600.00
00088             160.00    -9400.00
00089             140.00    -9400.00
00090             160.00    -9600.00
00091             160.00    -9400.00
00092             160.00    -9400.00
00093             160.00    -9400.00
00094             140.00    -9200.00
00095             160.00    -9200.00
00096             160.00    -9200.00
00097             160.00    -9000.00
00098             160.00    -9000.00
00099             160.00    -9000.00
00100             160.00    -9000.00
00101             160.00    -9000.00
00102             160.00    -8800.00
00103             160.00    -8600.00
00104             160.00    -8600.00
00105             160.00    -8400.00
00106             140.00    -8200.00
00107             140.00    -8200.00
00108             140.00    -8200.00
00109             160.00    -8000.00
00110             160.00    -7800.00
00111             160.00    -7600.00
00112             160.00    -7600.00
00113             140.00    -7600.00
00114             140.00    -7200.00
00115             140.00    -7400.00
00116             160.00    -7000.00
00117             140.00    -7000.00
00118             140.00    -6800.00
00119             140.00    -6800.00
00120             140.00    -6600.00
00121             140.00    -6400.00
00122             140.00    -6200.00
00123             140.00    -6200.00
00124             120.00    -6000.00
00125             140.00    -6000.00
00126             120.00    -5800.00
00127             140.00    -5600.00
00128             140.00    -5400.00
00129             140.00    -5400.00
00130             120.00    -5200.00
00131             140.00    -5000.00
00132             120.00    -4600.00
00133             100.00    -4600.00
00134             100.00    -4600.00
00135             100.00    -4400.00
00136             100.00    -4200.00
00137             140.00    -4000.00
00138             100.00    -3800.00
00139             100.00    -3600.00
00140              80.00    -3400.00
00141              80.00    -3400.00
00142              80.00    -3000.00
00143             100.00    -3000.00
00144             100.00    -2800.00
00145             100.00    -2600.00
00146              80.00    -2600.00
00147              80.00    -2200.00
00148              80.00    -2000.00
00149              80.00    -1800.00
00150              80.00    -1800.00
00151              80.00    -1400.00
00152              80.00    -1200.00
00153              60.00    -1200.00
00154              60.00    -1000.00
00155              60.00     -600.00
00156              60.00     -600.00
00157              60.00     -600.00
00158              60.00     -200.00
00159              60.00     -200.00
00160              60.00      200.00
00161              60.00      400.00
00162             100.00      600.00
00163             140.00      600.00
00164             140.00      800.00
00165             100.00     1000.00
00166             100.00     1200.00
00167             100.00     1200.00
00168             160.00     1400.00
00169             640.00     1800.00
00170             980.00     2000.00
00171             200.00     2200.00
00172            -740.00     2000.00
00173           -1120.00     2200.00
00174            -660.00     2600.00
00175             760.00     3000.00
00176             320.00     2600.00
00177            -420.00     3400.00
00178             340.00     3000.00
00179              20.00     3200.00
00180            -220.00     4200.00
00181             140.00     3600.00
00182            -100.00     4000.00
00183             380.00     4400.00
00184               0.00     3800.00
00185            -340.00     4800.00
00186             200.00     4600.00
00187            -140.00     4600.00
00188             -80.00     5200.00
00189             100.00     4600.00
00190             -20.00     5800.00
00191             -60.00     5400.00
00192            -140.00     5400.00
00193             140.00     6000.00
00194             -80.00     5800.00
00195            -100.00     6200.00
00196              60.00     6200.00
00197             -20.00     6200.00
00198             -80.00     6600.00
00199            -160.00     6400.00
00200               0.00     7000.00
00201               0.00     6800.00
00202             -60.00     7000.00
00203             -20.00     7200.00
00204             -60.00     7400.00
00205            -100.00     7400.00
00206             -80.00     7400.00
00207               0.00     7800.00
00208            -100.00     7600.00
00209            -100.00     7800.00
00210            -100.00     8000.00
00211             -80.00     8200.00
00212            -100.00     8200.00
00213             -80.00     8200.00
00214             -80.00     8600.00
00215            -140.00     8400.00
00216            -100.00     8600.00
00217             -80.00     8600.00
00218             -80.00     8600.00
00219            -100.00     8600.00
00220            -140.00     8800.00
00221            -140.00     9000.00
00222            -100.00     9000.00
00223            -100.00     9200.00
00224            -120.00     9200.00
00225            -140.00     9200.00
00226            -140.00     9400.00
00227            -140.00     9400.00
00228            -160.00     9400.00
00229            -140.00     9600.00
00230            -140.00     9400.00
00231            -140.00     9600.00
00232            -140.00     9600.00
00233            -140.00     9800.00
00234            -160.00     9800.00
00235            -160.00     9600.00
00236            -140.00     9800.00
00237            -140.00     9800.00
00238            -160.00     9800.00
00239            -160.00     9800.00
00240            -160.00     9800.00
00241            -160.00     9800.00
00242            -160.00     9800.00
00243            -140.00     9800.00
00244            -160.00     9800.00
00245            -140.00     9800.00
00246            -160.00     9800.00
00247            -160.00     9800.00
00248            -180.00     9800.00
00249            -160.00     9800.00
00250            -160.00     9600.00
00251            -140.00     9800.00
00252            -160.00     9800.00
00253            -160.00     9600.00
00254            -160.00     9400.00
00255            -160.00     9600.00
00256            -160.00     9600.00
00257            -160.00     9400.00
00258            -160.00     9400.00
00259            -160.00     9400.00
00260            -160.00     9400.00
00261            -160.00     9200.00
00262            -160.00     9200.00
00263            -140.00     9200.00
00264            -140.00     9000.00
00265            -140.00     9000.00
00266            -160.00     9000.00
00267            -160.00     8800.00
00268            -160.00     8600.00
00269            -140.00     8600.00
00270            -160.00     8600.00
00271            -140.00     8400.00
00272            -160.00     8400.00
00273            -160.00     8200.00
00274            -160.00     8200.00
00275            -160.00     8200.00
00276            -160.00     8000.00
00277            -160.00     7800.00
00278            -140.00     7800.00
00279            -160.00     7600.00
00280            -160.00     7400.00
00281            -160.00     7400.00
00282            -140.00     7200.00
00283            -140.00     7400.00
00284            -140.00     6800.00
00285            -140.00     6800.00
00286            -140.00     6800.00
00287            -160.00     6600.00
00288            -160.00     6400.00
00289            -140.00     6200.00
00290            -140.00     6200.00
00291            -140.00     6000.00
00292            -140.00     5800.00
00293            -140.00     5800.00
00294            -100.00     5800.00
00295            -140.00     5400.00
00296            -140.00     5400.00
00297            -120.00     5200.00
00298            -100.00     5000.00
00299            -140.00     4800.00
00300            -140.00     4600.00
00301            -100.00     4400.00
00302            -120.00     4200.00
00303            -120.00     4200.00
00304            -100.00     4000.00
00305            -140.00     3800.00
00306            -100.00     3800.00
00307            -100.00     3400.00
00308            -100.00     3400.00
00309            -100.00     3000.00
00310            -100.00     3000.00
00311            -100.00     2800.00
00312            -100.00     2600.00
00313            -100.00     2200.00
00314            -100.00     2200.00
00315             -80.00     2000.00
00316             -80.00     1800.00
00317             -80.00     1800.00
00318             -80.00     1400.00
00319             -80.00     1400.00
00320             -80.00     1200.00
00321             -80.00     1000.00
00322             -60.00     1000.00
00323             -60.00      600.00
00324             -60.00      400.00
00325             -60.00      400.00
00326             -20.00      200.00
00327             -60.00        0.00
00328             -40.00     -200.00
00329              40.00     -400.00
00330              80.00     -600.00
00331              60.00     -600.00
00332              20.00    -1000.00
00333              20.00    -1000.00
00334              20.00    -1200.00
00335              60.00    -1400.00
00336             180.00    -1400.00
00337             640.00    -1800.00
00338             720.00    -2200.00
00339             -20.00    -2400.00
00340            -640.00    -2600.00
00341            -740.00    -2600.00
00342            -640.00    -2400.00
00343             300.00    -2800.00
00344             380.00    -3200.00
00345            -300.00    -3000.00
00346             220.00    -3600.00
00347             160.00    -3800.00
00348             -80.00    -3600.00
00349             220.00    -4200.00
00350             -80.00    -4000.00
00351             160.00    -4200.00
00352             260.00    -4600.00
00353            -140.00    -4400.00
00354             -60.00    -5000.00
00355              20.00    -4600.00
00356              80.00    -5000.00
00357              60.00    -5400.00
00358              80.00    -5200.00
00359              60.00    -5800.00
00360             -20.00    -5800.00
00361             140.00    -6000.00
00362             100.00    -6000.00
00363               0.00    -6000.00
00364              80.00    -6600.00
00365             100.00    -6400.00
00366              80.00    -6600.00
00367               0.00    -6800.00
00368              60.00    -6800.00
00369             160.00    -7000.00
00370              80.00    -7000.00
00371              60.00    -7400.00
00372             100.00    -7400.00
00373              80.00    -7600.00
00374              80.00    -7600.00
00375             100.00    -7800.00
00376              80.00    -7800.00
00377              60.00    -8000.00
00378             120.00    -8200.00
00379             140.00    -8200.00
00380             100.00    -8200.00
00381             100.00    -8400.00
00382             140.00    -8400.00
00383             100.00    -8600.00
00384             100.00    -8600.00
00385             140.00    -8800.00
00386             140.00    -8800.00
00387             100.00    -9000.00
00388              80.00    -9000.00
00389             140.00    -9000.00
00390             120.00    -9000.00
00391             140.00    -9200.00
00392             160.00    -9200.00
00393             140.00    -9400.00
00394             100.00    -9400.00
00395             140.00    -9400.00
00396             140.00    -9400.00
00397             140.00    -9400.00
00398             140.00    -9600.00
00399             160.00    -9600.00
00400             140.00    -9600.00
00401             140.00    -9600.00
00402             140.00    -9800.00
00403             140.00    -9800.00
00404             160.00    -9800.00
00405             160.00    -9800.00
00406             160.00    -9800.00
00407             140.00    -9800.00
00408             160.00    -9800.00
00409             160.00    -9800.00
00410             160.00    -9800.00
00411             160.00    -9800.00
00412             160.00    -9800.00
00413             160.00    -9800.00
00414             160.00    -9800.00
00415             140.00    -9800.00
00416             140.00    -9800.00
00417             140.00    -9600.00
00418             160.00    -9600.00
00419             180.00    -9600.00
00420             160.00    -9600.00
00421             140.00    -9400.00
00422             140.00    -9600.00
00423             160.00    -9400.00
00424             160.00    -9400.00
00425             160.00    -9400.00
00426             160.00    -9200.00
00427             160.00    -9400.00
00428             160.00    -9200.00
00429             160.00    -9200.00
00430             160.00    -9200.00
00431             160.00    -9000.00
00432             160.00    -9200.00
00433             160.00    -9000.00
00434             160.00    -8800.00
00435             140.00    -8800.00
00436             140.00    -8600.00
00437             160.00    -8600.00
00438             160.00    -8600.00
00439             160.00    -8400.00
00440             160.00    -8600.00
00441             140.00    -8200.00
00442             160.00    -8200.00
00443             160.00    -8200.00
00444             160.00    -7800.00
00445             160.00    -7800.00
00446             140.00    -7600.00
00447             140.00    -7600.00
00448             160.00    -7200.00
00449             140.00    -7400.00
00450             140.00    -7000.00
00451             160.00    -7000.00
00452             140.00    -7000.00
00453             160.00    -6800.00
00454             140.00    -6600.00
00455             140.00    -6600.00
00456             140.00    -6200.00
00457             140.00    -6200.00
00458             140.00    -6200.00
00459             140.00    -6000.00
00460             140.00    -5800.00
00461             120.00    -5800.00
00462             140.00    -5600.00
00463             120.00    -5400.00
00464             140.00    -5200.00
00465             140.00    -5000.00
00466             140.00    -5000.00
00467             120.00    -4800.00
00468              80.00    -4600.00
00469             100.00    -4400.00
00470             100.00    -4200.00
00471             100.00    -4200.00
00472             100.00    -3800.00
00473             100.00    -3800.00
00474              80.00    -3600.00
00475              80.00    -3400.00
00476             100.00    -3200.00
00477              80.00    -3000.00
00478             100.00    -2800.00
00479              80.00    -2800.00
00480              80.00    -2600.00
00481              60.00    -2200.00
00482              80.00    -2200.00
00483              60.00    -2000.00
00484              80.00    -1800.00
00485              80.00    -1600.00
00486              80.00    -1400.00
00487              60.00    -1200.00
00488              60.00     -800.00
00489              60.00    -1000.00
00490              60.00     -600.00
00491              60.00     -400.00
00492              60.00     -400.00
00493              60.00     -200.00
00494              60.00      200.00
00495              60.00      200.00
00496              80.00      400.00
00497             140.00      400.00
00498             160.00      600.00
00499             120.00     1000.00
00500             100.00     1000.00
00501              80.00     1000.00
00502             120.00     1400.00
00503             380.00     1600.00
00504             960.00     2000.00
00505             660.00     2000.00
00506            -340.00     2200.00
00507            -980.00     2200.00
00508           -1060.00     2400.00
00509             140.00     3000.00
00510             860.00     2800.00
00511            -320.00     2800.00
00512               0.00     3200.00
00513             340.00     3000.00
00514            -300.00     3800.00
00515              80.00     3800.00
00516             -20.00     3400.00
00517             100.00     4600.00
00518             360.00     4000.00
00519            -380.00     4200.00
00520               0.00     5000.00
00521             100.00     4400.00
00522            -240.00     5200.00
00523             140.00     5000.00
00524               0.00     5200.00
00525               0.00     5800.00
00526            -100.00     5200.00
00527               0.00     6000.00
00528             100.00     5800.00
00529            -160.00     6000.00
00530               0.00     6200.00
00531               0.00     6000.00
00532             -40.00     6600.00
00533            -100.00     6400.00
00534            -100.00     6800.00
00535              20.00     6800.00
00536             -60.00     6800.00
00537             -20.00     7000.00
00538             -60.00     7200.00
00539             -80.00     7400.00
00540            -100.00     7400.00
00541             -20.00     7600.00
00542             -60.00     7600.00
00543            -100.00     7800.00
00544            -100.00     8000.00
00545            -100.00     7800.00
00546             -60.00     8200.00
00547            -100.00     8200.00
00548             -80.00     8200.00
00549            -120.00     8400.00
00550            -140.00     8400.00
00551            -100.00     8600.00
00552            -100.00     8600.00
00553            -100.00     8600.00
00554            -140.00     8600.00
00555            -140.00     9000.00
00556            -140.00     9200.00
00557            -100.00     9000.00
00558            -100.00     9200.00
00559            -100.00     9200.00
00560            -140.00     9400.00
00561            -140.00     9400.00
00562            -140.00     9400.00
00563            -140.00     9400.00
00564            -140.00     9400.00
00565            -140.00     9600.00
00566            -120.00     9600.00
00567            -140.00     9600.00
00568            -160.00     9800.00
00569            -160.00     9600.00
00570            -160.00     9800.00
00571            -140.00     9800.00
00572            -160.00     9800.00
00573            -160.00     9800.00
00574            -160.00     9800.00
00575            -140.00     9800.00
00576            -140.00     9800.00
00577            -140.00     9800.00
00578            -140.00    10000.00
00579            -140.00     9800.00
00580            -160.00     9800.00
00581            -160.00    10000.00
00582            -160.00     9800.00
00583            -160.00     9800.00
00584            -160.00     9800.00
00585            -140.00     9800.00
00586            -160.00     9800.00
00587            -160.00     9800.00
00588            -160.00     9600.00
00589            -160.00     9600.00
00590            -160.00     9800.00
00591            -160.00     9400.00
00592            -160.00     9400.00
00593            -140.00     9400.00
00594            -160.00     9400.00
00595            -160.00     9400.00
00596            -160.00     9200.00
00597            -160.00     9200.00
00598            -140.00     9000.00
00599            -140.00     9000.00
00600            -160.00     9000.00
00601            -160.00     9000.00
00602            -160.00     8800.00
00603            -160.00     8600.00
00604            -160.00     8600.00
00605            -140.00     8600.00
00606            -160.00     8400.00
00607            -160.00     8400.00
00608            -160.00     8200.00
00609            -160.00     8000.00
00610            -160.00     8000.00
00611            -160.00     7800.00
00612            -160.00     7600.00
00613            -140.00     7600.00
00614            -160.00     7600.00
00615            -160.00     7400.00
00616            -160.00     7200.00
00617            -160.00     7000.00
00618            -160.00     7000.00
00619            -160.00     6800.00
00620            -140.00     6800.00
00621            -160.00     6600.00
00622            -160.00     6600.00
00623            -140.00     6400.00
00624            -160.00     6200.00
00625            -140.00     6000.00
00626            -140.00     6000.00
00627            -140.00     5800.00
00628            -160.00     5800.00
00629            -140.00     5400.00
00630            -140.00     5400.00
00631            -140.00     5400.00
00632            -120.00     5200.00
00633            -140.00     5000.00
00634            -140.00     4800.00
00635            -100.00     4600.00
00636            -100.00     4400.00
00637            -100.00     4200.00
00638            -100.00     4200.00
00639            -100.00     4000.00
00640            -100.00     3800.00
00641            -100.00     3600.00
00642            -100.00     3400.00
00643            -100.00     3000.00
00644            -100.00     3000.00
00645            -100.00     3000.00
00646            -100.00     2800.00
00647             -80.00     2400.00
00648            -100.00     2400.00
00649             -80.00     2000.00
00650             -80.00     2000.00
00651             -80.00     1800.00
00652             -80.00     1600.00
00653             -80.00     1600.00
00654             -80.00     1200.00
00655             -60.00     1000.00
00656             -60.00     1000.00
00657             -60.00      600.00
00658             -40.00      600.00
00659             -60.00      400.00
00660             -20.00      200.00
00661             -40.00        0.00
00662             -40.00     -200.00
00663               0.00     -400.00
00664              60.00     -400.00
00665              80.00     -600.00
00666              40.00     -800.00
00667              20.00    -1000.00
00668              20.00    -1000.00
00669              60.00    -1200.00
00670             100.00    -1400.00
00671             400.00    -1800.00
00672             800.00    -2000.00
00673             380.00    -2200.00
00674            -420.00    -2400.00
00675            -720.00    -2600.00
00676            -800.00    -2600.00
00677            -200.00    -2600.00
00678             560.00    -3200.00
00679            -100.00    -3000.00
00680            -100.00    -3000.00
00681             320.00    -3800.00
00682            -100.00    -3400.00
00683             140.00    -3800.00
00684              80.00    -4200.00
00685             -60.00    -4200.00
00686             320.00    -4600.00
00687              20.00    -4400.00
00688            -140.00    -4800.00
00689               0.00    -4800.00
00690              20.00    -4800.00
00691              80.00    -5200.00
00692              20.00    -5000.00
00693              80.00    -5400.00
00694               0.00    -5800.00
00695              60.00    -5800.00
00696             160.00    -6000.00
00697               0.00    -6000.00
00698              60.00    -6600.00
00699             100.00    -6400.00
00700             100.00    -6400.00
00701              20.00    -6800.00
00702               0.00    -6600.00
00703             140.00    -7000.00
00704             100.00    -7000.00
00705              60.00    -7200.00
00706             100.00    -7400.00
00707             100.00    -7400.00
00708              80.00    -7600.00
00709             120.00    -7600.00
00710             100.00    -7800.00
00711              60.00    -7800.00
00712              80.00    -8000.00
00713             140.00    -8200.00
00714             100.00    -8200.00
00715              80.00    -8400.00
00716             140.00    -8400.00
00717             120.00    -8600.00
00718              80.00    -8600.00
00719             100.00    -8600.00
00720             140.00    -8800.00
00721             120.00    -9000.00
00722             100.00    -9000.00
00723             140.00    -9000.00
00724             100.00    -9200.00
00725             100.00    -9200.00
00726             160.00    -9200.00
00727             140.00    -9200.00
00728             140.00    -9400.00
00729             120.00    -9400.00
00730             120.00    -9400.00
00731             140.00    -9400.00
00732             140.00    -9600.00
00733             140.00    -9600.00
00734             160.00    -9600.00
00735             140.00    -9800.00
00736             140.00    -9800.00
00737             140.00    -9600.00
00738             120.00    -9800.00
00739             160.00    -9800.00
00740             160.00    -9800.00
00741             140.00    -9800.00
00742             140.00    -9800.00
00743             140.00    -9800.00
00744             160.00   -10000.00
00745             140.00    -9800.00
00746             160.00   -10000.00
00747             160.00   -10000.00
00748             160.00    -9800.00
00749             160.00    -9800.00
00750             140.00    -9800.00
00751             140.00    -9600.00
00752             160.00    -9800.00
00753             160.00    -9800.00
00754             180.00    -9600.00
00755             160.00    -9800.00
00756             140.00    -9800.00
00757             160.00    -9400.00
00758             160.00    -9600.00
00759             160.00    -9400.00
00760             180.00    -9400.00
00761             160.00    -9400.00
00762             160.00    -9200.00
00763             160.00    -9400.00
00764             160.00    -9200.00
00765             160.00    -9000.00
00766             180.00    -9200.00
00767             160.00    -9000.00
00768             160.00    -9000.00
00769             160.00    -8800.00
00770             140.00    -8600.00
00771             160.00    -8600.00
00772             160.00    -8600.00
00773             160.00    -8400.00
00774             160.00    -8400.00
00775             160.00    -8200.00
00776             140.00    -8200.00
00777             160.00    -8200.00
00778             140.00    -7800.00
00779             160.00    -7800.00
00780             160.00    -7800.00
00781             160.00    -7600.00
00782             160.00    -7200.00
00783             140.00    -7400.00
00784             140.00    -7200.00
00785             140.00    -7000.00
00786             160.00    -6800.00
00787             160.00    -7000.00
00788             140.00    -6800.00
00789             140.00    -6600.00
00790             140.00    -6600.00
00791             160.00    -6400.00
00792             140.00    -6200.00
00793             140.00    -6000.00
00794             140.00    -6000.00
00795             140.00    -5800.00
00796             120.00    -5600.00
00797             100.00    -5400.00
00798             140.00    -5400.00
00799             140.00    -5000.00
00800             140.00    -5000.00
00801             120.00    -4800.00
00802             100.00    -4600.00
00803             100.00    -4400.00
00804             120.00    -4400.00
00805             100.00    -4200.00
00806             100.00    -4000.00
00807              80.00    -3800.00
00808             100.00    -3600.00
00809              80.00    -3600.00
00810              80.00    -3400.00
00811              80.00    -3000.00
00812             100.00    -3000.00
00813              80.00    -2800.00
00814             100.00    -2600.00
00815              80.00    -2600.00
00816              80.00    -2200.00
00817              60.00    -2200.00
00818              80.00    -1800.00
00819              80.00    -1800.00
00820              80.00    -1600.00
00821              60.00    -1400.00
00822              60.00    -1200.00
00823              60.00     -800.00
00824              40.00     -800.00
00825              60.00     -600.00
00826              60.00     -600.00
00827              60.00     -400.00
00828              60.00        0.00
00829              60.00      200.00
00830              60.00      400.00
00831             140.00      600.00
00832             160.00      600.00
00833             140.00      800.00
00834             100.00     1000.00
00835             100.00     1200.00
00836             100.00     1200.00
00837             180.00     1400.00
00838             700.00     1800.00
00839             960.00     2000.00
00840             140.00     2000.00
00841            -780.00     2200.00
00842           -1120.00     2200.00
00843            -580.00     2800.00
00844             820.00     3200.00
00845             220.00     2800.00
00846            -400.00     3200.00
00847             400.00     3000.00
00848             -20.00     3400.00
00849            -180.00     4200.00
00850             140.00     3400.00
00851            -100.00     4000.00
00852             400.00     4400.00
00853             -60.00     3800.00
00854            -320.00     5000.00
00855             220.00     4600.00
00856            -180.00     4600.00
00857             -60.00     5200.00
00858             100.00     4800.00
00859             -20.00     5800.00
00860             -20.00     5200.00
00861            -140.00     5600.00
00862             140.00     6200.00
00863            -100.00     5600.00
00864            -100.00     6200.00
00865              20.00     6000.00
00866             -60.00     6200.00
00867             -60.00     6600.00
00868            -160.00     6400.00
00869               0.00     7000.00
00870             -20.00     6800.00
00871             -80.00     7000.00
00872             -60.00     7000.00
00873             -60.00     7400.00
00874            -100.00     7400.00
00875            -100.00     7400.00
00876             -20.00     7800.00
00877            -100.00     7600.00
00878            -100.00     7800.00
00879            -100.00     8000.00
00880             -80.00     8200.00
00881             -80.00     8200.00
00882             -80.00     8200.00
00883             -80.00     8400.00
00884            -160.00     8400.00
00885            -100.00     8600.00
00886             -80.00     8600.00
00887            -100.00     8600.00
00888            -100.00     8800.00
00889            -140.00     9000.00
00890            -140.00     9200.00
00891            -100.00     9000.00
00892             -80.00     9200.00
00893            -100.00     9200.00
00894            -140.00     9200.00
00895            -140.00     9400.00
00896            -120.00     9400.00
00897            -140.00     9200.00
00898            -140.00     9400.00
00899            -100.00     9400.00
00900            -120.00     9600.00
00901            -120.00     9600.00
00902            -140.00     9800.00
00903            -160.00     9800.00
00904            -160.00     9600.00
00905            -100.00     9800.00
00906            -120.00     9800.00
00907            -140.00     9800.00
00908            -140.00     9800.00
00909            -160.00     9800.00
00910            -140.00     9800.00
00911            -160.00     9800.00
00912            -140.00     9800.00
00913            -140.00     9800.00
00914            -160.00     9800.00
00915            -160.00     9800.00
00916            -140.00     9800.00
00917            -160.00     9800.00
00918            -160.00     9800.00
00919            -140.00     9800.00
00920            -140.00     9800.00
00921            -160.00     9800.00
00922            -160.00     9600.00
00923            -160.00     9600.00
00924            -160.00     9400.00
00925            -160.00     9400.00
00926            -160.00     9400.00
00927            -160.00     9400.00
00928            -160.00     9400.00
00929            -160.00     9200.00
00930            -160.00     9200.00
00931            -160.00     9200.00
00932            -160.00     9000.00
00933            -140.00     9000.00
00934            -140.00     9000.00
00935            -160.00     8800.00
00936            -180.00     8600.00
00937            -160.00     8600.00
00938            -160.00     8600.00
00939            -160.00     8400.00
00940            -160.00     8400.00
00941            -160.00     8400.00
00942            -160.00     8200.00
00943            -160.00     8200.00
00944            -160.00     8200.00
00945            -160.00     7800.00
00946            -140.00     7800.00
00947            -160.00     7800.00
00948            -160.00     7600.00
00949            -160.00     7400.00
00950            -160.00     7400.00
00951            -140.00     7400.00
00952            -160.00     7000.00
00953            -140.00     7000.00
00954            -160.00     6800.00
00955            -140.00     6800.00
00956            -140.00     6600.00
00957            -140.00     6600.00
00958            -140.00     6200.00
00959            -140.00     6200.00
00960            -140.00     6000.00
00961            -140.00     6000.00
00962            -140.00     5600.00
00963            -160.00     5800.00
00964            -140.00     5400.00
00965            -120.00     5200.00
00966            -100.00     5200.00
00967            -140.00     5000.00
00968            -120.00     4800.00
00969            -140.00     4600.00
00970            -140.00     4600.00
00971            -140.00     4400.00
00972            -100.00     4200.00
00973            -100.00     4000.00
00974            -100.00     3800.00
00975            -100.00     3800.00
00976            -100.00     3400.00
00977            -100.00     3200.00
00978            -100.00     3000.00
00979            -100.00     3000.00
00980             -80.00     2800.00
00981            -100.00     2600.00
00982            -100.00     2200.00
00983            -100.00     2200.00
00984             -80.00     2000.00
00985             -60.00     2000.00
00986             -60.00     1800.00
00987             -80.00     1400.00
00988             -80.00     1400.00
00989             -80.00     1200.00
00990             -80.00     1000.00
00991             -60.00      800.00
00992             -60.00      600.00
00993             -60.00      400.00
00994             -40.00      400.00
00995             -60.00      200.00
00996             -20.00     -200.00
00997             -20.00     -200.00
00998              60.00     -400.00
00999              60.00     -600.00
01000              60.00     -600.00
01001               0.00     -800.00
01002              20.00    -1000.00
01003              20.00    -1200.00
01004              40.00    -1200.00
01005             200.00    -1400.00
01006             660.00    -1800.00
01007             700.00    -2200.00
01008             -80.00    -2600.00
01009            -660.00    -2600.00
01010            -780.00    -2600.00
01011            -620.00    -2200.00
01012             340.00    -2800.00
01013             320.00    -3400.00
01014            -320.00    -2800.00
01015             240.00    -3600.00
01016             140.00    -3600.00
01017             -60.00    -3400.00
01018             220.00    -4200.00
01019            -100.00    -3800.00
01020             180.00    -4400.00
01021             240.00    -4600.00
01022            -160.00    -4400.00
01023             -60.00    -5000.00
01024               0.00    -4600.00
01025              80.00    -5200.00
01026              60.00    -5200.00
01027              80.00    -5400.00
01028              60.00    -5600.00
01029             -20.00    -5800.00
01030             160.00    -6000.00
01031             100.00    -6000.00
01032               0.00    -6000.00
01033             100.00    -6600.00
01034             100.00    -6200.00
01035              80.00    -6600.00
01036               0.00    -6800.00
01037              80.00    -6800.00
01038             160.00    -7000.00
01039              80.00    -7000.00
01040              80.00    -7400.00
01041             100.00    -7200.00
01042              80.00    -7600.00
01043              80.00    -7600.00
01044             140.00    -7600.00
01045              80.00    -7800.00
01046              60.00    -8000.00
01047             100.00    -8000.00
01048             140.00    -8200.00
01049             100.00    -8400.00
01050             100.00    -8400.00
01051             140.00    -8400.00
01052             100.00    -8600.00
01053             100.00    -8600.00
01054             140.00    -8800.00
01055             140.00    -8800.00
01056             120.00    -9000.00
01057             100.00    -9000.00
01058             100.00    -9200.00
01059             140.00    -9200.00
01060             160.00    -9200.00
01061             160.00    -9200.00
01062             140.00    -9200.00
01063             140.00    -9400.00
01064             140.00    -9200.00
01065             140.00    -9400.00
01066             140.00    -9400.00
01067             140.00    -9400.00
01068             160.00    -9600.00
01069             140.00    -9600.00
01070             120.00    -9600.00
01071             140.00    -9800.00
01072             140.00    -9800.00
01073             160.00    -9800.00
01074             160.00    -9800.00
01075             160.00    -9800.00
01076             140.00    -9800.00
01077             140.00    -9800.00
01078             160.00    -9800.00
01079             140.00    -9800.00
01080             160.00    -9800.00
01081             160.00    -9800.00
01082             140.00    -9800.00
01083             160.00    -9800.00
01084             140.00    -9800.00
01085             140.00    -9800.00
01086             140.00    -9800.00
01087             160.00    -9800.00
01088             160.00    -9600.00
01089             140.00    -9800.00
01090             160.00    -9600.00
01091             160.00    -9600.00
01092             140.00    -9600.00
01093             140.00    -9400.00
01094             160.00    -9600.00
01095             160.00    -9400.00
01096             160.00    -9400.00
01097             160.00    -9200.00
01098             160.00    -9200.00
01099             160.00    -9200.00
01100             160.00    -9200.00
01101             160.00    -9000.00
01102             160.00    -9000.00
01103             160.00    -9000.00
01104             160.00    -8600.00
01105             160.00    -8600.00
01106             160.00    -8600.00
01107             160.00    -8400.00
01108             160.00    -8600.00
01109             160.00    -8200.00
01110             160.00    -8200.00
01111             140.00    -8200.00
01112             140.00    -7800.00
01113             160.00    -8000.00
01114             160.00    -7800.00
01115             160.00    -7600.00
01116             160.00    -7600.00
01117             160.00    -7200.00
01118             140.00    -7200.00
01119             160.00    -7000.00
01120             160.00    -7000.00
01121             140.00    -6800.00
01122             160.00    -6800.00
01123             160.00    -6600.00
01124             140.00    -6400.00
01125             140.00    -6200.00
01126             140.00    -6200.00
01127             140.00    -6200.00
01128             140.00    -6000.00
01129             140.00    -5800.00
01130             100.00    -5800.00
01131             120.00    -5400.00
01132             140.00    -5400.00
01133             120.00    -5200.00
01134             100.00    -5000.00
01135             120.00    -5000.00
01136             100.00    -4800.00
01137              80.00    -4600.00
01138             100.00    -4400.00
01139             100.00    -4400.00
01140             100.00    -4200.00
01141             100.00    -4000.00
01142              80.00    -3800.00
01143              80.00    -3600.00
01144              80.00    -3400.00
01145              80.00    -3000.00
01146              80.00    -3000.00
01147             100.00    -2800.00
01148              80.00    -2800.00
01149              80.00    -2600.00
01150              60.00    -2400.00
01151              60.00    -2200.00
01152              80.00    -2000.00
01153              80.00    -1800.00
01154              60.00    -1800.00
01155              60.00    -1400.00
01156              60.00    -1200.00
01157              60.00    -1000.00
01158              60.00     -800.00
01159              60.00     -600.00
01160              60.00     -600.00
01161              60.00     -200.00
01162              60.00     -200.00
01163              40.00      200.00
01164              60.00      200.00
01165              80.00      200.00
01166             140.00      400.00
01167             160.00      600.00
01168             140.00      800.00
01169             100.00     1000.00
01170             100.00     1200.00
01171             140.00     1400.00
01172             400.00     1600.00
01173             960.00     2000.00
01174             620.00     2000.00
01175            -400.00     2200.00
01176           -1020.00     2000.00
01177           -1040.00     2200.00
01178             240.00     3000.00
01179             800.00     2800.00
01180            -380.00     3000.00
01181              40.00     3400.00
01182             320.00     3000.00
01183            -300.00     4000.00
01184             100.00     3800.00
01185             -60.00     3600.00
01186             140.00     4600.00
01187             320.00     3800.00
01188            -400.00     4400.00
01189              60.00     5000.00
01190              80.00     4400.00
01191            -220.00     5000.00
01192             140.00     5000.00
01193               0.00     5200.00
01194               0.00     5800.00
01195            -140.00     5200.00
01196               0.00     6000.00
01197              60.00     5800.00
01198            -180.00     6000.00
01199               0.00     6200.00
01200             -20.00     6000.00
01201             -20.00     6600.00
01202            -140.00     6200.00
01203             -80.00     6800.00
01204              20.00     6800.00
01205             -80.00     6800.00
01206             -20.00     7000.00
01207             -60.00     7200.00
01208            -100.00     7400.00
01209            -100.00     7400.00
01210             -60.00     7600.00
01211             -80.00     7600.00
01212            -100.00     7800.00
01213             -80.00     8000.00
01214            -100.00     7800.00
01215             -80.00     8200.00
01216            -100.00     8200.00
01217             -60.00     8400.00
01218            -140.00     8400.00
01219            -120.00     8400.00
01220            -100.00     8600.00
01221             -80.00     8600.00
01222            -100.00     8600.00
01223            -140.00     8600.00
01224            -140.00     9000.00
01225            -140.00     9000.00
01226            -100.00     9200.00
01227            -100.00     9200.00
01228            -100.00     9200.00
01229            -140.00     9400.00
01230            -120.00     9400.00
01231            -140.00     9400.00
01232            -140.00     9400.00
01233            -140.00     9400.00
01234            -100.00     9400.00
01235            -100.00     9600.00
01236            -120.00     9800.00
01237            -140.00     9800.00
01238            -140.00     9800.00
01239            -140.00     9800.00
01240            -100.00    10000.00
01241            -140.00     9800.00
01242            -180.00     9800.00
01243            -140.00     9800.00
01244            -140.00     9800.00
01245            -160.00     9800.00
01246            -140.00     9800.00
01247            -140.00     9800.00
01248            -160.00     9800.00
01249            -140.00     9800.00
01250            -140.00     9800.00
01251            -160.00     9800.00
01252            -160.00     9800.00
01253            -160.00     9800.00
01254            -140.00     9800.00
01255            -140.00     9800.00
01256            -160.00     9600.00
01257            -160.00     9800.00
01258            -160.00     9600.00
01259            -160.00     9400.00
01260            -160.00     9400.00
01261            -140.00     9400.00
01262            -160.00     9400.00
01263            -160.00     9400.00
01264            -160.00     9200.00
01265            -160.00     9200.00
01266            -160.00     9000.00
01267            -160.00     9200.00
01268            -140.00     9000.00
01269            -160.00     8800.00
01270            -160.00     9000.00
01271            -160.00     8600.00
01272            -160.00     8600.00
01273            -160.00     8600.00
01274            -160.00     8400.00
01275            -160.00     8400.00
01276            -160.00     8400.00
01277            -140.00     8200.00
01278            -160.00     8200.00
01279            -160.00     7800.00
01280            -160.00     7800.00
01281            -140.00     7800.00
01282            -160.00     7800.00
01283            -160.00     7400.00
01284            -160.00     7400.00
01285            -160.00     7400.00
01286            -140.00     7000.00
01287            -140.00     7000.00
01288            -160.00     6800.00
01289            -140.00     6600.00
01290            -160.00     6600.00
01291            -140.00     6600.00
01292            -140.00     6600.00
01293            -140.00     6200.00
01294            -140.00     6000.00
01295            -140.00     6000.00
01296            -140.00     5800.00
01297            -140.00     5600.00
01298            -140.00     5400.00
01299            -140.00     5200.00
01300            -100.00     5200.00
01301            -100.00     5200.00
01302            -100.00     5000.00
01303            -120.00     4600.00
01304            -140.00     4600.00
01305            -100.00     4400.00
01306            -100.00     4200.00
01307            -100.00     4000.00
01308            -100.00     3800.00
01309            -100.00     3600.00
01310            -100.00     3600.00
01311            -100.00     3400.00
01312            -100.00     3200.00
01313             -80.00     3000.00
01314             -80.00     2800.00
01315            -100.00     2600.00
01316            -100.00     2600.00
01317            -100.00     2200.00
01318            -100.00     2200.00
01319             -80.00     2200.00
01320             -80.00     1800.00
01321             -80.00     1600.00
01322             -60.00     1400.00
01323             -80.00     1200.00
01324             -80.00     1000.00
01325             -80.00     1000.00
01326             -80.00      600.00
01327             -60.00      600.00
01328             -60.00      400.00
01329             -60.00      200.00
01330             -60.00        0.00
01331             -40.00     -200.00
01332             -20.00     -400.00
01333              60.00     -600.00
01334              60.00     -600.00
01335              20.00     -800.00
01336              20.00    -1000.00
01337              20.00    -1200.00
01338              20.00    -1400.00
01339              80.00    -1400.00
01340             420.00    -1600.00
01341             800.00    -2200.00
01342             300.00    -2200.00
01343            -460.00    -2600.00
01344            -740.00    -2600.00
01345            -780.00    -2600.00
01346            -120.00    -2400.00
01347             560.00    -3200.00
01348            -160.00    -3000.00
01349             -60.00    -3000.00
01350             300.00    -3800.00
01351            -100.00    -3200.00
01352             160.00    -3800.00
01353              60.00    -4200.00
01354               0.00    -4000.00
01355             320.00    -4600.00
01356               0.00    -4400.00
01357            -140.00    -4800.00
01358              20.00    -4600.00
01359              60.00    -4600.00
01360              80.00    -5400.00
01361              20.00    -5400.00
01362              80.00    -5400.00
01363               0.00    -5600.00
01364              80.00    -5800.00
01365             160.00    -6000.00
01366               0.00    -5800.00
01367              60.00    -6400.00
01368             100.00    -6200.00
01369             100.00    -6400.00
01370              20.00    -6800.00
01371               0.00    -6800.00
01372             140.00    -7000.00
01373             100.00    -7000.00
01374              60.00    -7200.00
01375             100.00    -7400.00
01376             100.00    -7400.00
01377              80.00    -7600.00
01378             100.00    -7600.00
01379             100.00    -7800.00
01380              60.00    -7800.00
01381              80.00    -8000.00
01382             140.00    -8200.00
01383             100.00    -8200.00
01384              80.00    -8400.00
01385             140.00    -8400.00
01386             100.00    -8600.00
01387              80.00    -8600.00
01388             100.00    -8600.00
01389             140.00    -8800.00
01390             140.00    -9000.00
01391             100.00    -9000.00
01392             100.00    -9000.00
01393             100.00    -9000.00
01394             120.00    -9200.00
01395             160.00    -9200.00
01396             140.00    -9400.00
01397             100.00    -9200.00
01398             120.00    -9400.00
01399             100.00    -9400.00
01400             100.00    -9400.00
01401             140.00    -9600.00
01402             160.00    -9600.00
01403             140.00    -9800.00
01404             140.00    -9800.00
01405             140.00    -9800.00
01406             140.00    -9800.00
01407             140.00    -9800.00
01408             140.00   -10000.00
01409             160.00    -9800.00
01410             140.00    -9800.00
01411             140.00    -9800.00
01412             140.00    -9800.00
01413             140.00    -9800.00
01414             140.00    -9800.00
01415             160.00    -9800.00
01416             160.00    -9800.00
01417             140.00    -9800.00
01418             140.00    -9800.00
01419             160.00    -9800.00
01420             140.00    -9800.00
01421             160.00    -9800.00
01422             180.00    -9600.00
01423             160.00    -9600.00
01424             160.00    -9600.00
01425             160.00    -9600.00
01426             160.00    -9400.00
01427             160.00    -9400.00
01428             160.00    -9600.00
01429             160.00    -9400.00
01430             160.00    -9400.00
01431             160.00    -9200.00
01432             160.00    -9200.00
01433             160.00    -9200.00
01434             160.00    -9000.00
01435             160.00    -9000.00
01436             160.00    -9000.00
01437             160.00    -9000.00
01438             160.00    -8800.00
01439             160.00    -8800.00
01440             160.00    -8600.00
01441             160.00    -8600.00
01442             180.00    -8400.00
01443             160.00    -8200.00
01444             160.00    -8200.00
01445             160.00    -8200.00
01446             160.00    -8000.00
01447             160.00    -7800.00
01448             160.00    -7800.00
01449             160.00    -7600.00
01450             160.00    -7600.00
01451             140.00    -7400.00
01452             140.00    -7200.00
01453             140.00    -7200.00
01454             140.00    -7000.00
01455             160.00    -7000.00
01456             140.00    -6800.00
01457             140.00    -6800.00
01458             140.00    -6600.00
01459             140.00    -6400.00
01460             100.00    -6400.00
01461             120.00    -6000.00
01462             140.00    -6000.00
01463             140.00    -6000.00
01464             120.00    -5800.00
01465             140.00    -5400.00
01466             100.00    -5400.00
01467             100.00    -5200.00
01468             140.00    -5200.00
01469             120.00    -5000.00
01470             100.00    -4800.00
01471             100.00    -4600.00
01472             100.00    -4600.00
01473             100.00    -4200.00
01474             100.00    -4200.00
01475             100.00    -4000.00
01476             100.00    -3800.00
01477              80.00    -3600.00
01478              80.00    -3400.00
01479              80.00    -3400.00
01480              80.00    -3000.00
01481              80.00    -3000.00
01482              80.00    -2800.00
01483              80.00    -2600.00
01484              80.00    -2400.00
01485              60.00    -2200.00
01486              80.00    -2000.00
01487              80.00    -1800.00
01488             100.00    -1800.00
01489              80.00    -1400.00
01490              80.00    -1200.00
01491              80.00    -1200.00
01492              60.00     -800.00
01493              40.00     -600.00
01494              60.00     -600.00
01495              60.00     -400.00
01496              60.00     -200.00
01497              60.00        0.00
01498              80.00      200.00
01499             100.00      400.00
01500             160.00      600.00
01501             160.00      600.00
01502             140.00      800.00
01503              80.00     1000.00
01504              60.00     1200.00
01505              60.00     1200.00
01506             160.00     1400.00
01507             740.00     1800.00
01508             960.00     2000.00
01509             100.00     2200.00
01510            -740.00     2000.00
01511           -1100.00     2200.00
01512            -480.00     2800.00
01513             820.00     3000.00
01514             100.00     2800.00
01515            -400.00     3400.00
01516             380.00     3000.00
01517             -80.00     3400.00
01518            -100.00     4200.00
01519             140.00     3400.00
01520             -60.00     4200.00
01521             420.00     4400.00
01522            -100.00     3800.00
01523            -320.00     5000.00
01524             180.00     4600.00
01525            -240.00     4600.00
01526             -60.00     5000.00
01527              80.00     4800.00
01528             -20.00     5600.00
01529             -20.00     5400.00
01530             -80.00     5600.00
01531             160.00     6200.00
01532            -100.00     5800.00
01533            -100.00     6200.00
01534               0.00     6200.00
01535            -100.00     6200.00
01536            -100.00     6600.00
01537            -160.00     6400.00
01538               0.00     7000.00
01539               0.00     6600.00
01540             -20.00     7000.00
01541             -20.00     7200.00
01542             -80.00     7400.00
01543            -120.00     7400.00
01544            -100.00     7400.00
01545             -60.00     7800.00
01546            -140.00     7600.00
01547            -100.00     7800.00
01548             -80.00     8000.00
01549             -60.00     8000.00
01550             -60.00     8200.00
01551             -60.00     8200.00
01552            -100.00     8400.00
01553            -160.00     8400.00
01554            -140.00     8600.00
01555            -100.00     8600.00
01556            -100.00     8600.00
01557            -100.00     9000.00
01558            -100.00     8800.00
01559            -100.00     9000.00
01560            -100.00     9200.00
01561             -80.00     9000.00
01562            -100.00     9400.00
01563            -140.00     9200.00
01564            -140.00     9400.00
01565            -140.00     9400.00
01566            -160.00     9400.00
01567            -140.00     9600.00
01568            -120.00     9400.00
01569            -100.00     9600.00
01570            -100.00     9800.00
01571            -140.00     9800.00
01572            -140.00     9800.00
01573            -160.00     9600.00
01574            -140.00     9800.00
01575            -120.00     9800.00
01576            -160.00     9800.00
01577            -160.00     9800.00
01578            -140.00     9800.00
01579            -140.00     9800.00
01580            -140.00    10000.00
01581            -140.00     9800.00
01582            -160.00    10000.00
01583            -160.00     9800.00
01584            -160.00     9800.00
01585            -160.00     9800.00
01586            -180.00     9800.00
01587            -160.00     9800.00
01588            -140.00     9600.00
01589            -140.00     9800.00
01590            -160.00     9400.00
01591            -160.00     9800.00
01592            -160.00     9400.00
01593            -160.00     9600.00
01594            -160.00     9600.00
01595            -160.00     9400.00
01596            -140.00     9400.00
01597            -160.00     9200.00
01598            -160.00     9400.00
01599            -160.00     9200.00
01600            -160.00     9200.00
01601            -160.00     9000.00
01602            -140.00     9000.00
01603            -160.00     8800.00
01604            -160.00     9000.00
01605            -160.00     8800.00
01606            -160.00     8600.00
01607            -160.00     8600.00
01608            -160.00     8400.00
01609            -160.00     8400.00
01610            -160.00     8200.00
01611            -160.00     8200.00
01612            -160.00     8200.00
01613            -160.00     8200.00
01614            -160.00     7800.00
01615            -140.00     7800.00
01616            -140.00     7800.00
01617            -160.00     7400.00
01618            -160.00     7600.00
01619            -140.00     7200.00
01620            -140.00     7200.00
01621            -140.00     7000.00
01622            -140.00     7000.00
01623            -140.00     6800.00
01624            -160.00     6600.00
01625            -140.00     6600.00
01626            -140.00     6200.00
01627            -140.00     6400.00
01628            -140.00     6200.00
01629            -140.00     6200.00
01630            -120.00     6000.00
01631            -140.00     5800.00
01632            -140.00     5600.00
01633            -140.00     5400.00
01634            -120.00     5400.00
01635            -120.00     5200.00
01636            -100.00     5000.00
01637            -140.00     4800.00
01638            -100.00     4600.00
01639            -140.00     4400.00
01640            -100.00     4400.00
01641            -100.00     4200.00
01642            -100.00     4000.00
01643            -100.00     3800.00
01644            -100.00     3600.00
01645            -100.00     3400.00
01646            -100.00     3400.00
01647            -100.00     3200.00
01648            -100.00     3000.00
01649            -100.00     2800.00
01650            -100.00     2600.00
01651            -100.00     2600.00
01652            -100.00     2200.00
01653            -100.00     2000.00
01654             -80.00     2000.00
01655             -80.00     1800.00
01656             -80.00     1400.00
01657             -80.00     1400.00
01658             -80.00     1200.00
01659             -80.00     1000.00
01660             -80.00      800.00
01661             -80.00      600.00
01662             -60.00      400.00
01663             -60.00      200.00
01664             -60.00      200.00
01665             -20.00     -200.00
01666             -20.00     -200.00
01667              40.00     -600.00
01668              60.00     -600.00
01669              60.00     -800.00
01670              20.00    -1000.00
01671               0.00    -1000.00
01672              20.00    -1200.00
01673              60.00    -1400.00
01674             220.00    -1400.00
01675             700.00    -2000.00
01676             640.00    -2200.00
01677            -140.00    -2400.00
01678            -660.00    -2600.00
01679            -780.00    -2600.00
01680            -580.00    -2200.00
01681             420.00    -3000.00
01682             240.00    -3400.00
01683            -260.00    -3000.00
01684             260.00    -3600.00
01685              80.00    -3600.00
01686             -20.00    -3400.00
01687             180.00    -4200.00
01688            -100.00    -3800.00
01689             220.00    -4200.00
01690             220.00    -4400.00
01691            -160.00    -4400.00
01692             -20.00    -5000.00
01693              20.00    -4600.00
01694              80.00    -5200.00
01695              40.00    -5400.00
01696              80.00    -5200.00
01697              60.00    -5600.00
01698               0.00    -5600.00
01699             160.00    -6000.00
01700              80.00    -6000.00
01701              20.00    -6200.00
01702              80.00    -6400.00
01703             100.00    -6200.00
01704              80.00    -6600.00
01705               0.00    -6600.00
01706             100.00    -6800.00
01707             140.00    -7000.00
01708              60.00    -7000.00
01709              80.00    -7200.00
01710             100.00    -7200.00
01711             100.00    -7600.00
01712              80.00    -7600.00
01713             140.00    -7600.00
01714              80.00    -7800.00
01715              60.00    -8000.00
01716             120.00    -8200.00
01717             140.00    -8200.00
01718              80.00    -8400.00
01719             100.00    -8400.00
01720             140.00    -8400.00
01721              80.00    -8600.00
01722             100.00    -8600.00
01723             140.00    -8600.00
01724             100.00    -8600.00
01725             100.00    -9000.00
01726             100.00    -9000.00
01727             120.00    -9000.00
01728             120.00    -9200.00
01729             140.00    -9200.00
01730             140.00    -9200.00
01731             120.00    -9400.00
01732             100.00    -9400.00
01733             140.00    -9400.00
01734             120.00    -9400.00
01735             140.00    -9600.00
01736             140.00    -9400.00
01737             160.00    -9400.00
01738             140.00    -9600.00
01739             140.00    -9800.00
01740             140.00    -9600.00
01741             140.00    -9600.00
01742             140.00    -9800.00
01743             140.00    -9800.00
01744             140.00    -9800.00
01745             140.00    -9800.00
01746             140.00    -9800.00
01747             160.00    -9800.00
01748             140.00    -9800.00
01749             160.00    -9600.00
01750             160.00    -9800.00
01751             160.00    -9800.00
01752             160.00    -9800.00
01753             160.00    -9800.00
01754             140.00    -9800.00
01755             160.00    -9800.00
01756             180.00    -9800.00
01757             160.00    -9600.00
01758             160.00    -9600.00
01759             160.00    -9600.00
01760             160.00    -9400.00
01761             160.00    -9400.00
01762             160.00    -9400.00
01763             180.00    -9400.00
01764             160.00    -9400.00
01765             160.00    -9400.00
01766             160.00    -9400.00
01767             140.00    -9200.00
01768             160.00    -9200.00
01769             160.00    -9000.00
01770             180.00    -9000.00
01771             160.00    -9000.00
01772             160.00    -8800.00
01773             160.00    -8600.00
01774             160.00    -8600.00
01775             160.00    -8600.00
01776             160.00    -8600.00
01777             180.00    -8400.00
01778             160.00    -8400.00
01779             160.00    -8200.00
01780             160.00    -8200.00
01781             140.00    -7800.00
01782             160.00    -8000.00
01783             160.00    -7800.00
01784             160.00    -7600.00
01785             160.00    -7600.00
01786             140.00    -7200.00
01787             140.00    -7400.00
01788             140.00    -7000.00
01789             140.00    -7000.00
01790             140.00    -6800.00
01791             140.00    -6800.00
01792             140.00    -6600.00
01793             140.00    -6400.00
01794             140.00    -6600.00
01795             140.00    -6200.00
01796             140.00    -6000.00
01797             140.00    -6000.00
01798             140.00    -5800.00
01799             120.00    -5800.00
01800             140.00    -5400.00
01801             100.00    -5400.00
01802             140.00    -5200.00
01803             100.00    -5200.00
01804             140.00    -5000.00
01805             100.00    -4600.00
01806             100.00    -4600.00
01807             100.00    -4400.00
01808             120.00    -4400.00
01809             120.00    -4200.00
01810             100.00    -3800.00
01811             100.00    -3600.00
01812             100.00    -3600.00
01813              80.00    -3400.00
01814             100.00    -3200.00
01815              80.00    -3000.00
01816             100.00    -2800.00
01817             100.00    -2600.00
01818              80.00    -2600.00
01819              80.00    -2200.00
01820              80.00    -2200.00
01821              80.00    -2000.00
01822              80.00    -1800.00
01823              80.00    -1400.00
01824              60.00    -1400.00
01825              60.00    -1200.00
01826              60.00     -800.00
01827              60.00     -600.00
01828              60.00     -600.00
01829              60.00     -400.00
01830              60.00     -200.00
01831              60.00        0.00
01832              60.00      200.00
01833              60.00      200.00
01834             100.00      400.00
01835             160.00      600.00
01836             140.00      800.00
01837             120.00     1000.00
01838             100.00     1000.00
01839             100.00     1400.00
01840             140.00     1400.00
01841             420.00     1800.00
01842             980.00     1800.00
01843             560.00     2000.00
01844            -460.00     2200.00
01845           -1040.00     2200.00
01846            -980.00     2600.00
01847             320.00     3200.00
01848             740.00     2800.00
01849            -420.00     3000.00
01850             100.00     3200.00
01851             300.00     3400.00
01852            -300.00     4200.00
01853             100.00     3600.00
01854            -100.00     3600.00
01855             160.00     4600.00
01856             300.00     4000.00
01857            -420.00     4200.00
01858              60.00     5000.00
01859              20.00     4600.00
01860            -220.00     5000.00
01861             140.00     5000.00
01862               0.00     5200.00
01863               0.00     5800.00
01864            -140.00     5200.00
01865              20.00     6000.00
01866              40.00     5800.00
01867            -180.00     6000.00
01868              20.00     6200.00
01869             -20.00     6200.00
01870             -60.00     6600.00
01871            -140.00     6400.00
01872             -80.00     6800.00
01873              20.00     6800.00
01874             -80.00     6600.00
01875             -60.00     7200.00
01876             -80.00     7200.00
01877             -80.00     7400.00
01878            -100.00     7400.00
01879             -20.00     7600.00
01880             -60.00     7600.00
01881            -100.00     7800.00
01882             -80.00     8000.00
01883            -100.00     7800.00
01884             -80.00     8200.00
01885            -100.00     8200.00
01886             -60.00     8400.00
01887            -120.00     8400.00
01888            -120.00     8400.00
01889             -80.00     8600.00
01890             -80.00     8600.00
01891            -100.00     9000.00
01892            -120.00     9000.00
01893            -140.00     9000.00
01894            -140.00     9000.00
01895             -80.00     9000.00
01896            -100.00     9200.00
01897            -100.00     9200.00
01898            -140.00     9200.00
01899            -120.00     9400.00
01900            -100.00     9400.00
01901            -140.00     9400.00
01902            -100.00     9600.00
01903            -140.00     9600.00
01904            -100.00     9800.00
01905            -140.00     9600.00
01906            -140.00     9800.00
01907            -160.00     9800.00
01908            -140.00     9800.00
01909            -100.00     9800.00
01910            -140.00     9800.00
01911            -160.00     9800.00
01912            -140.00     9800.00
01913            -160.00     9800.00
01914            -160.00     9800.00
01915            -160.00     9800.00
01916            -140.00     9800.00
01917            -160.00     9800.00
01918            -160.00     9800.00
01919            -140.00     9800.00
01920            -160.00     9600.00
01921            -160.00    10000.00
01922            -160.00     9800.00
01923            -140.00     9600.00
01924            -160.00     9600.00
01925            -160.00     9800.00
01926            -160.00     9800.00
01927            -160.00     9800.00
01928            -160.00     9600.00
01929            -160.00     9400.00
01930            -160.00     9400.00
01931            -160.00     9400.00
01932            -160.00     9200.00
01933            -160.00     9200.00
01934            -160.00     9200.00
01935            -160.00     9200.00
01936            -160.00     9200.00
01937            -160.00     9200.00
01938            -160.00     9000.00
01939            -160.00     8800.00
01940            -160.00     8600.00
01941            -160.00     8600.00
01942            -140.00     8600.00
01943            -140.00     8600.00
01944            -160.00     8400.00
01945            -160.00     8200.00
01946            -160.00     8200.00
01947            -160.00     8200.00
01948            -160.00     8200.00
01949            -140.00     7800.00
01950            -140.00     7800.00
01951            -140.00     7600.00
01952            -140.00     7400.00
01953            -160.00     7400.00
01954            -140.00     7400.00
01955            -120.00     7200.00
01956            -140.00     7000.00
01957            -140.00     7000.00
01958            -140.00     6800.00
01959            -140.00     6600.00
01960            -140.00     6400.00
01961            -140.00     6400.00
01962            -140.00     6200.00
01963            -140.00     6200.00
01964            -100.00     6000.00
01965            -140.00     6000.00
01966            -140.00     5800.00
01967            -140.00     5400.00
01968            -140.00     5600.00
01969            -120.00     5200.00
01970            -100.00     5000.00
01971            -100.00     5000.00
01972            -140.00     4800.00
01973            -120.00     4600.00
01974            -100.00     4400.00
01975            -100.00     4200.00
01976            -100.00     4000.00
01977            -100.00     4000.00
01978            -100.00     3800.00
01979            -100.00     3600.00
01980            -100.00     3600.00
01981            -100.00     3200.00
01982            -100.00     3000.00
01983            -100.00     3000.00
01984            -100.00     2800.00
01985            -100.00     2600.00
01986            -100.00     2400.00
01987             -80.00     2200.00
01988            -100.00     2000.00
01989             -80.00     1800.00
01990             -80.00     1600.00
01991             -80.00     1400.00
01992             -80.00     1200.00
01993             -80.00     1000.00
01994             -60.00     1000.00
01995             -80.00      600.00
01996             -60.00      600.00
01997             -60.00      400.00
01998             -60.00      200.00
01999             -60.00        0.00
02000             -60.00     -200.00
02001               0.00     -400.00
02002              60.00     -600.00
02003              60.00     -800.00
02004              20.00     -800.00
02005               0.00    -1000.00
02006               0.00    -1000.00
02007              20.00    -1200.00
02008             100.00    -1400.00
02009             460.00    -1600.00
02010             800.00    -2000.00
02011             260.00    -2200.00
02012            -500.00    -2400.00
02013            -740.00    -2600.00
02014            -780.00    -2600.00
02015             -60.00    -2600.00
02016             540.00    -3000.00
02017            -180.00    -3000.00
02018               0.00    -3400.00
02019             300.00    -3800.00
02020            -100.00    -3400.00
02021             180.00    -3800.00
02022              20.00    -4200.00
02023               0.00    -4200.00
02024             320.00    -4400.00
02025             -20.00    -4400.00
02026            -140.00    -4800.00
02027              20.00    -4600.00
02028              60.00    -4800.00
02029              80.00    -5400.00
02030              20.00    -5200.00
02031              80.00    -5400.00
02032             -20.00    -5400.00
02033              80.00    -5600.00
02034             160.00    -5800.00
02035               0.00    -5800.00
02036              60.00    -6400.00
02037             100.00    -6200.00
02038             120.00    -6400.00
02039              20.00    -6800.00
02040              20.00    -6800.00
02041             160.00    -7000.00
02042             100.00    -7000.00
02043              60.00    -7200.00
02044              80.00    -7200.00
02045             100.00    -7400.00
02046              80.00    -7600.00
02047             100.00    -7600.00
02048              80.00    -7800.00
02049              60.00    -7800.00
02050              80.00    -8200.00
02051             120.00    -8200.00
02052             100.00    -8200.00
02053              80.00    -8400.00
02054             140.00    -8400.00
02055             100.00    -8600.00
02056              80.00    -8600.00
02057             100.00    -8600.00
02058             140.00    -8800.00
02059             100.00    -8800.00
02060             100.00    -9000.00
02061             120.00    -9000.00
02062             120.00    -9200.00
02063             140.00    -9200.00
02064             160.00    -9200.00
02065             140.00    -9400.00
02066             140.00    -9200.00
02067             140.00    -9400.00
02068             100.00    -9400.00
02069             140.00    -9400.00
02070             140.00    -9400.00
02071             160.00    -9400.00
02072             160.00    -9600.00
02073             140.00    -9600.00
02074             160.00    -9800.00
02075             140.00    -9600.00
02076             140.00    -9800.00
02077             140.00    -9600.00
02078             160.00    -9800.00
02079             140.00    -9800.00
02080             140.00    -9600.00
02081             140.00    -9800.00
02082             160.00    -9800.00
02083             160.00    -9800.00
02084             160.00    -9800.00
02085             160.00    -9800.00
02086             160.00    -9800.00
02087             160.00    -9800.00
02088             160.00    -9800.00
02089             160.00    -9600.00
02090             160.00    -9600.00
02091             180.00    -9800.00
02092             180.00    -9600.00
02093             160.00    -9800.00
02094             160.00    -9400.00
02095             160.00    -9600.00
02096             160.00    -9400.00
02097             160.00    -9400.00
02098             160.00    -9400.00
02099             180.00    -9400.00
02100             160.00    -9200.00
02101             160.00    -9000.00
02102             160.00    -9200.00
02103             160.00    -9000.00
02104             160.00    -9000.00
02105             160.00    -9000.00
02106             140.00    -9000.00
02107             160.00    -8800.00
02108             160.00    -8600.00
02109             140.00    -8600.00
02110             160.00    -8600.00
02111             160.00    -8400.00
02112             160.00    -8400.00
02113             140.00    -8200.00
02114             140.00    -8200.00
02115             160.00    -8000.00
02116             160.00    -7800.00
02117             160.00    -8000.00
02118             160.00    -7600.00
02119             140.00    -7600.00
02120             140.00    -7400.00
02121             140.00    -7400.00
02122             140.00    -7200.00
02123             140.00    -7000.00
02124             140.00    -7000.00
02125             140.00    -6800.00
02126             140.00    -6600.00
02127             140.00    -6600.00
02128             140.00    -6400.00
02129             140.00    -6400.00
02130             140.00    -6200.00
02131             140.00    -6000.00
02132             120.00    -5800.00
02133             140.00    -5800.00
02134             100.00    -5600.00
02135             100.00    -5400.00
02136             100.00    -5200.00
02137             140.00    -5200.00
02138             140.00    -5000.00
02139             140.00    -4800.00
02140             100.00    -4600.00
02141             100.00    -4600.00
02142             120.00    -4400.00
02143             100.00    -4200.00
02144             100.00    -4000.00
02145             100.00    -3800.00
02146             100.00    -3600.00
02147             100.00    -3400.00
02148             100.00    -3200.00
02149             100.00    -3000.00
02150             100.00    -3000.00
02151             100.00    -2600.00
02152              80.00    -2600.00
02153              80.00    -2400.00
02154              80.00    -2200.00
02155              80.00    -2200.00
02156             100.00    -2000.00
02157              80.00    -1600.00
02158              80.00    -1400.00
02159              60.00    -1400.00
02160              60.00    -1200.00
02161              60.00     -800.00
02162              60.00     -600.00
02163              80.00     -600.00
02164              60.00     -400.00
02165              60.00     -200.00
02166              60.00        0.00
02167              60.00      200.00
02168              80.00      400.00
02169             140.00      600.00
02170             160.00      600.00
02171             140.00     1000.00
02172             100.00     1000.00
02173             100.00     1200.00
02174             100.00     1200.00
02175             220.00     1400.00
02176             780.00     1800.00
02177             880.00     2000.00
02178               0.00     2000.00
02179            -860.00     2000.00
02180           -1140.00     2200.00
02181            -400.00     2800.00
02182             880.00     3000.00
02183              60.00     2600.00
02184            -320.00     3200.00
02185             400.00     3000.00
02186            -120.00     3600.00
02187            -100.00     4000.00
02188              80.00     3400.00
02189             -80.00     4200.00
02190             400.00     4400.00
02191            -160.00     3800.00
02192            -260.00     4600.00
02193             220.00     4600.00
02194            -220.00     4600.00
02195               0.00     5200.00
02196              80.00     4800.00
02197             -20.00     5800.00
02198             -80.00     5400.00
02199            -100.00     5600.00
02200             140.00     5800.00
02201            -100.00     5600.00
02202             -80.00     6200.00
02203              20.00     6000.00
02204             -20.00     6600.00
02205             -80.00     6400.00
02206            -160.00     6600.00
02207              20.00     7000.00
02208             -20.00     6600.00
02209             -60.00     7000.00
02210             -40.00     7200.00
02211             -80.00     7400.00
02212            -100.00     7600.00
02213             -80.00     7600.00
02214             -20.00     7600.00
02215            -100.00     7600.00
02216            -100.00     8000.00
02217            -100.00     8000.00
02218             -80.00     8200.00
02219            -100.00     8200.00
02220             -80.00     8200.00
02221            -100.00     8400.00
02222            -140.00     8400.00
02223            -100.00     8600.00
02224             -80.00     8600.00
02225            -100.00     8600.00
02226            -100.00     8800.00
02227            -100.00     9000.00
02228            -120.00     9000.00
02229            -100.00     9000.00
02230             -80.00     9200.00
02231            -100.00     9200.00
02232            -100.00     9200.00
02233            -140.00     9400.00
02234            -140.00     9400.00
02235            -160.00     9400.00
02236            -140.00     9400.00
02237            -100.00     9400.00
02238            -100.00     9400.00
02239            -140.00     9600.00
02240            -140.00     9600.00
02241            -160.00     9800.00
02242            -160.00     9600.00
02243            -120.00     9800.00
02244            -140.00     9800.00
02245            -160.00     9800.00
02246            -160.00     9800.00
02247            -160.00     9800.00
02248            -160.00     9800.00
02249            -160.00     9800.00
02250            -140.00     9800.00
02251            -140.00     9800.00
02252            -160.00     9800.00
02253            -160.00     9800.00
02254            -160.00     9800.00
02255            -180.00     9800.00
02256            -160.00     9800.00
02257            -140.00     9800.00
02258            -160.00     9800.00
02259            -160.00     9600.00
02260            -160.00     9600.00
02261            -160.00     9400.00
02262            -180.00     9600.00
02263            -160.00     9400.00
02264            -140.00     9400.00
02265            -160.00     9400.00
02266            -160.00     9400.00
02267            -160.00     9400.00
02268            -180.00     9200.00
02269            -160.00     9200.00
02270            -160.00     9200.00
02271            -140.00     9000.00
02272            -160.00     9000.00
02273            -160.00     9000.00
02274            -160.00     9000.00
02275            -160.00     8600.00
02276            -140.00     8600.00
02277            -140.00     8600.00
02278            -140.00     8400.00
02279            -160.00     8400.00
02280            -160.00     8200.00
02281            -160.00     8200.00
02282            -160.00     8200.00
02283            -160.00     8000.00
02284            -140.00     7600.00
02285            -100.00     7800.00
02286            -140.00     7600.00
02287            -160.00     7400.00
02288            -160.00     7400.00
02289            -140.00     7400.00
02290            -140.00     7200.00
02291            -140.00     7000.00
02292            -140.00     6800.00
02293            -160.00     6800.00
02294            -140.00     6600.00
02295            -140.00     6400.00
02296            -140.00     6200.00
02297            -120.00     6200.00
02298            -120.00     6000.00
02299            -120.00     6000.00
02300            -140.00     5800.00
02301            -140.00     5800.00
02302            -100.00     5400.00
02303            -100.00     5400.00
02304            -120.00     5000.00
02305            -100.00     5000.00
02306            -140.00     4600.00
02307            -120.00     4600.00
02308            -140.00     4600.00
02309            -100.00     4200.00
02310            -100.00     4200.00
02311            -100.00     3800.00
02312            -100.00     3800.00
02313            -100.00     3600.00
02314            -100.00     3400.00
02315            -100.00     3400.00
02316            -100.00     3200.00
02317            -100.00     3000.00
02318            -100.00     2800.00
02319            -100.00     2600.00
02320            -100.00     2200.00
02321            -100.00     2200.00
02322            -100.00     2000.00
02323             -80.00     2000.00
02324             -80.00     1800.00
02325             -80.00     1400.00
02326             -80.00     1400.00
02327             -80.00     1200.00
02328             -60.00     1000.00
02329             -80.00      800.00
02330             -60.00      600.00
02331             -80.00      400.00
02332             -60.00      200.00
02333             -40.00      200.00
02334             -60.00     -200.00
02335             -20.00     -400.00
02336              20.00     -200.00
02337              60.00     -600.00
02338              60.00    -1000.00
02339               0.00     -800.00
02340              20.00    -1200.00
02341              20.00    -1200.00
02342              60.00    -1400.00
02343             260.00    -1600.00
02344             720.00    -2000.00
02345             620.00    -2200.00
02346            -180.00    -2200.00
02347            -700.00    -2600.00
02348            -780.00    -2600.00
02349            -540.00    -2200.00
02350             460.00    -3000.00
02351             200.00    -3400.00
02352            -260.00    -2800.00
02353             300.00    -3600.00
02354              60.00    -3400.00
02355               0.00    -3400.00
02356             180.00    -4400.00
02357             -80.00    -3800.00
02358             240.00    -4400.00
02359             200.00    -4400.00
02360            -160.00    -4600.00
02361             -20.00    -5000.00
02362              20.00    -4600.00
02363              80.00    -5000.00
02364              60.00    -5200.00
02365              80.00    -5200.00
02366              60.00    -5600.00
02367               0.00    -5400.00
02368             160.00    -6000.00
02369              60.00    -5800.00
02370              20.00    -6200.00
02371              80.00    -6600.00
02372             100.00    -6200.00
02373              60.00    -6600.00
02374               0.00    -6800.00
02375              80.00    -6800.00
02376             140.00    -7000.00
02377              60.00    -7000.00
02378              80.00    -7400.00
02379             120.00    -7200.00
02380              80.00    -7600.00
02381              80.00    -7600.00
02382             140.00    -7600.00
02383              60.00    -7800.00
02384              60.00    -7800.00
02385             120.00    -8200.00
02386             140.00    -8200.00
02387              80.00    -8200.00
02388             100.00    -8400.00
02389             140.00    -8400.00
02390              80.00    -8600.00
02391             100.00    -8600.00
02392             140.00    -8600.00
02393             140.00    -9000.00
02394             100.00    -9000.00
02395             120.00    -9000.00
02396             100.00    -9000.00
02397             100.00    -9200.00
02398             140.00    -9200.00
02399             160.00    -9200.00
02400             140.00    -9200.00
02401             140.00    -9400.00
02402             140.00    -9400.00
02403             140.00    -9400.00
02404             140.00    -9400.00
02405             140.00    -9600.00
02406             160.00    -9600.00
02407             140.00    -9600.00
02408             140.00    -9600.00
02409             140.00    -9600.00
02410             140.00    -9800.00
02411             160.00    -9600.00
02412             160.00    -9800.00
02413             160.00    -9600.00
02414             160.00    -9800.00
02415             140.00    -9800.00
02416             160.00    -9800.00
02417             140.00    -9800.00
02418             160.00    -9800.00
02419             160.00    -9800.00
02420             160.00    -9800.00
02421             160.00    -9800.00
02422             160.00    -9600.00
02423             160.00    -9800.00
02424             160.00    -9600.00
02425             160.00    -9800.00
02426             180.00    -9800.00
02427             160.00    -9400.00
02428             160.00    -9400.00
02429             160.00    -9400.00
02430             160.00    -9600.00
02431             160.00    -9400.00
02432             180.00    -9400.00
02433             160.00    -9400.00
02434             160.00    -9400.00
02435             160.00    -9200.00
02436             160.00    -9200.00
02437             160.00    -9200.00
02438             160.00    -9000.00
02439             160.00    -9000.00
02440             160.00    -9000.00
02441             160.00    -8800.00
02442             140.00    -8600.00
02443             140.00    -8600.00
02444             160.00    -8600.00
02445             160.00    -8600.00
02446             160.00    -8400.00
02447             140.00    -8400.00
02448             160.00    -8200.00
02449             140.00    -8200.00
02450             160.00    -8000.00
02451             160.00    -8000.00
02452             160.00    -7600.00
02453             160.00    -7600.00
02454             160.00    -7400.00
02455             140.00    -7400.00
02456             140.00    -7200.00
02457             160.00    -7000.00
02458             140.00    -7000.00
02459             140.00    -6800.00
02460             160.00    -6800.00
02461             140.00    -6600.00
02462             140.00    -6600.00
02463             140.00    -6400.00
02464             140.00    -6200.00
02465             140.00    -6200.00
02466             140.00    -6000.00
02467             140.00    -5800.00
02468             120.00    -5800.00
02469             140.00    -5400.00
02470             120.00    -5200.00
02471             100.00    -5200.00
02472             140.00    -5000.00
02473             140.00    -5000.00
02474             120.00    -4600.00
02475             100.00    -4400.00
02476             120.00    -4400.00
02477             100.00    -4200.00
02478             100.00    -4000.00
02479             100.00    -3800.00
02480             100.00    -3600.00
02481             100.00    -3600.00
02482              80.00    -3200.00
02483              80.00    -3000.00
02484              80.00    -3000.00
02485             100.00    -2800.00
02486              80.00    -2600.00
02487              80.00    -2600.00
02488              80.00    -2200.00
02489              80.00    -2000.00
02490              80.00    -1800.00
02491              80.00    -1800.00
02492              80.00    -1400.00
02493              80.00    -1400.00
02494              60.00    -1200.00
02495              80.00     -800.00
02496              60.00     -800.00
02497              60.00     -600.00
02498              80.00     -400.00
02499              60.00     -200.00
02500              60.00        0.00
02501              20.00        0.00
02502              60.00      400.00
02503             100.00      400.00
02504             160.00      600.00
02505             140.00      600.00
02506             100.00     1000.00
02507             100.00     1000.00
02508             100.00     1200.00
02509             100.00     1400.00
02510             480.00     1800.00
02511             980.00     2000.00
02512             480.00     2000.00
02513            -520.00     2200.00
02514           -1040.00     2200.00
02515            -980.00     2600.00
02516             420.00     3200.00
02517             660.00     2800.00
02518            -420.00     3000.00
02519             160.00     3200.00
02520             240.00     3000.00
02521            -300.00     4200.00
02522             120.00     3600.00
02523            -100.00     3600.00
02524             220.00     4600.00
02525             240.00     3800.00
02526            -420.00     4400.00
02527             100.00     4800.00
02528               0.00     4600.00
02529            -180.00     5000.00
02530             140.00     5000.00
02531               0.00     5200.00
02532               0.00     5600.00
02533            -140.00     5000.00
02534              60.00     6000.00
02535              20.00     5600.00
02536            -160.00     6000.00
02537              40.00     6200.00
02538             -20.00     6200.00
02539             -40.00     6600.00
02540            -140.00     6200.00
02541             -80.00     6800.00
02542              20.00     6800.00
02543             -60.00     6800.00
02544             -20.00     7000.00
02545             -80.00     7200.00
02546             -80.00     7400.00
02547            -100.00     7400.00
02548             -20.00     7800.00
02549             -80.00     7600.00
02550            -100.00     7800.00
02551             -80.00     7800.00
02552             -80.00     8200.00
02553             -80.00     8200.00
02554            -100.00     8200.00
02555             -60.00     8400.00
02556            -140.00     8400.00
02557            -100.00     8400.00
02558             -80.00     8600.00
02559             -80.00     8600.00
02560            -100.00     8800.00
02561            -140.00     8600.00
02562            -120.00     9000.00
02563            -140.00     9000.00
02564            -100.00     9200.00
02565            -120.00     9200.00
02566            -120.00     9200.00
02567            -120.00     9400.00
02568            -140.00     9400.00
02569            -140.00     9400.00
02570            -140.00     9400.00
02571            -140.00     9400.00
02572            -140.00     9600.00
02573            -140.00     9800.00
02574            -140.00     9600.00
02575            -160.00     9600.00
02576            -160.00     9800.00
02577            -100.00     9800.00
02578            -140.00     9800.00
02579            -140.00     9800.00
02580            -160.00     9800.00
02581            -140.00     9800.00
02582            -140.00     9800.00
02583            -160.00     9800.00
02584            -160.00     9800.00
02585            -160.00     9800.00
02586            -160.00     9800.00
02587            -160.00     9800.00
02588            -160.00     9800.00
02589            -160.00     9800.00
02590            -180.00     9800.00
02591            -140.00     9800.00
02592            -140.00     9800.00
02593            -160.00     9800.00
02594            -160.00     9600.00
02595            -140.00     9600.00
02596            -160.00     9600.00
02597            -160.00     9600.00
02598            -140.00     9400.00
02599            -160.00     9400.00
02600            -160.00     9400.00
02601            -160.00     9400.00
02602            -160.00     9400.00
02603            -160.00     9200.00
02604            -160.00     9200.00
02605            -140.00     9000.00
02606            -140.00     9000.00
02607            -160.00     9000.00
02608            -160.00     9000.00
02609            -160.00     8600.00
02610            -140.00     8600.00
02611            -140.00     8600.00
02612            -140.00     8600.00
02613            -160.00     8400.00
02614            -160.00     8200.00
02615            -160.00     8400.00
02616            -160.00     8200.00
02617            -160.00     8000.00
02618            -140.00     7800.00
02619            -140.00     7800.00
02620            -160.00     7600.00
02621            -160.00     7600.00
02622            -160.00     7400.00
02623            -160.00     7400.00
02624            -140.00     7000.00
02625            -140.00     7200.00
02626            -140.00     7000.00
02627            -140.00     6600.00
02628            -160.00     6800.00
02629            -140.00     6600.00
02630            -140.00     6400.00
02631            -140.00     6200.00
02632            -140.00     6000.00
02633            -120.00     6000.00
02634            -140.00     5800.00
02635            -140.00     5600.00
02636            -140.00     5400.00
02637            -140.00     5400.00
02638            -120.00     5200.00
02639            -100.00     5000.00
02640            -140.00     5000.00
02641            -140.00     4600.00
02642            -140.00     4600.00
02643            -120.00     4400.00
02644            -100.00     4200.00
02645            -100.00     4000.00
02646            -100.00     3800.00
02647            -100.00     3600.00
02648            -100.00     3600.00
02649            -100.00     3400.00
02650            -100.00     3400.00
02651            -100.00     3000.00
02652             -80.00     2800.00
02653            -100.00     2600.00
02654            -100.00     2600.00
02655            -100.00     2200.00
02656            -100.00     2200.00
02657            -100.00     2000.00
02658             -80.00     1800.00
02659             -80.00     1400.00
02660             -80.00     1400.00
02661             -80.00     1200.00
02662             -60.00     1200.00
02663             -80.00     1000.00
02664             -60.00      600.00
02665             -60.00      400.00
02666             -60.00      200.00
02667             -40.00      200.00
02668             -60.00        0.00
02669             -20.00     -200.00
02670              20.00     -400.00
02671              80.00     -400.00
02672              60.00     -600.00
02673              40.00     -800.00
02674               0.00    -1000.00
02675              20.00    -1200.00
02676              20.00    -1400.00
02677             140.00    -1400.00
02678             500.00    -1800.00
02679             800.00    -2200.00
02680             220.00    -2200.00
02681            -500.00    -2600.00
02682            -740.00    -2600.00
02683            -760.00    -2400.00
02684               0.00    -2600.00
02685             540.00    -3200.00
02686            -240.00    -3000.00
02687              60.00    -3400.00
02688             260.00    -3800.00
02689            -100.00    -3400.00
02690             180.00    -4000.00
02691               0.00    -4200.00
02692              20.00    -4200.00
02693             320.00    -4400.00
02694             -60.00    -4200.00
02695            -100.00    -5000.00
02696              20.00    -4800.00
02697              60.00    -5000.00
02698              60.00    -5400.00
02699              20.00    -5200.00
02700              80.00    -5800.00
02701               0.00    -5400.00
02702              80.00    -5800.00
02703             140.00    -6000.00
02704               0.00    -6000.00
02705              60.00    -6600.00
02706             120.00    -6200.00
02707              80.00    -6600.00
02708               0.00    -6600.00
02709              20.00    -6600.00
02710             140.00    -7000.00
02711              80.00    -7000.00
02712              60.00    -7200.00
02713             100.00    -7400.00
02714             100.00    -7400.00
02715              60.00    -7600.00
02716             100.00    -7600.00
02717             100.00    -7800.00
02718              60.00    -7800.00
02719              80.00    -8200.00
02720             140.00    -8200.00
02721             100.00    -8200.00
02722              80.00    -8400.00
02723             140.00    -8400.00
02724             100.00    -8400.00
02725              80.00    -8600.00
02726             100.00    -8600.00
02727             140.00    -8600.00
02728             100.00    -9000.00
02729              80.00    -9000.00
02730             120.00    -9200.00
02731             100.00    -9000.00
02732             120.00    -9200.00
02733             160.00    -9200.00
02734             140.00    -9200.00
02735             140.00    -9400.00
02736             140.00    -9400.00
02737             140.00    -9400.00
02738             140.00    -9400.00
02739             140.00    -9400.00
02740             160.00    -9400.00
02741             160.00    -9600.00
02742             140.00    -9800.00
02743             160.00    -9800.00
02744             140.00    -9600.00
02745             140.00    -9800.00
02746             160.00    -9800.00
02747             160.00    -9800.00
02748             140.00    -9800.00
02749             140.00    -9800.00
02750             140.00    -9800.00
02751             140.00    -9800.00
02752             140.00    -9800.00
02753             160.00    -9800.00
02754             160.00    -9800.00
02755             160.00    -9800.00
02756             160.00    -9800.00
02757             160.00    -9800.00
02758             160.00    -9800.00
02759             160.00    -9800.00
02760             180.00    -9600.00
02761             160.00    -9800.00
02762             140.00    -9600.00
02763             160.00    -9400.00
02764             160.00    -9400.00
02765             160.00    -9600.00
02766             160.00    -9400.00
02767             160.00    -9400.00
02768             160.00    -9400.00
02769             160.00    -9400.00
02770             160.00    -9200.00
02771             160.00    -9200.00
02772             160.00    -9200.00
02773             160.00    -9000.00
02774             160.00    -9200.00
02775             160.00    -9000.00
02776             160.00    -8800.00
02777             140.00    -8600.00
02778             140.00    -8600.00
02779             140.00    -8600.00
02780             160.00    -8600.00
02781             160.00    -8400.00
02782             140.00    -8200.00
02783             160.00    -8200.00
02784             160.00    -7800.00
02785             160.00    -8000.00
02786             140.00    -7800.00
02787             160.00    -7800.00
02788             160.00    -7600.00
02789             140.00    -7400.00
02790             140.00    -7200.00
02791             140.00    -7200.00
02792             160.00    -7000.00
02793             160.00    -7000.00
02794             140.00    -6800.00
02795             140.00    -6600.00
02796             140.00    -6600.00
02797             140.00    -6400.00
02798             140.00    -6200.00
02799             140.00    -6200.00
02800             160.00    -6200.00
02801             140.00    -6000.00
02802             140.00    -5600.00
02803             140.00    -5600.00
02804             140.00    -5400.00
02805             140.00    -5200.00
02806             140.00    -5200.00
02807             140.00    -5000.00
02808             100.00    -4800.00
02809             100.00    -4600.00
02810             100.00    -4400.00
02811             100.00    -4200.00
02812             140.00    -4200.00
02813             140.00    -4000.00
02814             100.00    -3600.00
02815             100.00    -3800.00
02816             100.00    -3400.00
02817             100.00    -3200.00
02818              80.00    -3000.00
02819              80.00    -3000.00
02820             100.00    -2800.00
02821             100.00    -2600.00
02822              80.00    -2400.00
02823              80.00    -2200.00
02824              80.00    -2000.00
02825              80.00    -1800.00
02826              60.00    -1600.00
02827              80.00    -1400.00
02828              80.00    -1400.00
02829              80.00    -1200.00
02830              60.00     -800.00
02831              60.00     -800.00
02832              60.00     -400.00
02833              60.00     -400.00
02834              60.00     -200.00
02835              80.00        0.00
02836              60.00      200.00
02837              80.00      400.00
02838             140.00      600.00
02839             160.00      800.00
02840             140.00     1000.00
02841             120.00      800.00
02842             100.00     1200.00
02843              80.00     1400.00
02844             240.00     1400.00
02845             820.00     1800.00
02846             860.00     2000.00
02847             -80.00     2200.00
02848            -880.00     2200.00
02849           -1140.00     2200.00
02850            -300.00     3000.00
02851             900.00     3000.00
02852             -20.00     2800.00
02853            -260.00     3400.00
02854             400.00     3000.00
02855            -160.00     3600.00
02856             -80.00     4000.00
02857              60.00     3400.00
02858             -60.00     4400.00
02859             400.00     4200.00
02860            -220.00     4000.00
02861            -220.00     5000.00
02862             200.00     4600.00
02863            -240.00     5000.00
02864              60.00     5000.00
02865              80.00     5000.00
02866             -20.00     5800.00
02867             -80.00     5200.00
02868             -80.00     5800.00
02869             140.00     6000.00
02870            -140.00     5800.00
02871             -60.00     6200.00
02872              20.00     6000.00
02873             -80.00     6400.00
02874             -60.00     6600.00
02875            -140.00     6600.00
02876              20.00     7000.00
02877             -20.00     6800.00
02878             -40.00     7000.00
02879             -40.00     7200.00
02880             -80.00     7200.00
02881            -100.00     7400.00
02882             -60.00     7600.00
02883             -20.00     7600.00
02884            -100.00     7600.00
02885            -100.00     7800.00
02886            -100.00     8200.00
02887             -80.00     8200.00
02888             -80.00     8200.00
02889             -60.00     8400.00
02890            -100.00     8400.00
02891            -140.00     8400.00
02892             -80.00     8600.00
02893            -100.00     8600.00
02894            -100.00     8600.00
02895            -100.00     8800.00
02896            -120.00     9000.00
02897            -140.00     9000.00
02898            -100.00     9200.00
02899            -100.00     9200.00
02900            -120.00     9200.00
02901            -140.00     9200.00
02902            -140.00     9400.00
02903            -140.00     9200.00
02904            -160.00     9400.00
02905            -160.00     9400.00
02906            -120.00     9400.00
02907            -140.00     9600.00
02908            -140.00     9800.00
02909            -140.00     9800.00
02910            -160.00     9400.00
02911            -160.00     9800.00
02912            -120.00     9800.00
02913            -140.00     9600.00
02914            -160.00     9800.00
02915            -160.00     9800.00
02916            -160.00     9800.00
02917            -160.00     9800.00
02918            -160.00    10000.00
02919            -140.00     9800.00
02920            -160.00     9800.00
02921            -160.00     9800.00
02922            -160.00     9800.00
02923            -140.00     9800.00
02924            -160.00     9800.00
02925            -160.00     9800.00
02926            -140.00     9600.00
02927            -160.00     9800.00
02928            -160.00     9800.00
02929            -160.00     9600.00
02930            -160.00     9800.00
02931            -160.00     9400.00
02932            -140.00     9600.00
02933            -140.00     9400.00
02934            -140.00     9400.00
02935            -160.00     9400.00
02936            -160.00     9400.00
02937            -160.00     9200.00
02938            -160.00     9200.00
02939            -160.00     9000.00
02940            -160.00     9000.00
02941            -140.00     9000.00
02942            -140.00     9000.00
02943            -160.00     8800.00
02944            -160.00     8600.00
02945            -140.00     8600.00
02946            -160.00     8400.00
02947            -160.00     8400.00
02948            -140.00     8200.00
02949            -160.00     8200.00
02950            -160.00     8200.00
02951            -160.00     8200.00
02952            -160.00     7800.00
02953            -140.00     7800.00
02954            -140.00     7600.00
02955            -140.00     7600.00
02956            -160.00     7400.00
02957            -160.00     7400.00
02958            -140.00     7000.00
02959            -160.00     7000.00
02960            -140.00     6800.00
02961            -160.00     6800.00
02962            -140.00     6600.00
02963            -160.00     6600.00
02964            -140.00     6400.00
02965            -160.00     6200.00
02966            -140.00     6000.00
02967            -140.00     6000.00
02968            -140.00     5800.00
02969            -140.00     5800.00
02970            -140.00     5600.00
02971            -140.00     5400.00
02972            -120.00     5400.00
02973            -100.00     5200.00
02974            -140.00     5000.00
02975            -120.00     4600.00
02976            -120.00     4600.00
02977            -100.00     4400.00
02978            -140.00     4200.00
02979            -100.00     4000.00
02980            -100.00     3800.00
02981            -100.00     3800.00
02982            -100.00     3600.00
02983            -100.00     3600.00
02984            -100.00     3400.00
02985            -100.00     3000.00
02986             -80.00     3000.00
02987             -80.00     2800.00
02988            -100.00     2600.00
02989            -100.00     2400.00
02990            -100.00     2000.00
02991             -80.00     2000.00
02992             -80.00     1800.00
02993             -80.00     1800.00
02994             -60.00     1600.00
02995             -60.00     1200.00
02996             -80.00     1000.00
02997             -80.00     1000.00
02998             -60.00      600.00
02999             -60.00      600.00
03000             -40.00      400.00
03001             -20.00      200.00
03002             -60.00      200.00
03003             -20.00     -200.00
03004             -20.00     -200.00
03005              60.00     -400.00
03006              80.00     -600.00
03007              60.00     -800.00
03008              20.00    -1000.00
03009              20.00    -1000.00
03010              40.00    -1200.00
03011              60.00    -1400.00
03012             280.00    -1600.00
03013             740.00    -1800.00
03014             580.00    -2200.00
03015            -220.00    -2400.00
03016            -680.00    -2600.00
03017            -780.00    -2600.00
03018            -480.00    -2400.00
03019             500.00    -3000.00
03020             140.00    -3400.00
03021            -240.00    -3000.00
03022             320.00    -3600.00
03023              20.00    -3600.00
03024              20.00    -3400.00
03025             160.00    -4200.00
03026            -100.00    -4000.00
03027             260.00    -4400.00
03028             180.00    -4400.00
03029            -180.00    -4600.00
03030             -20.00    -5200.00
03031              20.00    -4600.00
03032             100.00    -5400.00
03033              20.00    -5400.00
03034              80.00    -5400.00
03035              20.00    -5800.00
03036               0.00    -5800.00
03037             160.00    -6000.00
03038              60.00    -5800.00
03039               0.00    -6200.00
03040             100.00    -6600.00
03041             100.00    -6200.00
03042              60.00    -6800.00
03043             -20.00    -6800.00
03044             100.00    -6800.00
03045             140.00    -7000.00
03046              60.00    -7200.00
03047              80.00    -7400.00
03048             120.00    -7200.00
03049              80.00    -7400.00
03050              80.00    -7800.00
03051             140.00    -7600.00
03052              80.00    -7800.00
03053              80.00    -8000.00
03054             140.00    -8200.00
03055             120.00    -8200.00
03056              80.00    -8400.00
03057             100.00    -8400.00
03058             140.00    -8600.00
03059              80.00    -8600.00
03060              80.00    -8600.00
03061             140.00    -8800.00
03062             140.00    -9000.00
03063             100.00    -9000.00
03064             120.00    -9000.00
03065             140.00    -9000.00
03066             120.00    -9200.00
03067             140.00    -9200.00
03068             160.00    -9200.00
03069             140.00    -9200.00
03070             140.00    -9400.00
03071             140.00    -9400.00
03072             140.00    -9400.00
03073             120.00    -9400.00
03074             160.00    -9400.00
03075             160.00    -9600.00
03076             140.00    -9600.00
03077             140.00    -9600.00
03078             140.00    -9600.00
03079             140.00    -9600.00
03080             140.00    -9800.00
03081             160.00    -9800.00
03082             160.00    -9800.00
03083             140.00    -9800.00
03084             140.00    -9800.00
03085             160.00    -9800.00
03086             140.00    -9800.00
03087             160.00    -9800.00
03088             160.00    -9800.00
03089             160.00    -9800.00
03090             160.00    -9800.00
03091             140.00    -9800.00
03092             160.00    -9800.00
03093             140.00    -9800.00
03094             160.00    -9600.00
03095             160.00    -9600.00
03096             160.00    -9600.00
03097             160.00    -9600.00
03098             160.00    -9600.00
03099             140.00    -9600.00
03100             160.00    -9600.00
03101             160.00    -9400.00
03102             160.00    -9200.00
03103             160.00    -9200.00
03104             140.00    -9400.00
03105             160.00    -9200.00
03106             160.00    -9200.00
03107             160.00    -9000.00
03108             160.00    -9000.00
03109             160.00    -9000.00
03110             140.00    -8600.00
03111             160.00    -9000.00
03112             160.00    -8600.00
03113             160.00    -8600.00
03114             160.00    -8600.00
03115             160.00    -8400.00
03116             160.00    -8400.00
03117             160.00    -8200.00
03118             140.00    -8200.00
03119             160.00    -8000.00
03120             160.00    -7800.00
03121             160.00    -7800.00
03122             160.00    -7600.00
03123             140.00    -7600.00
03124             140.00    -7400.00
03125             140.00    -7200.00
03126             160.00    -7000.00
03127             140.00    -7000.00
03128             160.00    -6800.00
03129             140.00    -6800.00
03130             140.00    -6600.00
03131             140.00    -6600.00
03132             140.00    -6400.00
03133             140.00    -6200.00
03134             160.00    -6200.00
03135             140.00    -5800.00
03136             140.00    -6000.00
03137             140.00    -5600.00
03138             100.00    -5400.00
03139             140.00    -5400.00
03140             140.00    -5200.00
03141             140.00    -5000.00
03142             140.00    -5000.00
03143             100.00    -4800.00
03144             100.00    -4600.00
03145             100.00    -4400.00
03146             100.00    -4200.00
03147             100.00    -3800.00
03148             100.00    -3800.00
03149             100.00    -3600.00
03150             100.00    -3400.00
03151              80.00    -3400.00
03152             100.00    -3000.00
03153             100.00    -3000.00
03154             100.00    -2800.00
03155             100.00    -2800.00
03156              80.00    -2400.00
03157              80.00    -2200.00
03158              60.00    -2000.00
03159              60.00    -2000.00
03160              60.00    -1800.00
03161              80.00    -1800.00
03162              60.00    -1400.00
03163              60.00    -1200.00
03164              60.00    -1000.00
03165              60.00     -800.00
03166              60.00     -600.00
03167              60.00     -600.00
03168              60.00     -200.00
03169              60.00     -200.00
03170              60.00      200.00
03171              60.00      200.00
03172             100.00      400.00
03173             160.00      600.00
03174             140.00      600.00
03175             100.00     1000.00
03176             100.00     1000.00
03177             100.00     1200.00
03178             140.00     1400.00
03179             500.00     1800.00
03180             980.00     2000.00
03181             420.00     2000.00
03182            -580.00     2200.00
03183           -1060.00     2000.00
03184            -900.00     2600.00
03185             500.00     3000.00
03186             620.00     2800.00
03187            -460.00     3000.00
03188             220.00     3200.00
03189             180.00     3200.00
03190            -260.00     3800.00
03191             140.00     3600.00
03192            -100.00     3600.00
03193             240.00     4400.00
03194             180.00     3800.00
03195            -400.00     4400.00
03196             140.00     5000.00
03197             -20.00     4400.00
03198            -160.00     5200.00
03199             140.00     4800.00
03200               0.00     5400.00
03201               0.00     5600.00
03202            -140.00     5200.00
03203              60.00     6000.00
03204               0.00     5600.00
03205            -160.00     6000.00
03206              20.00     6200.00
03207             -20.00     6200.00
03208             -60.00     6600.00
03209            -140.00     6200.00
03210             -40.00     7000.00
03211              20.00     6800.00
03212             -60.00     7000.00
03213             -60.00     7200.00
03214             -60.00     7000.00
03215             -80.00     7400.00
03216            -100.00     7400.00
03217             -20.00     7600.00
03218             -80.00     7800.00
03219            -120.00     7800.00
03220             -80.00     7800.00
03221            -100.00     8000.00
03222             -80.00     8200.00
03223            -100.00     8200.00
03224             -80.00     8400.00
03225            -140.00     8400.00
03226            -100.00     8600.00
03227            -100.00     8600.00
03228             -80.00     8600.00
03229            -100.00     8800.00
03230            -140.00     8600.00
03231            -140.00     9000.00
03232            -140.00     9000.00
03233             -80.00     9200.00
03234            -100.00     9200.00
03235            -100.00     9200.00
03236            -140.00     9200.00
03237            -140.00     9400.00
03238            -140.00     9400.00
03239            -160.00     9400.00
03240            -140.00     9400.00
03241            -120.00     9400.00
03242            -120.00     9600.00
03243            -140.00     9800.00
03244            -140.00     9800.00
03245            -160.00     9600.00
03246            -140.00     9800.00
03247            -100.00     9800.00
03248            -140.00     9800.00
03249            -160.00     9800.00
03250            -140.00     9800.00
03251            -160.00     9800.00
03252            -160.00     9800.00
03253            -140.00     9800.00
03254            -140.00     9800.00
03255            -140.00     9800.00
03256            -140.00     9800.00
03257            -160.00     9800.00
03258            -160.00     9800.00
03259            -160.00     9800.00
03260            -140.00     9600.00
03261            -140.00     9800.00
03262            -160.00     9600.00
03263            -160.00     9600.00
03264            -160.00     9600.00
03265            -160.00     9400.00
03266            -160.00     9600.00
03267            -160.00     9400.00
03268            -160.00     9400.00
03269            -140.00     9400.00
03270            -160.00     9200.00
03271            -160.00     9200.00
03272            -160.00     9400.00
03273            -160.00     9200.00
03274            -160.00     9200.00
03275            -140.00     9000.00
03276            -160.00     9000.00
03277            -160.00     8800.00
03278            -160.00     8800.00
03279            -160.00     8600.00
03280            -140.00     8600.00
03281            -160.00     8600.00
03282            -160.00     8400.00
03283            -160.00     8200.00
03284            -160.00     8200.00
03285            -160.00     8200.00
03286            -160.00     7800.00
03287            -160.00     7800.00
03288            -140.00     7600.00
03289            -160.00     7600.00
03290            -160.00     7400.00
03291            -160.00     7400.00
03292            -160.00     7400.00
03293            -140.00     7200.00
03294            -140.00     7000.00
03295            -160.00     7000.00
03296            -160.00     6600.00
03297            -160.00     6600.00
03298            -160.00     6400.00
03299            -140.00     6400.00
03300            -140.00     6200.00
03301            -120.00     6000.00
03302            -140.00     5800.00
03303            -140.00     5800.00
03304            -140.00     5800.00
03305            -160.00     5600.00
03306            -140.00     5200.00
03307            -100.00     5200.00
03308            -140.00     5000.00
03309            -120.00     4800.00
03310            -140.00     4600.00
03311            -140.00     4400.00
03312            -100.00     4400.00
03313            -100.00     4200.00
03314            -100.00     4200.00
03315            -100.00     3800.00
03316            -100.00     3800.00
03317            -100.00     3600.00
03318            -100.00     3400.00
03319            -100.00     3000.00
03320            -100.00     3000.00
03321             -80.00     2800.00
03322            -100.00     2800.00
03323            -100.00     2600.00
03324            -100.00     2200.00
03325             -80.00     2000.00
03326             -80.00     1800.00
03327             -80.00     1800.00
03328             -80.00     1600.00
03329             -80.00     1400.00
03330             -60.00     1200.00
03331             -60.00     1000.00
03332             -60.00      600.00
03333             -60.00      600.00
03334             -60.00      600.00
03335             -20.00      400.00
03336             -20.00      200.00
03337             -20.00      200.00
03338             -20.00     -200.00
03339               0.00     -400.00
03340              80.00     -600.00
03341              60.00     -800.00
03342              60.00    -1000.00
03343              20.00    -1000.00
03344              20.00    -1200.00
03345              60.00    -1400.00
03346             140.00    -1400.00
03347             540.00    -1800.00
03348             780.00    -2200.00
03349             160.00    -2200.00
03350            -560.00    -2600.00
03351            -740.00    -2600.00
03352            -740.00    -2600.00
03353              80.00    -2600.00
03354             540.00    -3400.00
03355            -240.00    -3000.00
03356              80.00    -3400.00
03357             260.00    -3800.00
03358            -120.00    -3400.00
03359             200.00    -4200.00
03360               0.00    -4200.00
03361              40.00    -4200.00
03362             320.00    -4600.00
03363             -80.00    -4400.00
03364            -100.00    -5000.00
03365              20.00    -4800.00
03366              60.00    -4800.00
03367              60.00    -5400.00
03368              40.00    -5400.00
03369              80.00    -5400.00
03370             -20.00    -5600.00
03371             100.00    -6000.00
03372             140.00    -6000.00
03373               0.00    -6000.00
03374              60.00    -6600.00
03375             100.00    -6200.00
03376             100.00    -6600.00
03377               0.00    -6800.00
03378              60.00    -6600.00
03379             160.00    -7000.00
03380              80.00    -7000.00
03381              60.00    -7200.00
03382             100.00    -7400.00
03383             100.00    -7400.00
03384              80.00    -7600.00
03385             140.00    -7600.00
03386             100.00    -7800.00
03387              60.00    -8000.00
03388             100.00    -8000.00
03389             140.00    -8200.00
03390             100.00    -8200.00
03391             100.00    -8400.00
03392             140.00    -8400.00
03393             100.00    -8400.00
03394              80.00    -8600.00
03395             140.00    -8600.00
03396             140.00    -8600.00
03397             120.00    -9000.00
03398             100.00    -8800.00
03399             140.00    -9000.00
03400             100.00    -9000.00
03401             140.00    -9000.00
03402             160.00    -9200.00
03403             140.00    -9200.00
03404             100.00    -9400.00
03405             140.00    -9400.00
03406             140.00    -9400.00
03407             120.00    -9400.00
03408             140.00    -9400.00
03409             160.00    -9600.00
03410             160.00    -9600.00
03411             140.00    -9600.00
03412             140.00    -9600.00
03413             140.00    -9800.00
03414             140.00    -9800.00
03415             160.00    -9800.00
03416             160.00    -9800.00
03417             140.00    -9800.00
03418             140.00    -9800.00
03419             140.00    -9800.00
03420             140.00    -9800.00
03421             140.00    -9800.00
03422             160.00    -9800.00
03423             160.00    -9800.00
03424             160.00    -9800.00
03425             160.00    -9800.00
03426             160.00    -9800.00
03427             140.00    -9600.00
03428             160.00    -9800.00
03429             160.00    -9600.00
03430             160.00    -9600.00
03431             140.00    -9400.00
03432             160.00    -9400.00
03433             160.00    -9600.00
03434             160.00    -9400.00
03435             160.00    -9400.00
03436             160.00    -9400.00
03437             160.00    -9400.00
03438             160.00    -9200.00
03439             160.00    -9200.00
03440             160.00    -9200.00
03441             160.00    -9200.00
03442             160.00    -9000.00
03443             160.00    -9000.00
03444             160.00    -9000.00
03445             140.00    -8600.00
03446             160.00    -8600.00
03447             160.00    -8600.00
03448             160.00    -8600.00
03449             160.00    -8400.00
03450             160.00    -8400.00
03451             140.00    -8200.00
03452             160.00    -8200.00
03453             160.00    -8200.00
03454             160.00    -7800.00
03455             160.00    -7600.00
03456             160.00    -7800.00
03457             140.00    -7600.00
03458             140.00    -7400.00
03459             160.00    -7200.00
03460             160.00    -7000.00
03461             160.00    -7000.00
03462             160.00    -7000.00
03463             160.00    -6800.00
03464             140.00    -6800.00
03465             140.00    -6600.00
03466             140.00    -6400.00
03467             160.00    -6200.00
03468             140.00    -6200.00
03469             140.00    -6000.00
03470             140.00    -5800.00
03471             140.00    -5600.00
03472             140.00    -5400.00
03473             140.00    -5400.00
03474             140.00    -5200.00
03475             120.00    -5200.00
03476             100.00    -5000.00
03477             100.00    -4600.00
03478             100.00    -4600.00
03479              80.00    -4400.00
03480             100.00    -4400.00
03481             100.00    -4200.00
03482             100.00    -3800.00
03483             100.00    -3800.00
03484              80.00    -3600.00
03485              80.00    -3400.00
03486             100.00    -3400.00
03487              80.00    -3200.00
03488             100.00    -3000.00
03489              80.00    -2800.00
03490              80.00    -2600.00
03491              80.00    -2400.00
03492              80.00    -2200.00
03493              80.00    -2000.00
03494              80.00    -1800.00
03495              60.00    -1800.00
03496              80.00    -1400.00
03497              80.00    -1200.00
03498              60.00    -1000.00
03499              60.00    -1000.00
03500              60.00     -600.00
03501              60.00     -600.00
03502              60.00     -400.00
03503              60.00     -200.00
03504              60.00     -200.00
03505              60.00      200.00
03506              80.00      400.00
03507             140.00      600.00
03508             160.00      600.00
03509             140.00      800.00
03510             100.00     1000.00
03511              80.00     1200.00
03512             100.00     1200.00
03513             260.00     1400.00
03514             860.00     1800.00
03515             820.00     2000.00
03516            -140.00     2200.00
03517            -900.00     2000.00
03518           -1120.00     2200.00
03519            -240.00     3000.00
03520             900.00     3000.00
03521            -100.00     2800.00
03522            -220.00     3400.00
03523             420.00     3000.00
03524            -180.00     3800.00
03525             -40.00     3800.00
03526              40.00     3400.00
03527             -20.00     4200.00
03528             420.00     4200.00
03529            -260.00     3800.00
03530            -160.00     5000.00
03531             180.00     4600.00
03532            -240.00     5000.00
03533              60.00     5200.00
03534              60.00     4800.00
03535               0.00     5800.00
03536             -80.00     5200.00
03537             -60.00     5800.00
03538             140.00     6000.00
03539            -160.00     5800.00
03540             -20.00     6000.00
03541              20.00     6000.00
03542             -60.00     6600.00
03543             -80.00     6400.00
03544            -140.00     6600.00
03545               0.00     7000.00
03546             -60.00     6600.00
03547             -60.00     7000.00
03548             -60.00     7200.00
03549             -80.00     7400.00
03550            -100.00     7400.00
03551             -60.00     7600.00
03552             -40.00     7800.00
03553            -120.00     7800.00
03554             -80.00     7800.00
03555            -100.00     7800.00
03556             -80.00     8200.00
03557            -100.00     8200.00
03558             -80.00     8400.00
03559            -100.00     8400.00
03560            -160.00     8400.00
03561            -100.00     8600.00
03562            -100.00     8600.00
03563             -80.00     8600.00
03564            -160.00     8800.00
03565            -140.00     9000.00
03566            -140.00     9000.00
03567            -100.00     9000.00
03568            -100.00     9200.00
03569            -100.00     9200.00
03570            -140.00     9200.00
03571            -120.00     9200.00
03572            -140.00     9400.00
03573            -140.00     9400.00
03574            -140.00     9400.00
03575            -120.00     9600.00
03576            -100.00     9600.00
03577            -140.00     9800.00
03578            -140.00     9600.00
03579            -160.00     9800.00
03580            -160.00     9800.00
03581            -100.00     9800.00
03582            -120.00     9800.00
03583            -160.00     9800.00
03584            -140.00     9800.00
03585            -140.00     9800.00
03586            -160.00    10000.00
03587            -160.00     9800.00
03588            -160.00     9800.00
03589            -140.00     9800.00
03590            -140.00    10000.00
03591            -160.00     9800.00
03592            -160.00     9800.00
03593            -160.00     9800.00
03594            -160.00     9800.00
03595            -140.00     9800.00
03596            -140.00     9800.00
03597            -160.00     9800.00
03598            -160.00     9800.00
03599            -160.00     9600.00
03600            -140.00     9600.00
03601            -160.00     9400.00
03602            -160.00     9400.00
03603            -140.00     9400.00
03604            -160.00     9200.00
03605            -160.00     9400.00
03606            -160.00     9200.00
03607            -160.00     9200.00
03608            -160.00     9200.00
03609            -160.00     9000.00
03610            -160.00     9000.00
03611            -160.00     9000.00
03612            -160.00     8800.00
03613            -160.00     8800.00
03614            -160.00     8600.00
03615            -140.00     8600.00
03616            -160.00     8400.00
03617            -160.00     8200.00
03618            -160.00     8200.00
03619            -160.00     8200.00
03620            -160.00     8000.00
03621            -160.00     8000.00
03622            -140.00     7800.00
03623            -160.00     7800.00
03624            -160.00     7400.00
03625            -160.00     7400.00
03626            -160.00     7400.00
03627            -140.00     7000.00
03628            -140.00     7000.00
03629            -140.00     6800.00
03630            -140.00     6800.00
03631            -160.00     6600.00
03632            -140.00     6400.00
03633            -140.00     6200.00
03634            -140.00     6400.00
03635            -140.00     6000.00
03636            -100.00     6000.00
03637            -140.00     5800.00
03638            -140.00     5800.00
03639            -140.00     5600.00
03640            -140.00     5400.00
03641            -100.00     5200.00
03642            -100.00     5200.00
03643            -100.00     5000.00
03644            -120.00     4800.00
03645            -140.00     4600.00
03646            -100.00     4400.00
03647            -100.00     4200.00
03648            -100.00     4200.00
03649            -100.00     4000.00
03650            -100.00     3800.00
03651            -100.00     3800.00
03652            -100.00     3400.00
03653            -100.00     3200.00
03654            -100.00     3000.00
03655             -80.00     3000.00
03656             -80.00     2800.00
03657            -100.00     2800.00
03658            -100.00     2600.00
03659            -100.00     2200.00
03660             -80.00     2000.00
03661             -80.00     2000.00
03662             -60.00     1800.00
03663             -80.00     1400.00
03664             -80.00     1200.00
03665             -60.00     1000.00
03666             -80.00     1000.00
03667             -80.00      800.00
03668             -60.00      600.00
03669             -60.00      400.00
03670             -40.00      200.00
03671             -60.00      200.00
03672             -60.00     -200.00
03673             -20.00     -400.00
03674              60.00     -400.00
03675              60.00     -600.00
03676              60.00     -600.00
03677              20.00    -1000.00
03678               0.00    -1000.00
03679              20.00    -1200.00
03680              60.00    -1400.00
03681             300.00    -1600.00
03682             780.00    -2000.00
03683             540.00    -2200.00
03684            -260.00    -2400.00
03685            -700.00    -2600.00
03686            -800.00    -2400.00
03687            -420.00    -2400.00
03688             540.00    -3000.00
03689              80.00    -3400.00
03690            -240.00    -3000.00
03691             320.00    -3800.00
03692               0.00    -3400.00
03693              20.00    -3600.00
03694             160.00    -4200.00
03695             -80.00    -4200.00
03696             280.00    -4400.00
03697             140.00    -4400.00
03698            -160.00    -4600.00
03699               0.00    -5000.00
03700              20.00    -4600.00
03701              80.00    -5200.00
03702              20.00    -5400.00
03703              80.00    -5400.00
03704              20.00    -5800.00
03705               0.00    -5600.00
03706             180.00    -6000.00
03707              60.00    -5800.00
03708              20.00    -6200.00
03709             100.00    -6200.00
03710             100.00    -6200.00
03711              60.00    -6600.00
03712               0.00    -6800.00
03713             100.00    -6800.00
03714             140.00    -7000.00
03715              60.00    -7000.00
03716              80.00    -7400.00
03717             100.00    -7200.00
03718              80.00    -7600.00
03719             100.00    -7600.00
03720             100.00    -7600.00
03721              80.00    -7800.00
03722              80.00    -7800.00
03723             140.00    -8200.00
03724             140.00    -8200.00
03725              80.00    -8400.00
03726             140.00    -8400.00
03727             140.00    -8400.00
03728              80.00    -8600.00
03729             100.00    -8600.00
03730             140.00    -8600.00
03731             140.00    -8800.00
03732             100.00    -9000.00
03733             100.00    -9000.00
03734             120.00    -9000.00
03735             140.00    -9200.00
03736             140.00    -9200.00
03737             160.00    -9000.00
03738             120.00    -9200.00
03739             100.00    -9400.00
03740             140.00    -9200.00
03741             100.00    -9600.00
03742             100.00    -9400.00
03743             160.00    -9400.00
03744             160.00    -9800.00
03745             140.00    -9800.00
03746             140.00    -9800.00
03747             140.00    -9600.00
03748             140.00    -9800.00
03749             160.00    -9800.00
03750             140.00    -9800.00
03751             160.00    -9800.00
03752             140.00    -9800.00
03753             140.00    -9800.00
03754             160.00    -9800.00
03755             140.00    -9800.00
03756             140.00    -9800.00
03757             160.00    -9600.00
03758             160.00    -9800.00
03759             140.00    -9800.00
03760             160.00    -9800.00
03761             140.00    -9800.00
03762             140.00    -9800.00
03763             160.00    -9600.00
03764             160.00    -9800.00
03765             160.00    -9600.00
03766             160.00    -9400.00
03767             160.00    -9400.00
03768             160.00    -9400.00
03769             160.00    -9400.00
03770             180.00    -9400.00
03771             180.00    -9400.00
03772             160.00    -9400.00
03773             140.00    -9400.00
03774             140.00    -9200.00
03775             160.00    -9000.00
03776             160.00    -9000.00
03777             160.00    -9000.00
03778             160.00    -8800.00
03779             160.00    -9000.00
03780             160.00    -8800.00
03781             160.00    -8600.00
03782             160.00    -8600.00
03783             160.00    -8600.00
03784             160.00    -8400.00
03785             140.00    -8200.00
03786             140.00    -8200.00
03787             160.00    -8200.00
03788             160.00    -7800.00
03789             160.00    -7800.00
03790             160.00    -7600.00
03791             140.00    -7600.00
03792             140.00    -7400.00
03793             140.00    -7200.00
03794             140.00    -7200.00
03795             140.00    -7200.00
03796             160.00    -7000.00
03797             160.00    -6800.00
03798             140.00    -6800.00
03799             140.00    -6600.00
03800             140.00    -6600.00
03801             140.00    -6200.00
03802             140.00    -6200.00
03803             140.00    -6200.00
03804             140.00    -6000.00
03805             140.00    -5800.00
03806             100.00    -5600.00
03807             140.00    -5400.00
03808             100.00    -5200.00
03809             140.00    -5200.00
03810             100.00    -5000.00
03811             100.00    -4800.00
03812             100.00    -4600.00
03813             100.00    -4600.00
03814             100.00    -4400.00
03815             100.00    -4200.00
03816             100.00    -4000.00
03817             100.00    -3800.00
03818              80.00    -3800.00
03819              80.00    -3600.00
03820              80.00    -3400.00
03821              80.00    -3000.00
03822              80.00    -3000.00
03823              80.00    -2800.00
03824              80.00    -2600.00
03825              80.00    -2600.00
03826              60.00    -2200.00
03827              80.00    -2200.00
03828              80.00    -2000.00
03829              80.00    -1800.00
03830              60.00    -1400.00
03831              80.00    -1200.00
03832              60.00    -1200.00
03833              60.00    -1000.00
03834              60.00     -800.00
03835              60.00     -600.00
03836              80.00     -400.00
03837              60.00     -400.00
03838              60.00     -200.00
03839              60.00      200.00
03840              60.00      400.00
03841             100.00      200.00
03842             160.00      800.00
03843             140.00      800.00
03844             140.00     1000.00
03845             100.00     1000.00
03846             100.00     1200.00
03847             140.00     1400.00
03848             560.00     1800.00
03849            1020.00     2000.00
03850             380.00     2000.00
03851            -620.00     2200.00
03852           -1060.00     2200.00
03853            -860.00     2600.00
03854             580.00     3000.00
03855             560.00     2800.00
03856            -460.00     3000.00
03857             240.00     3000.00
03858             160.00     3200.00
03859            -260.00     4200.00
03860             140.00     3400.00
03861            -100.00     3800.00
03862             280.00     4600.00
03863             160.00     3800.00
03864            -400.00     4600.00
03865             160.00     4800.00
03866             -60.00     4600.00
03867            -140.00     5200.00
03868             140.00     4600.00
03869             -20.00     5400.00
03870             -20.00     5400.00
03871            -160.00     5200.00
03872              80.00     6000.00
03873             -20.00     5600.00
03874            -160.00     6000.00
03875              60.00     6200.00
03876             -60.00     6200.00
03877             -40.00     6600.00
03878            -140.00     6400.00
03879             -40.00     7000.00
03880               0.00     6800.00
03881             -80.00     6800.00
03882             -20.00     7200.00
03883             -60.00     7400.00
03884            -100.00     7400.00
03885            -100.00     7400.00
03886             -20.00     7600.00
03887            -100.00     7800.00
03888            -100.00     7800.00
03889             -80.00     7800.00
03890            -100.00     8200.00
03891             -80.00     8200.00
03892             -80.00     8200.00
03893             -80.00     8200.00
03894            -160.00     8400.00
03895            -100.00     8600.00
03896             -80.00     8600.00
03897            -100.00     8600.00
03898            -100.00     8800.00
03899            -100.00     9000.00
03900            -120.00     9000.00
03901            -100.00     9200.00
03902             -80.00     9200.00
03903            -100.00     9200.00
03904            -120.00     9200.00
03905            -140.00     9200.00
03906            -140.00     9400.00
03907            -140.00     9200.00
03908            -140.00     9400.00
03909            -100.00     9400.00
03910            -140.00     9600.00
03911            -120.00     9600.00
03912            -140.00     9600.00
03913            -140.00     9600.00
03914            -160.00     9600.00
03915            -140.00     9800.00
03916            -100.00     9800.00
03917            -140.00     9800.00
03918            -160.00     9800.00
03919            -140.00     9800.00
03920            -160.00     9800.00
03921            -160.00     9800.00
03922            -160.00     9800.00
03923            -140.00     9800.00
03924            -140.00     9800.00
03925            -160.00     9800.00
03926            -140.00     9800.00
03927            -160.00    10000.00
03928            -160.00     9800.00
03929            -140.00     9600.00
03930            -140.00     9800.00
03931            -160.00     9800.00
03932            -160.00     9400.00
03933            -160.00     9600.00
03934            -160.00     9400.00
03935            -160.00     9400.00
03936            -160.00     9400.00
03937            -160.00     9400.00
03938            -160.00     9400.00
03939            -160.00     9200.00
03940            -160.00     9200.00
03941            -160.00     9200.00
03942            -160.00     9000.00
03943            -160.00     9000.00
03944            -160.00     9000.00
03945            -160.00     8800.00
03946            -160.00     8800.00
03947            -160.00     8600.00
03948            -160.00     8600.00
03949            -160.00     8600.00
03950            -140.00     8400.00
03951            -160.00     8200.00
03952            -160.00     8200.00
03953            -160.00     8200.00
03954            -160.00     8000.00
03955            -160.00     7800.00
03956            -160.00     7800.00
03957            -160.00     7600.00
03958            -160.00     7800.00
03959            -160.00     7400.00
03960            -160.00     7400.00
03961            -160.00     7200.00
03962            -140.00     7000.00
03963            -140.00     7000.00
03964            -140.00     6800.00
03965            -160.00     6800.00
03966            -160.00     6600.00
03967            -160.00     6600.00
03968            -140.00     6400.00
03969            -140.00     6200.00
03970            -140.00     6000.00
03971            -140.00     6000.00
03972            -140.00     5800.00
03973            -160.00     5600.00
03974            -140.00     5400.00
03975            -140.00     5200.00
03976            -120.00     5200.00
03977            -100.00     5000.00
03978            -140.00     4600.00
03979            -100.00     4600.00
03980            -140.00     4600.00
03981            -100.00     4200.00
03982            -120.00     4200.00
03983            -100.00     4200.00
03984             -80.00     3800.00
03985            -100.00     3800.00
03986            -100.00     3400.00
03987            -100.00     3400.00
03988            -100.00     3200.00
03989             -80.00     3000.00
03990             -80.00     2800.00
03991            -100.00     2600.00
03992            -100.00     2600.00
03993            -100.00     2200.00
03994            -100.00     2000.00
03995             -80.00     1800.00
03996             -80.00     1800.00
03997             -60.00     1600.00
03998             -80.00     1400.00
03999             -80.00     1200.00
04000             -80.00     1000.00
04001             -80.00      800.00
04002             -80.00      600.00
04003             -80.00      400.00
04004             -60.00      200.00
04005             -60.00      200.00
04006             -60.00        0.00
04007             -20.00     -200.00
04008               0.00     -400.00
04009              60.00     -600.00
04010              60.00     -800.00
04011              20.00    -1000.00
04012              20.00    -1000.00
04013              20.00    -1200.00
04014              20.00    -1200.00
04015             140.00    -1600.00
04016             560.00    -1800.00
04017             780.00    -2200.00
04018             120.00    -2200.00
04019            -580.00    -2600.00
04020            -760.00    -2600.00
04021            -740.00    -2400.00
04022             140.00    -2600.00
04023             480.00    -3400.00
04024            -260.00    -3000.00
04025             120.00    -3400.00
04026             220.00    -3600.00
04027            -100.00    -3400.00
04028             220.00    -4200.00
04029             -20.00    -3800.00
04030              80.00    -4200.00
04031             320.00    -4400.00
04032            -100.00    -4200.00
04033            -100.00    -5000.00
04034              20.00    -4800.00
04035              60.00    -5000.00
04036              60.00    -5400.00
04037              60.00    -5200.00
04038              60.00    -5600.00
04039             -20.00    -5800.00
04040             100.00    -6000.00
04041             140.00    -6000.00
04042               0.00    -6000.00
04043              80.00    -6400.00
04044             100.00    -6200.00
04045              80.00    -6600.00
04046              20.00    -6800.00
04047              60.00    -6800.00
04048             160.00    -6800.00
04049             100.00    -7000.00
04050              60.00    -7200.00
04051             100.00    -7200.00
04052              80.00    -7400.00
04053              80.00    -7600.00
04054             120.00    -7600.00
04055             100.00    -7800.00
04056              60.00    -8000.00
04057             100.00    -8000.00
04058             140.00    -8000.00
04059             100.00    -8200.00
04060             100.00    -8400.00
04061             140.00    -8400.00
04062             100.00    -8600.00
04063             100.00    -8600.00
04064             140.00    -8800.00
04065             140.00    -8800.00
04066             100.00    -9000.00
04067             100.00    -9000.00
04068             100.00    -9000.00
04069              80.00    -9200.00
04070             120.00    -9200.00
04071             160.00    -9200.00
04072             140.00    -9200.00
04073             120.00    -9400.00
04074             120.00    -9400.00
04075             100.00    -9400.00
04076             140.00    -9400.00
04077             140.00    -9600.00
04078             160.00    -9400.00
04079             140.00    -9600.00
04080             140.00    -9800.00
04081             140.00    -9800.00
04082             140.00    -9800.00
04083             140.00    -9800.00
04084             160.00    -9800.00
04085             160.00    -9800.00
04086             140.00    -9800.00
04087             140.00    -9800.00
04088             160.00    -9800.00
04089             140.00    -9800.00
04090             140.00    -9800.00
04091             160.00    -9800.00
04092             160.00    -9800.00
04093             160.00    -9800.00
04094             140.00    -9800.00
04095             140.00    -9800.00
04096             140.00    -9800.00
04097             160.00    -9600.00
04098             160.00    -9800.00
04099             160.00    -9800.00
04100             140.00    -9800.00
04101             160.00    -9800.00
04102             160.00    -9400.00
04103             160.00    -9400.00
04104             160.00    -9400.00
04105             160.00    -9400.00
04106             160.00    -9400.00
04107             160.00    -9200.00
04108             160.00    -9200.00
04109             160.00    -9200.00
04110             160.00    -9000.00
04111             180.00    -9000.00
04112             160.00    -9000.00
04113             160.00    -8600.00
04114             160.00    -8800.00
04115             160.00    -8800.00
04116             160.00    -8600.00
04117             160.00    -8400.00
04118             160.00    -8400.00
04119             160.00    -8400.00
04120             160.00    -8200.00
04121             140.00    -8200.00
04122             160.00    -7800.00
04123             160.00    -7800.00
04124             160.00    -7600.00
04125             160.00    -7600.00
04126             160.00    -7600.00
04127             160.00    -7400.00
04128             140.00    -7200.00
04129             140.00    -7200.00
04130             140.00    -7000.00
04131             140.00    -6800.00
04132             140.00    -6800.00
04133             140.00    -6600.00
04134             140.00    -6600.00
04135             120.00    -6600.00
04136             140.00    -6200.00
04137             140.00    -6200.00
04138             140.00    -6000.00
04139             140.00    -5800.00
04140             100.00    -5800.00
04141             120.00    -5600.00
04142             100.00    -5400.00
04143             140.00    -5200.00
04144             100.00    -5200.00
04145             140.00    -5000.00
04146             100.00    -4800.00
04147             100.00    -4600.00
04148              80.00    -4600.00
04149             100.00    -4400.00
04150             100.00    -4200.00
04151             100.00    -3800.00
04152             100.00    -3800.00
04153             100.00    -3600.00
04154              80.00    -3400.00
04155              80.00    -3200.00
04156              80.00    -3000.00
04157              80.00    -2800.00
04158              80.00    -2800.00
04159              80.00    -2600.00
04160              80.00    -2200.00
04161              80.00    -2200.00
04162              80.00    -2000.00
04163              80.00    -1800.00
04164              60.00    -1800.00
04165             100.00    -1400.00
04166              20.00    -1200.00
04167               0.00    -1000.00
04168             -20.00     -800.00
04169              60.00     -600.00
04170             100.00     -600.00
04171             120.00     -400.00
04172             160.00     -200.00
04173             100.00      200.00
04174              80.00      200.00
04175              20.00      400.00
04176              60.00      600.00
04177              80.00      600.00
04178             140.00     1000.00
04179             140.00     1000.00
04180             140.00     1200.00
04181             160.00     1400.00
04182             340.00     1600.00
04183             900.00     2000.00
04184             780.00     1800.00
04185            -180.00     2200.00
04186            -960.00     2000.00
04187           -1160.00     2200.00
04188            -160.00     3000.00
04189             900.00     2800.00
04190            -160.00     2800.00
04191            -160.00     3400.00
04192             460.00     3000.00
04193            -180.00     3800.00
04194               0.00     3800.00
04195               0.00     3200.00
04196             -20.00     4400.00
04197             380.00     4000.00
04198            -340.00     3800.00
04199            -160.00     5000.00
04200             180.00     4600.00
04201            -220.00     5000.00
04202             100.00     5000.00
04203              80.00     5000.00
04204               0.00     5800.00
04205            -100.00     5200.00
04206             -80.00     5800.00
04207              80.00     5800.00
04208            -220.00     5800.00
04209             -40.00     6200.00
04210              20.00     6000.00
04211             -20.00     6600.00
04212             -60.00     6200.00
04213            -100.00     6600.00
04214              20.00     6800.00
04215             -80.00     6600.00
04216            -100.00     7000.00
04217            -100.00     7000.00
04218             -80.00     7400.00
04219            -100.00     7400.00
04220             -40.00     7400.00
04221             -20.00     7600.00
04222            -100.00     7600.00
04223             -80.00     7800.00
04224            -100.00     8000.00
04225             -80.00     8200.00
04226            -100.00     8200.00
04227             -80.00     8400.00
04228            -100.00     8600.00
04229            -140.00     8400.00
04230             -80.00     8600.00
04231             -80.00     8600.00
04232             -80.00     8800.00
04233            -100.00     8800.00
04234            -140.00     9000.00
04235            -140.00     9000.00
04236            -100.00     9200.00
04237            -100.00     9200.00
04238            -100.00     9200.00
04239            -120.00     9200.00
04240            -100.00     9400.00
04241            -100.00     9400.00
04242            -140.00     9400.00
04243            -140.00     9400.00
04244            -120.00     9400.00
04245            -140.00     9600.00
04246            -140.00     9600.00
04247            -140.00     9800.00
04248            -160.00     9800.00
04249            -140.00     9600.00
04250            -100.00     9800.00
04251            -100.00     9800.00
04252            -160.00     9800.00
04253            -160.00     9800.00
04254            -160.00     9800.00
04255            -160.00     9800.00
04256            -160.00     9800.00
04257            -160.00     9800.00
04258            -140.00     9800.00
04259            -140.00     9800.00
04260            -140.00     9800.00
04261            -140.00     9800.00
04262            -180.00     9800.00
04263            -160.00     9800.00
04264            -140.00     9800.00
04265            -160.00     9600.00
04266            -160.00     9400.00
04267            -160.00     9600.00
04268            -160.00     9600.00
04269            -160.00     9400.00
04270            -160.00     9400.00
04271            -160.00     9400.00
04272            -160.00     9400.00
04273            -180.00     9200.00
04274            -160.00     9400.00
04275            -180.00     9200.00
04276            -160.00     9200.00
04277            -160.00     9200.00
04278            -160.00     9000.00
04279            -160.00     9000.00
04280            -160.00     9000.00
04281            -180.00     8600.00
04282            -160.00     8800.00
04283            -160.00     8600.00
04284            -160.00     8400.00
04285            -160.00     8400.00
04286            -160.00     8200.00
04287            -160.00     8200.00
04288            -160.00     8200.00
04289            -140.00     8200.00
04290            -160.00     7800.00
04291            -140.00     7800.00
04292            -160.00     7800.00
04293            -160.00     7600.00
04294            -160.00     7600.00
04295            -160.00     7400.00
04296            -160.00     7400.00
04297            -140.00     7000.00
04298            -140.00     7000.00
04299            -140.00     6800.00
04300            -140.00     6600.00
04301            -140.00     6600.00
04302            -140.00     6400.00
04303            -160.00     6200.00
04304            -140.00     6200.00
04305            -140.00     6000.00
04306            -140.00     5800.00
04307            -140.00     5800.00
04308            -140.00     5600.00
04309            -140.00     5400.00
04310            -120.00     5200.00
04311            -100.00     5000.00
04312            -100.00     5000.00
04313            -140.00     4800.00
04314            -140.00     4600.00
04315            -120.00     4400.00
04316            -100.00     4400.00
04317            -100.00     4200.00
04318            -100.00     3800.00
04319            -100.00     3800.00
04320            -100.00     3400.00
04321            -100.00     3600.00
04322            -100.00     3400.00
04323            -100.00     3200.00
04324            -100.00     3000.00
04325             -80.00     2800.00
04326            -100.00     2600.00
04327            -100.00     2400.00
04328            -100.00     2200.00
04329            -100.00     2000.00
04330             -80.00     1800.00
04331             -80.00     1800.00
04332             -80.00     1400.00
04333             -80.00     1400.00
04334             -80.00     1200.00
04335             -80.00     1000.00
04336             -80.00      800.00
04337             -80.00      400.00
04338             -60.00      400.00
04339             -60.00      200.00
04340             -60.00        0.00
04341             -40.00     -200.00
04342             -20.00     -400.00
04343              40.00     -600.00
04344              80.00     -600.00
04345              60.00    -1000.00
04346              20.00    -1000.00
04347              20.00    -1000.00
04348              20.00    -1200.00
04349              60.00    -1400.00
04350             320.00    -1600.00
04351             780.00    -2000.00
04352             480.00    -2200.00
04353            -320.00    -2400.00
04354            -720.00    -2600.00
04355            -800.00    -2600.00
04356            -340.00    -2400.00
04357             540.00    -3000.00
04358              40.00    -3000.00
04359            -180.00    -3000.00
04360             320.00    -3800.00
04361             -20.00    -3400.00
04362              60.00    -3600.00
04363             140.00    -4200.00
04364             -80.00    -4000.00
04365             300.00    -4400.00
04366             100.00    -4400.00
04367            -180.00    -4600.00
04368              20.00    -5000.00
04369              60.00    -4600.00
04370              80.00    -5400.00
04371              20.00    -5200.00
04372              80.00    -5400.00
04373              20.00    -5800.00
04374              20.00    -5800.00
04375             180.00    -6000.00
04376              20.00    -5800.00
04377              20.00    -6200.00
04378              80.00    -6400.00
04379             100.00    -6200.00
04380              60.00    -6600.00
04381               0.00    -6800.00
04382             100.00    -6800.00
04383             140.00    -6800.00
04384              60.00    -7000.00
04385              80.00    -7200.00
04386             100.00    -7400.00
04387              80.00    -7600.00
04388             100.00    -7600.00
04389             120.00    -7600.00
04390              60.00    -7800.00
04391              60.00    -8200.00
04392             100.00    -8200.00
04393             120.00    -8200.00
04394              80.00    -8400.00
04395             100.00    -8400.00
04396             100.00    -8400.00
04397              80.00    -8600.00
04398             100.00    -8600.00
04399             140.00    -8600.00
04400             120.00    -9000.00
04401              80.00    -9000.00
04402             100.00    -9000.00
04403             120.00    -9200.00
04404             100.00    -9200.00
04405             160.00    -9200.00
04406             140.00    -9000.00
04407             100.00    -9400.00
04408             100.00    -9400.00
04409             120.00    -9400.00
04410             120.00    -9400.00
04411             100.00    -9400.00
04412             160.00    -9400.00
04413             140.00    -9600.00
04414             140.00    -9600.00
04415             140.00    -9800.00
04416             140.00    -9600.00
04417             100.00    -9800.00
04418             160.00    -9800.00
04419             140.00    -9800.00
04420             160.00    -9800.00
04421             140.00    -9800.00
04422             140.00    -9800.00
04423             140.00    -9800.00
04424             140.00    -9800.00
04425             160.00    -9800.00
04426             160.00    -9800.00
04427             140.00    -9800.00
04428             140.00    -9800.00
04429             160.00    -9800.00
04430             160.00    -9800.00
04431             160.00    -9600.00
04432             160.00    -9800.00
04433             160.00    -9600.00
04434             160.00    -9600.00
04435             140.00    -9800.00
04436             160.00    -9400.00
04437             160.00    -9400.00
04438             160.00    -9400.00
04439             160.00    -9400.00
04440             180.00    -9400.00
04441             160.00    -9200.00
04442             160.00    -9200.00
04443             160.00    -9200.00
04444             160.00    -9000.00
04445             180.00    -9000.00
04446             180.00    -9000.00
04447             160.00    -8800.00
04448             160.00    -9000.00
04449             160.00    -8800.00
04450             160.00    -8600.00
04451             160.00    -8400.00
04452             160.00    -8600.00
04453             160.00    -8400.00
04454             160.00    -8200.00
04455             160.00    -8200.00
04456             160.00    -8200.00
04457             140.00    -7800.00
04458             160.00    -7800.00
04459             160.00    -7800.00
04460             160.00    -7600.00
04461             140.00    -7600.00
04462             140.00    -7400.00
04463             140.00    -7200.00
04464             140.00    -7000.00
04465             160.00    -7000.00
04466             140.00    -6800.00
04467             140.00    -6800.00
04468             120.00    -6600.00
04469             120.00    -6400.00
04470             140.00    -6600.00
04471             120.00    -6200.00
04472             140.00    -6000.00
04473             140.00    -5800.00
04474             120.00    -5800.00
04475             140.00    -5800.00
04476             100.00    -5400.00
04477             100.00    -5400.00
04478             140.00    -5200.00
04479             100.00    -5000.00
04480             100.00    -5000.00
04481             100.00    -4600.00
04482             100.00    -4600.00
04483              80.00    -4400.00
04484             100.00    -4200.00
04485             100.00    -4000.00
04486             100.00    -3800.00
04487              80.00    -3600.00
04488              80.00    -3400.00
04489              80.00    -3400.00
04490              80.00    -3200.00
04491             100.00    -3000.00
04492              80.00    -2800.00
04493             100.00    -2600.00
04494              80.00    -2600.00
04495              80.00    -2400.00
04496              80.00    -2200.00
04497              80.00    -1800.00
04498              80.00    -1800.00
04499              80.00    -1400.00
04500              80.00    -1200.00
04501              80.00    -1200.00
04502              60.00    -1000.00
04503              60.00     -600.00
04504              80.00     -600.00
04505              60.00     -400.00
04506              60.00     -200.00
04507              60.00     -200.00
04508              60.00      200.00
04509              60.00      400.00
04510             140.00      400.00
04511             160.00      600.00
04512             160.00      800.00
04513             100.00     1000.00
04514              80.00     1000.00
04515             100.00     1200.00
04516             160.00     1400.00
04517             580.00     1800.00
04518             980.00     2000.00
04519             320.00     2000.00
04520            -660.00     2200.00
04521           -1080.00     2200.00
04522            -800.00     2600.00
04523             640.00     3000.00
04524             460.00     2800.00
04525            -460.00     3000.00
04526             300.00     3000.00
04527             100.00     3400.00
04528            -260.00     4000.00
04529             160.00     3600.00
04530            -100.00     3800.00
04531             320.00     4600.00
04532              80.00     4000.00
04533            -400.00     4600.00
04534             180.00     4600.00
04535            -100.00     4600.00
04536            -120.00     5200.00
04537             120.00     4800.00
04538             -20.00     5400.00
04539             -20.00     5600.00
04540            -140.00     5400.00
04541             100.00     6000.00
04542             -40.00     5600.00
04543            -140.00     6000.00
04544              20.00     6200.00
04545             -60.00     6200.00
04546             -60.00     6600.00
04547            -160.00     6200.00
04548             -20.00     7000.00
04549               0.00     6800.00
04550             -80.00     7000.00
04551             -60.00     7200.00
04552             -80.00     7000.00
04553             -80.00     7400.00
04554            -100.00     7400.00
04555             -20.00     7600.00
04556            -100.00     7600.00
04557            -100.00     7800.00
04558            -100.00     7800.00
04559             -80.00     8000.00
04560             -80.00     8200.00
04561             -80.00     8400.00
04562             -80.00     8400.00
04563            -140.00     8400.00
04564            -100.00     8600.00
04565             -80.00     8600.00
04566             -80.00     8600.00
04567            -100.00     9000.00
04568            -120.00     8800.00
04569            -120.00     9000.00
04570            -100.00     9200.00
04571            -100.00     9200.00
04572            -100.00     9200.00
04573            -100.00     9200.00
04574            -140.00     9200.00
04575            -120.00     9400.00
04576            -140.00     9400.00
04577            -140.00     9400.00
04578            -140.00     9400.00
04579            -140.00     9400.00
04580            -100.00     9600.00
04581            -140.00     9600.00
04582            -160.00     9800.00
04583            -160.00     9600.00
04584            -140.00     9800.00
04585            -120.00     9800.00
04586            -140.00     9800.00
04587            -160.00     9800.00
04588            -160.00     9800.00
04589            -160.00     9800.00
04590            -160.00     9800.00
04591            -140.00     9800.00
04592            -140.00     9800.00
04593            -160.00     9800.00
04594            -160.00     9800.00
04595            -160.00     9800.00
04596            -180.00     9800.00
04597            -160.00     9800.00
04598            -140.00     9800.00
04599            -160.00     9800.00
04600            -160.00     9800.00
04601            -160.00     9600.00
04602            -160.00     9600.00
04603            -160.00     9400.00
04604            -160.00     9400.00
04605            -160.00     9400.00
04606            -160.00     9400.00
04607            -160.00     9400.00
04608            -160.00     9200.00
04609            -160.00     9200.00
04610            -180.00     9200.00
04611            -160.00     9200.00
04612            -160.00     9200.00
04613            -140.00     9000.00
04614            -160.00     8800.00
04615            -160.00     8600.00
04616            -160.00     8600.00
04617            -160.00     8600.00
04618            -140.00     8600.00
04619            -140.00     8600.00
04620            -160.00     8400.00
04621            -160.00     8200.00
04622            -160.00     8200.00
04623            -160.00     8200.00
04624            -160.00     8000.00
04625            -160.00     7800.00
04626            -140.00     7800.00
04627            -140.00     7800.00
04628            -160.00     7600.00
04629            -160.00     7400.00
04630            -160.00     7400.00
04631            -140.00     7000.00
04632            -140.00     7000.00
04633            -160.00     6800.00
04634            -140.00     6800.00
04635            -140.00     6600.00
04636            -140.00     6600.00
04637            -140.00     6200.00
04638            -120.00     6200.00
04639            -140.00     6200.00
04640            -140.00     6000.00
04641            -140.00     5800.00
04642            -140.00     5800.00
04643            -140.00     5400.00
04644            -120.00     5400.00
04645            -100.00     5000.00
04646            -120.00     5000.00
04647            -100.00     5000.00
04648            -140.00     4600.00
04649            -100.00     4600.00
04650            -100.00     4400.00
04651            -100.00     4200.00
04652            -100.00     4000.00
04653            -100.00     3800.00
04654            -100.00     3600.00
04655            -100.00     3400.00
04656            -100.00     3400.00
04657            -100.00     3200.00
04658            -100.00     3000.00
04659            -100.00     2800.00
04660            -100.00     2600.00
04661            -100.00     2600.00
04662            -120.00     2200.00
04663            -100.00     2000.00
04664             -80.00     2000.00
04665             -80.00     1800.00
04666            -100.00     1600.00
04667             -80.00     1200.00
04668             -80.00     1200.00
04669             -80.00     1000.00
04670             -80.00      600.00
04671             -60.00      600.00
04672             -60.00      400.00
04673             -60.00      400.00
04674             -60.00      200.00
04675             -60.00        0.00
04676             -60.00     -200.00
04677               0.00     -400.00
04678              60.00     -600.00
04679              60.00     -800.00
04680              20.00    -1000.00
04681              20.00    -1000.00
04682              20.00    -1200.00
04683              40.00    -1400.00
04684             160.00    -1600.00
04685             600.00    -1800.00
04686             740.00    -2200.00
04687              60.00    -2200.00
04688            -620.00    -2600.00
04689            -740.00    -2600.00
04690            -720.00    -2200.00
04691             220.00    -2600.00
04692             460.00    -3400.00
04693            -300.00    -3000.00
04694             160.00    -3400.00
04695             200.00    -3600.00
04696            -100.00    -3400.00
04697             220.00    -4000.00
04698             -60.00    -3800.00
04699             120.00    -4200.00
04700             300.00    -4600.00
04701            -120.00    -4400.00
04702             -60.00    -5000.00
04703              20.00    -4800.00
04704              80.00    -5000.00
04705              60.00    -5400.00
04706              60.00    -5200.00
04707              60.00    -5600.00
04708               0.00    -5600.00
04709             140.00    -5800.00
04710             140.00    -5800.00
04711               0.00    -6000.00
04712              80.00    -6400.00
04713             100.00    -6200.00
04714              80.00    -6600.00
04715               0.00    -6800.00
04716              60.00    -6600.00
04717             160.00    -7000.00
04718              80.00    -7000.00
04719              60.00    -7400.00
04720             100.00    -7200.00
04721             100.00    -7400.00
04722              80.00    -7600.00
04723             100.00    -7600.00
04724              80.00    -7800.00
04725              60.00    -8000.00
04726             100.00    -8200.00
04727             140.00    -8200.00
04728             100.00    -8200.00
04729             100.00    -8600.00
04730             140.00    -8400.00
04731             100.00    -8600.00
04732              80.00    -8600.00
04733             100.00    -8600.00
04734             140.00    -8600.00
04735             100.00    -9000.00
04736             100.00    -9000.00
04737             120.00    -9000.00
04738              80.00    -9200.00
04739             120.00    -9200.00
04740             160.00    -9200.00
04741             140.00    -9200.00
04742             100.00    -9400.00
04743             120.00    -9400.00
04744             140.00    -9400.00
04745             140.00    -9400.00
04746             140.00    -9400.00
04747             160.00    -9600.00
04748             140.00    -9800.00
04749             140.00    -9800.00
04750             140.00    -9600.00
04751             120.00    -9600.00
04752             160.00    -9800.00
04753             160.00    -9800.00
04754             140.00   -10000.00
04755             140.00    -9800.00
04756             160.00    -9800.00
04757             140.00    -9800.00
04758             140.00    -9800.00
04759             140.00    -9800.00
04760             160.00    -9800.00
04761             160.00    -9800.00
04762             160.00    -9800.00
04763             160.00    -9800.00
04764             160.00    -9600.00
04765             160.00    -9800.00
04766             160.00    -9800.00
04767             160.00    -9800.00
04768             160.00    -9600.00
04769             140.00    -9600.00
04770             160.00    -9600.00
04771             160.00    -9400.00
04772             160.00    -9400.00
04773             160.00    -9400.00
04774             180.00    -9400.00
04775             160.00    -9400.00
04776             160.00    -9400.00
04777             160.00    -9200.00
04778             160.00    -9200.00
04779             160.00    -9200.00
04780             160.00    -9000.00
04781             160.00    -9000.00
04782             140.00    -9000.00
04783             140.00    -8800.00
04784             140.00    -8600.00
04785             160.00    -8600.00
04786             160.00    -8600.00
04787             160.00    -8400.00
04788             160.00    -8400.00
04789             140.00    -8200.00
04790             160.00    -8200.00
04791             140.00    -8000.00
04792             160.00    -8000.00
04793             160.00    -7800.00
04794             160.00    -7600.00
04795             140.00    -7600.00
04796             140.00    -7400.00
04797             140.00    -7200.00
04798             140.00    -7000.00
04799             140.00    -7000.00
04800             160.00    -7000.00
04801             140.00    -6800.00
04802             140.00    -6800.00
04803             140.00    -6600.00
04804             140.00    -6400.00
04805             140.00    -6400.00
04806             140.00    -6000.00
04807             140.00    -6000.00
04808             140.00    -5800.00
04809             100.00    -5600.00
04810             140.00    -5400.00
04811             120.00    -5200.00
04812             140.00    -5400.00
04813             120.00    -5000.00
04814             140.00    -5000.00
04815             100.00    -4600.00
04816             100.00    -4600.00
04817             100.00    -4400.00
04818             120.00    -4200.00
04819             100.00    -4200.00
04820             100.00    -3800.00
04821             100.00    -3600.00
04822              80.00    -3600.00
04823             100.00    -3400.00
04824              80.00    -3200.00
04825              80.00    -3000.00
04826             100.00    -2800.00
04827             100.00    -2600.00
04828              80.00    -2400.00
04829              80.00    -2200.00
04830              80.00    -2200.00
04831              80.00    -2200.00
04832              80.00    -1800.00
04833              80.00    -1600.00
04834              60.00    -1400.00
04835              80.00    -1200.00
04836              60.00    -1000.00
04837              80.00    -1000.00
04838              60.00     -800.00
04839              80.00     -600.00
04840              60.00     -200.00
04841              60.00     -200.00
04842              60.00        0.00
04843              60.00      200.00
04844              80.00      400.00
04845             160.00      600.00
04846             160.00      800.00
04847             140.00     1000.00
04848             100.00     1000.00
04849              80.00     1200.00
04850             100.00     1200.00
04851             300.00     1600.00
04852             900.00     1800.00
04853             720.00     2000.00
04854            -260.00     2200.00
04855            -960.00     2000.00
04856           -1120.00     2200.00
04857             -40.00     3000.00
04858             880.00     3000.00
04859            -240.00     2800.00
04860            -100.00     3400.00
04861             380.00     3000.00
04862            -260.00     3800.00
04863              20.00     3800.00
04864               0.00     3400.00
04865              40.00     4400.00
04866             380.00     4000.00
04867            -320.00     4200.00
04868             -80.00     5000.00
04869             140.00     4400.00
04870            -240.00     5000.00
04871              80.00     4800.00
04872              20.00     5000.00
04873               0.00     5800.00
04874            -100.00     5200.00
04875             -20.00     5800.00
04876             100.00     5800.00
04877            -160.00     5800.00
04878               0.00     6200.00
04879               0.00     6000.00
04880             -20.00     6600.00
04881            -100.00     6600.00
04882            -120.00     6600.00
04883              20.00     7000.00
04884             -60.00     6600.00
04885             -60.00     7000.00
04886             -60.00     7000.00
04887             -80.00     7400.00
04888            -100.00     7400.00
04889             -60.00     7400.00
04890             -20.00     7800.00
04891            -100.00     7600.00
04892             -80.00     7800.00
04893            -100.00     8000.00
04894             -80.00     8200.00
04895             -80.00     8200.00
04896             -60.00     8400.00
04897            -100.00     8400.00
04898            -140.00     8400.00
04899             -80.00     8600.00
04900            -100.00     8600.00
04901            -100.00     8800.00
04902            -120.00     9000.00
04903            -140.00     9000.00
04904            -120.00     9000.00
04905            -100.00     9200.00
04906             -80.00     9200.00
04907            -100.00     9200.00
04908            -100.00     9000.00
04909            -100.00     9400.00
04910            -140.00     9400.00
04911            -140.00     9400.00
04912            -140.00     9400.00
04913            -140.00     9400.00
04914            -120.00     9600.00
04915            -140.00     9800.00
04916            -140.00     9800.00
04917            -160.00     9800.00
04918            -160.00     9800.00
04919            -120.00     9800.00
04920            -140.00     9800.00
04921            -160.00     9800.00
04922            -140.00     9800.00
04923            -160.00     9800.00
04924            -160.00     9800.00
04925            -160.00     9800.00
04926            -160.00     9800.00
04927            -140.00     9800.00
04928            -160.00     9800.00
04929            -140.00     9800.00
04930            -160.00     9800.00
04931            -180.00     9800.00
04932            -160.00     9800.00
04933            -160.00     9800.00
04934            -140.00     9800.00
04935            -160.00     9600.00
04936            -160.00     9800.00
04937            -160.00     9600.00
04938            -160.00     9400.00
04939            -160.00     9400.00
04940            -160.00     9400.00
04941            -160.00     9400.00
04942            -160.00     9200.00
04943            -160.00     9400.00
04944            -160.00     9200.00
04945            -160.00     9200.00
04946            -160.00     9000.00
04947            -140.00     9000.00
04948            -160.00     9000.00
04949            -160.00     8800.00
04950            -160.00     8800.00
04951            -160.00     8600.00
04952            -140.00     8600.00
04953            -140.00     8600.00
04954            -160.00     8400.00
04955            -160.00     8400.00
04956            -140.00     8200.00
04957            -160.00     8200.00
04958            -160.00     8200.00
04959            -160.00     7800.00
04960            -140.00     7800.00
04961            -140.00     7600.00
04962            -160.00     7600.00
04963            -160.00     7600.00
04964            -160.00     7400.00
04965            -140.00     7400.00
04966            -140.00     7000.00
04967            -160.00     7000.00
04968            -140.00     6800.00
04969            -140.00     6600.00
04970            -140.00     6600.00
04971            -140.00     6400.00
04972            -120.00     6200.00
04973            -140.00     6200.00
04974            -140.00     6000.00
04975            -140.00     6000.00
04976            -140.00     5800.00
04977            -140.00     5600.00
04978            -140.00     5400.00
04979            -120.00     5400.00
04980            -100.00     5200.00
04981            -100.00     5000.00
04982            -120.00     4800.00
04983            -140.00     4600.00
04984            -140.00     4400.00
04985            -100.00     4200.00
04986            -120.00     4200.00
04987            -100.00     3800.00
04988            -100.00     3600.00
04989            -100.00     3600.00
04990            -100.00     3400.00
04991            -100.00     3400.00
04992            -100.00     3000.00
04993            -100.00     3000.00
04994            -100.00     2800.00
04995            -100.00     2600.00
04996            -100.00     2400.00
04997            -100.00     2200.00
04998            -100.00     2000.00
04999             -80.00     1800.00
05000             -80.00     1800.00
