Unit:(mV)
                     CH1         CH2
Frequency              ? 298.932 kHz
00001              60.00    -1120.00
00002             180.00    -1200.00
00003             640.00    -1360.00
00004             800.00    -1760.00
00005              80.00    -1840.00
00006            -800.00    -2000.00
00007           -1340.00    -1920.00
00008            -380.00    -1840.00
00009             900.00    -2400.00
00010               0.00    -2320.00
00011            -240.00    -2320.00
00012             480.00    -3120.00
00013             100.00    -2480.00
00014              20.00    -2720.00
00015             140.00    -3440.00
00016            -100.00    -2960.00
00017             380.00    -3120.00
00018             260.00    -3520.00
00019            -260.00    -3600.00
00020             120.00    -3600.00
00021              80.00    -3680.00
00022               0.00    -4000.00
00023             300.00    -4160.00
00024             100.00    -3920.00
00025             -60.00    -4400.00
00026             160.00    -4400.00
00027             300.00    -4320.00
00028              80.00    -4640.00
00029               0.00    -4880.00
00030             240.00    -4880.00
00031             220.00    -4800.00
00032              60.00    -5200.00
00033             140.00    -5280.00
00034             220.00    -5040.00
00035             220.00    -5440.00
00036             160.00    -5520.00
00037             220.00    -5520.00
00038             220.00    -5680.00
00039             160.00    -5840.00
00040             280.00    -5840.00
00041             260.00    -5840.00
00042             160.00    -6080.00
00043             220.00    -6240.00
00044             300.00    -6160.00
00045             260.00    -6320.00
00046             260.00    -6400.00
00047             320.00    -6400.00
00048             300.00    -6480.00
00049             260.00    -6560.00
00050             320.00    -6560.00
00051             360.00    -6640.00
00052             320.00    -6800.00
00053             380.00    -6880.00
00054             380.00    -6800.00
00055             340.00    -6960.00
00056             380.00    -7040.00
00057             480.00    -6960.00
00058             440.00    -7040.00
00059             420.00    -7200.00
00060             460.00    -7200.00
00061             480.00    -7200.00
00062             480.00    -7280.00
00063             520.00    -7280.00
00064             560.00    -7280.00
00065             560.00    -7360.00
00066             580.00    -7440.00
00067             620.00    -7440.00
00068             620.00    -7440.00
00069             640.00    -7520.00
00070             700.00    -7520.00
00071             720.00    -7520.00
00072             720.00    -7520.00
00073             740.00    -7520.00
00074             800.00    -7520.00
00075             800.00    -7600.00
00076             840.00    -7600.00
00077             880.00    -7520.00
00078             940.00    -7520.00
00079             940.00    -7520.00
00080             980.00    -7600.00
00081            1020.00    -7440.00
00082            1040.00    -7520.00
00083            1060.00    -7440.00
00084            1120.00    -7440.00
00085            1180.00    -7440.00
00086            1180.00    -7440.00
00087            1180.00    -7440.00
00088            1200.00    -7360.00
00089            1200.00    -7280.00
00090            1220.00    -7280.00
00091            1260.00    -7200.00
00092            1220.00    -7120.00
00093            1220.00    -7120.00
00094            1220.00    -7120.00
00095            1180.00    -7120.00
00096            1200.00    -6960.00
00097            1200.00    -6960.00
00098            1180.00    -6880.00
00099            1140.00    -6800.00
00100            1120.00    -6720.00
00101            1120.00    -6640.00
00102            1060.00    -6640.00
00103            1040.00    -6560.00
00104            1040.00    -6480.00
00105            1000.00    -6480.00
00106             960.00    -6320.00
00107             900.00    -6320.00
00108             900.00    -6160.00
00109             860.00    -6160.00
00110             820.00    -6000.00
00111             800.00    -6000.00
00112             780.00    -5840.00
00113             720.00    -5840.00
00114             700.00    -5680.00
00115             660.00    -5440.00
00116             620.00    -5440.00
00117             620.00    -5360.00
00118             600.00    -5280.00
00119             560.00    -5200.00
00120             540.00    -5040.00
00121             520.00    -4960.00
00122             480.00    -4880.00
00123             480.00    -4720.00
00124             460.00    -4640.00
00125             420.00    -4560.00
00126             400.00    -4480.00
00127             380.00    -4320.00
00128             380.00    -4240.00
00129             360.00    -4080.00
00130             340.00    -3920.00
00131             320.00    -3840.00
00132             320.00    -3680.00
00133             300.00    -3600.00
00134             300.00    -3520.00
00135             260.00    -3360.00
00136             240.00    -3200.00
00137             240.00    -3120.00
00138             240.00    -2960.00
00139             240.00    -2800.00
00140             220.00    -2640.00
00141             220.00    -2560.00
00142             180.00    -2400.00
00143             180.00    -2320.00
00144             180.00    -2160.00
00145             180.00    -2000.00
00146             160.00    -1840.00
00147             160.00    -1760.00
00148             140.00    -1600.00
00149             140.00    -1440.00
00150             140.00    -1360.00
00151             140.00    -1200.00
00152             120.00    -1040.00
00153             100.00     -880.00
00154             100.00     -800.00
00155              80.00     -640.00
00156              80.00     -480.00
00157              80.00     -320.00
00158              80.00     -240.00
00159              60.00      -80.00
00160              60.00      160.00
00161              60.00      240.00
00162             100.00      400.00
00163             160.00      480.00
00164             140.00      560.00
00165             100.00      720.00
00166             100.00      800.00
00167              60.00      960.00
00168              80.00     1120.00
00169             280.00     1200.00
00170             900.00     1520.00
00171             800.00     1680.00
00172            -240.00     1840.00
00173           -1460.00     1680.00
00174           -1400.00     1760.00
00175             620.00     2320.00
00176             900.00     2320.00
00177            -640.00     2320.00
00178             140.00     2400.00
00179             560.00     2400.00
00180            -480.00     3280.00
00181            -120.00     2720.00
00182             100.00     2640.00
00183              60.00     3760.00
00184             260.00     3120.00
00185            -420.00     2960.00
00186            -100.00     4160.00
00187             220.00     3600.00
00188            -500.00     3600.00
00189             100.00     4160.00
00190             180.00     3920.00
00191            -380.00     4400.00
00192             -80.00     4080.00
00193             -20.00     4320.00
00194             -60.00     4880.00
00195            -220.00     4240.00
00196            -160.00     4880.00
00197              80.00     5040.00
00198            -260.00     4720.00
00199            -160.00     5200.00
00200            -100.00     5120.00
00201            -160.00     5360.00
00202             -80.00     5280.00
00203            -180.00     5360.00
00204            -140.00     5840.00
00205            -240.00     5520.00
00206            -220.00     5840.00
00207            -140.00     5920.00
00208            -240.00     5840.00
00209            -220.00     6240.00
00210            -240.00     6000.00
00211            -260.00     6320.00
00212            -240.00     6240.00
00213            -220.00     6400.00
00214            -260.00     6480.00
00215            -320.00     6480.00
00216            -300.00     6640.00
00217            -300.00     6640.00
00218            -300.00     6800.00
00219            -320.00     6800.00
00220            -320.00     6880.00
00221            -400.00     6880.00
00222            -400.00     6960.00
00223            -320.00     7120.00
00224            -380.00     7120.00
00225            -420.00     7120.00
00226            -420.00     7200.00
00227            -460.00     7280.00
00228            -480.00     7360.00
00229            -480.00     7280.00
00230            -480.00     7360.00
00231            -520.00     7360.00
00232            -500.00     7440.00
00233            -540.00     7440.00
00234            -620.00     7440.00
00235            -640.00     7440.00
00236            -620.00     7520.00
00237            -640.00     7600.00
00238            -700.00     7520.00
00239            -720.00     7520.00
00240            -720.00     7600.00
00241            -780.00     7600.00
00242            -800.00     7600.00
00243            -820.00     7600.00
00244            -860.00     7520.00
00245            -900.00     7600.00
00246            -940.00     7520.00
00247            -960.00     7600.00
00248           -1020.00     7520.00
00249           -1060.00     7520.00
00250           -1060.00     7520.00
00251           -1080.00     7440.00
00252           -1120.00     7440.00
00253           -1140.00     7440.00
00254           -1180.00     7440.00
00255           -1200.00     7440.00
00256           -1200.00     7280.00
00257           -1200.00     7440.00
00258           -1200.00     7280.00
00259           -1220.00     7200.00
00260           -1220.00     7280.00
00261           -1220.00     7120.00
00262           -1220.00     7120.00
00263           -1200.00     7040.00
00264           -1180.00     6960.00
00265           -1160.00     6960.00
00266           -1140.00     6880.00
00267           -1140.00     6880.00
00268           -1120.00     6800.00
00269           -1060.00     6720.00
00270           -1040.00     6640.00
00271           -1020.00     6560.00
00272            -980.00     6480.00
00273            -960.00     6320.00
00274            -940.00     6320.00
00275            -900.00     6240.00
00276            -880.00     6160.00
00277            -820.00     6000.00
00278            -800.00     6000.00
00279            -740.00     5920.00
00280            -740.00     5840.00
00281            -720.00     5680.00
00282            -700.00     5600.00
00283            -640.00     5600.00
00284            -620.00     5520.00
00285            -580.00     5360.00
00286            -560.00     5200.00
00287            -560.00     5120.00
00288            -520.00     5040.00
00289            -500.00     4880.00
00290            -480.00     4800.00
00291            -440.00     4640.00
00292            -420.00     4560.00
00293            -400.00     4400.00
00294            -400.00     4320.00
00295            -380.00     4240.00
00296            -360.00     4080.00
00297            -340.00     4000.00
00298            -320.00     3920.00
00299            -320.00     3760.00
00300            -320.00     3680.00
00301            -300.00     3440.00
00302            -280.00     3280.00
00303            -260.00     3280.00
00304            -240.00     3120.00
00305            -240.00     2960.00
00306            -240.00     2800.00
00307            -220.00     2720.00
00308            -220.00     2560.00
00309            -220.00     2480.00
00310            -180.00     2320.00
00311            -160.00     2160.00
00312            -160.00     2080.00
00313            -160.00     1840.00
00314            -160.00     1840.00
00315            -140.00     1680.00
00316            -120.00     1520.00
00317            -100.00     1360.00
00318            -100.00     1280.00
00319            -100.00     1120.00
00320            -100.00      960.00
00321            -100.00      800.00
00322            -100.00      640.00
00323            -100.00      560.00
00324             -80.00      400.00
00325             -60.00      240.00
00326             -20.00      160.00
00327             -60.00        0.00
00328             -60.00     -160.00
00329               0.00     -240.00
00330              60.00     -400.00
00331              60.00     -560.00
00332              60.00     -720.00
00333              20.00     -800.00
00334               0.00     -960.00
00335              20.00    -1040.00
00336              80.00    -1200.00
00337             380.00    -1280.00
00338             820.00    -1680.00
00339             540.00    -1840.00
00340            -380.00    -1840.00
00341           -1140.00    -2080.00
00342           -1100.00    -1840.00
00343             440.00    -2080.00
00344             700.00    -2560.00
00345            -380.00    -2080.00
00346             160.00    -2800.00
00347             460.00    -2880.00
00348            -100.00    -2320.00
00349             160.00    -3200.00
00350               0.00    -3280.00
00351              80.00    -2960.00
00352             480.00    -3360.00
00353             -80.00    -3520.00
00354            -120.00    -3680.00
00355             160.00    -3600.00
00356             -20.00    -3760.00
00357             160.00    -4240.00
00358             260.00    -4000.00
00359             -20.00    -4160.00
00360               0.00    -4560.00
00361             240.00    -4320.00
00362             240.00    -4480.00
00363               0.00    -4720.00
00364             140.00    -4800.00
00365             300.00    -4800.00
00366             100.00    -4960.00
00367              80.00    -5360.00
00368             180.00    -5200.00
00369             240.00    -5200.00
00370             180.00    -5600.00
00371             160.00    -5360.00
00372             240.00    -5520.00
00373             160.00    -5760.00
00374             220.00    -5840.00
00375             300.00    -5920.00
00376             180.00    -5920.00
00377             180.00    -6160.00
00378             260.00    -6160.00
00379             300.00    -6160.00
00380             240.00    -6400.00
00381             300.00    -6400.00
00382             340.00    -6480.00
00383             300.00    -6480.00
00384             300.00    -6640.00
00385             340.00    -6640.00
00386             340.00    -6720.00
00387             340.00    -6880.00
00388             380.00    -6800.00
00389             360.00    -6880.00
00390             380.00    -6960.00
00391             420.00    -6960.00
00392             480.00    -7040.00
00393             460.00    -7120.00
00394             460.00    -7200.00
00395             480.00    -7200.00
00396             480.00    -7280.00
00397             480.00    -7280.00
00398             540.00    -7280.00
00399             560.00    -7280.00
00400             560.00    -7440.00
00401             580.00    -7440.00
00402             620.00    -7440.00
00403             620.00    -7520.00
00404             640.00    -7440.00
00405             720.00    -7520.00
00406             720.00    -7520.00
00407             720.00    -7520.00
00408             780.00    -7520.00
00409             800.00    -7520.00
00410             800.00    -7520.00
00411             860.00    -7520.00
00412             900.00    -7520.00
00413             960.00    -7520.00
00414             960.00    -7520.00
00415            1020.00    -7520.00
00416            1020.00    -7440.00
00417            1040.00    -7440.00
00418            1120.00    -7440.00
00419            1120.00    -7440.00
00420            1180.00    -7440.00
00421            1180.00    -7280.00
00422            1180.00    -7280.00
00423            1180.00    -7280.00
00424            1200.00    -7280.00
00425            1220.00    -7280.00
00426            1240.00    -7120.00
00427            1220.00    -7200.00
00428            1220.00    -7120.00
00429            1220.00    -7120.00
00430            1180.00    -7040.00
00431            1180.00    -6960.00
00432            1200.00    -6880.00
00433            1180.00    -6880.00
00434            1140.00    -6800.00
00435            1120.00    -6800.00
00436            1100.00    -6640.00
00437            1040.00    -6640.00
00438            1040.00    -6560.00
00439            1020.00    -6480.00
00440             980.00    -6400.00
00441             940.00    -6320.00
00442             900.00    -6160.00
00443             860.00    -6160.00
00444             840.00    -6000.00
00445             820.00    -6000.00
00446             800.00    -5920.00
00447             760.00    -5840.00
00448             720.00    -5680.00
00449             680.00    -5600.00
00450             640.00    -5520.00
00451             620.00    -5440.00
00452             620.00    -5360.00
00453             580.00    -5200.00
00454             560.00    -5120.00
00455             540.00    -5040.00
00456             500.00    -4960.00
00457             480.00    -4720.00
00458             460.00    -4720.00
00459             460.00    -4560.00
00460             420.00    -4480.00
00461             400.00    -4400.00
00462             380.00    -4240.00
00463             340.00    -4080.00
00464             360.00    -4000.00
00465             320.00    -3920.00
00466             340.00    -3760.00
00467             300.00    -3680.00
00468             280.00    -3600.00
00469             260.00    -3440.00
00470             260.00    -3280.00
00471             260.00    -3120.00
00472             240.00    -3040.00
00473             220.00    -2880.00
00474             220.00    -2720.00
00475             220.00    -2640.00
00476             200.00    -2480.00
00477             180.00    -2320.00
00478             180.00    -2240.00
00479             180.00    -2080.00
00480             160.00    -1920.00
00481             140.00    -1840.00
00482             140.00    -1680.00
00483             140.00    -1520.00
00484             140.00    -1360.00
00485             140.00    -1280.00
00486             120.00    -1040.00
00487             100.00     -960.00
00488             100.00     -800.00
00489              80.00     -720.00
00490              80.00     -480.00
00491              80.00     -400.00
00492              80.00     -240.00
00493              80.00      -80.00
00494              60.00        0.00
00495              60.00      160.00
00496              80.00      320.00
00497             140.00      400.00
00498             160.00      560.00
00499             140.00      720.00
00500             100.00      800.00
00501              80.00      880.00
00502              80.00     1120.00
00503             120.00     1120.00
00504             560.00     1360.00
00505            1020.00     1680.00
00506             360.00     1760.00
00507            -860.00     1840.00
00508           -1760.00     1520.00
00509            -500.00     2160.00
00510            1200.00     2400.00
00511               0.00     2160.00
00512            -500.00     2480.00
00513             640.00     2320.00
00514               0.00     2880.00
00515            -420.00     3280.00
00516             140.00     2400.00
00517             -20.00     3280.00
00518             300.00     3680.00
00519             -60.00     2720.00
00520            -480.00     3680.00
00521             300.00     4080.00
00522            -200.00     3280.00
00523            -340.00     4000.00
00524             380.00     4000.00
00525            -160.00     4080.00
00526            -260.00     4320.00
00527              20.00     4000.00
00528             -20.00     4800.00
00529            -100.00     4560.00
00530            -280.00     4400.00
00531               0.00     5200.00
00532             -80.00     4800.00
00533            -300.00     4960.00
00534            -100.00     5200.00
00535            -160.00     5280.00
00536            -100.00     5440.00
00537            -140.00     5200.00
00538            -180.00     5680.00
00539            -160.00     5680.00
00540            -260.00     5520.00
00541            -160.00     6000.00
00542            -180.00     5840.00
00543            -240.00     6000.00
00544            -220.00     6080.00
00545            -260.00     6160.00
00546            -260.00     6320.00
00547            -240.00     6240.00
00548            -220.00     6560.00
00549            -320.00     6480.00
00550            -320.00     6560.00
00551            -300.00     6640.00
00552            -300.00     6720.00
00553            -320.00     6800.00
00554            -320.00     6800.00
00555            -380.00     6960.00
00556            -420.00     6880.00
00557            -380.00     7040.00
00558            -340.00     7120.00
00559            -400.00     7120.00
00560            -440.00     7120.00
00561            -420.00     7200.00
00562            -480.00     7280.00
00563            -500.00     7200.00
00564            -480.00     7360.00
00565            -500.00     7440.00
00566            -540.00     7360.00
00567            -520.00     7440.00
00568            -560.00     7440.00
00569            -640.00     7520.00
00570            -640.00     7440.00
00571            -620.00     7520.00
00572            -660.00     7600.00
00573            -720.00     7520.00
00574            -720.00     7600.00
00575            -740.00     7600.00
00576            -800.00     7600.00
00577            -820.00     7600.00
00578            -820.00     7600.00
00579            -880.00     7520.00
00580            -900.00     7520.00
00581            -940.00     7600.00
00582            -960.00     7600.00
00583           -1040.00     7520.00
00584           -1060.00     7520.00
00585           -1040.00     7520.00
00586           -1100.00     7440.00
00587           -1120.00     7440.00
00588           -1140.00     7440.00
00589           -1180.00     7440.00
00590           -1200.00     7440.00
00591           -1200.00     7360.00
00592           -1200.00     7360.00
00593           -1220.00     7200.00
00594           -1220.00     7280.00
00595           -1220.00     7200.00
00596           -1220.00     7200.00
00597           -1220.00     7040.00
00598           -1200.00     6960.00
00599           -1180.00     6960.00
00600           -1140.00     6880.00
00601           -1120.00     6800.00
00602           -1140.00     6800.00
00603           -1100.00     6720.00
00604           -1060.00     6640.00
00605           -1040.00     6560.00
00606           -1000.00     6560.00
00607            -980.00     6480.00
00608            -960.00     6400.00
00609            -900.00     6320.00
00610            -900.00     6240.00
00611            -860.00     6160.00
00612            -800.00     6000.00
00613            -800.00     5920.00
00614            -760.00     5920.00
00615            -740.00     5760.00
00616            -720.00     5680.00
00617            -660.00     5600.00
00618            -640.00     5520.00
00619            -620.00     5440.00
00620            -580.00     5280.00
00621            -560.00     5200.00
00622            -540.00     5040.00
00623            -500.00     4960.00
00624            -480.00     4880.00
00625            -460.00     4720.00
00626            -420.00     4640.00
00627            -420.00     4560.00
00628            -400.00     4400.00
00629            -400.00     4320.00
00630            -380.00     4240.00
00631            -360.00     4080.00
00632            -320.00     4000.00
00633            -320.00     3920.00
00634            -320.00     3680.00
00635            -300.00     3600.00
00636            -300.00     3440.00
00637            -260.00     3360.00
00638            -240.00     3200.00
00639            -240.00     3040.00
00640            -240.00     2960.00
00641            -220.00     2800.00
00642            -220.00     2640.00
00643            -180.00     2560.00
00644            -180.00     2400.00
00645            -180.00     2240.00
00646            -160.00     2160.00
00647            -160.00     2000.00
00648            -180.00     1840.00
00649            -140.00     1760.00
00650            -140.00     1600.00
00651            -100.00     1520.00
00652            -100.00     1360.00
00653            -100.00     1200.00
00654            -100.00     1040.00
00655            -100.00      880.00
00656            -100.00      800.00
00657             -80.00      560.00
00658             -80.00      480.00
00659             -60.00      320.00
00660             -60.00      160.00
00661             -60.00       80.00
00662             -60.00      -80.00
00663             -20.00     -240.00
00664              20.00     -320.00
00665              60.00     -480.00
00666              60.00     -640.00
00667              20.00     -720.00
00668              20.00     -880.00
00669              20.00     -960.00
00670              20.00    -1040.00
00671             160.00    -1200.00
00672             640.00    -1360.00
00673             800.00    -1760.00
00674             100.00    -1760.00
00675            -780.00    -2000.00
00676           -1340.00    -2000.00
00677            -420.00    -1840.00
00678             880.00    -2400.00
00679              40.00    -2320.00
00680            -260.00    -2240.00
00681             460.00    -3120.00
00682             100.00    -2480.00
00683               0.00    -2640.00
00684             160.00    -3440.00
00685            -100.00    -2960.00
00686             380.00    -3120.00
00687             260.00    -3600.00
00688            -280.00    -3600.00
00689             100.00    -3680.00
00690              60.00    -3600.00
00691               0.00    -4000.00
00692             280.00    -4240.00
00693             140.00    -3920.00
00694             -60.00    -4400.00
00695             140.00    -4480.00
00696             300.00    -4320.00
00697             100.00    -4640.00
00698               0.00    -4800.00
00699             260.00    -4880.00
00700             220.00    -4720.00
00701              60.00    -5040.00
00702             140.00    -5280.00
00703             220.00    -5040.00
00704             240.00    -5440.00
00705             160.00    -5600.00
00706             220.00    -5440.00
00707             220.00    -5680.00
00708             160.00    -5760.00
00709             300.00    -5920.00
00710             260.00    -5920.00
00711             160.00    -6080.00
00712             220.00    -6160.00
00713             300.00    -6080.00
00714             260.00    -6320.00
00715             260.00    -6320.00
00716             320.00    -6400.00
00717             320.00    -6480.00
00718             260.00    -6560.00
00719             320.00    -6640.00
00720             380.00    -6640.00
00721             320.00    -6800.00
00722             380.00    -6880.00
00723             380.00    -6800.00
00724             340.00    -6960.00
00725             380.00    -7040.00
00726             460.00    -6960.00
00727             460.00    -7120.00
00728             440.00    -7200.00
00729             460.00    -7200.00
00730             480.00    -7200.00
00731             480.00    -7280.00
00732             500.00    -7280.00
00733             560.00    -7280.00
00734             560.00    -7440.00
00735             580.00    -7520.00
00736             620.00    -7440.00
00737             620.00    -7440.00
00738             620.00    -7440.00
00739             700.00    -7520.00
00740             720.00    -7520.00
00741             720.00    -7520.00
00742             740.00    -7520.00
00743             800.00    -7520.00
00744             800.00    -7520.00
00745             820.00    -7520.00
00746             900.00    -7520.00
00747             940.00    -7520.00
00748             940.00    -7520.00
00749             980.00    -7520.00
00750            1020.00    -7440.00
00751            1020.00    -7520.00
00752            1060.00    -7440.00
00753            1120.00    -7440.00
00754            1180.00    -7440.00
00755            1160.00    -7440.00
00756            1180.00    -7360.00
00757            1180.00    -7360.00
00758            1200.00    -7280.00
00759            1240.00    -7280.00
00760            1240.00    -7200.00
00761            1220.00    -7200.00
00762            1240.00    -7200.00
00763            1220.00    -7120.00
00764            1200.00    -6960.00
00765            1200.00    -6960.00
00766            1200.00    -6880.00
00767            1180.00    -6880.00
00768            1160.00    -6880.00
00769            1120.00    -6800.00
00770            1100.00    -6720.00
00771            1060.00    -6640.00
00772            1040.00    -6560.00
00773            1040.00    -6480.00
00774            1020.00    -6480.00
00775             960.00    -6320.00
00776             940.00    -6320.00
00777             880.00    -6160.00
00778             860.00    -6080.00
00779             820.00    -6080.00
00780             800.00    -5920.00
00781             800.00    -5840.00
00782             740.00    -5840.00
00783             700.00    -5680.00
00784             680.00    -5600.00
00785             640.00    -5440.00
00786             640.00    -5360.00
00787             600.00    -5280.00
00788             580.00    -5200.00
00789             540.00    -5040.00
00790             500.00    -4960.00
00791             480.00    -4880.00
00792             480.00    -4720.00
00793             460.00    -4640.00
00794             420.00    -4560.00
00795             400.00    -4400.00
00796             380.00    -4320.00
00797             360.00    -4240.00
00798             380.00    -4080.00
00799             340.00    -3920.00
00800             320.00    -3920.00
00801             320.00    -3680.00
00802             300.00    -3600.00
00803             260.00    -3440.00
00804             260.00    -3280.00
00805             240.00    -3200.00
00806             240.00    -3040.00
00807             240.00    -2880.00
00808             220.00    -2800.00
00809             220.00    -2640.00
00810             200.00    -2480.00
00811             180.00    -2400.00
00812             180.00    -2320.00
00813             180.00    -2160.00
00814             160.00    -2000.00
00815             160.00    -1840.00
00816             140.00    -1840.00
00817             140.00    -1600.00
00818             140.00    -1440.00
00819             140.00    -1360.00
00820             140.00    -1200.00
00821             100.00    -1040.00
00822             100.00     -880.00
00823              80.00     -800.00
00824             100.00     -640.00
00825             100.00     -480.00
00826              80.00     -320.00
00827              80.00     -240.00
00828              80.00      -80.00
00829              60.00       80.00
00830              60.00      240.00
00831             120.00      320.00
00832             160.00      480.00
00833             140.00      560.00
00834             140.00      720.00
00835              80.00      800.00
00836             100.00     1040.00
00837              80.00     1120.00
00838             260.00     1280.00
00839             900.00     1520.00
00840             820.00     1760.00
00841            -200.00     1840.00
00842           -1420.00     1680.00
00843           -1440.00     1760.00
00844             580.00     2400.00
00845             940.00     2320.00
00846            -620.00     2320.00
00847              80.00     2320.00
00848             620.00     2400.00
00849            -480.00     3280.00
00850            -140.00     2720.00
00851             140.00     2640.00
00852              60.00     3760.00
00853             300.00     3120.00
00854            -420.00     2960.00
00855            -140.00     4080.00
00856             240.00     3600.00
00857            -480.00     3520.00
00858              80.00     4080.00
00859             220.00     3920.00
00860            -380.00     4320.00
00861             -80.00     4080.00
00862               0.00     4320.00
00863             -40.00     4880.00
00864            -240.00     4240.00
00865            -160.00     4880.00
00866              80.00     5040.00
00867            -260.00     4720.00
00868            -180.00     5200.00
00869            -100.00     5200.00
00870            -180.00     5360.00
00871             -80.00     5280.00
00872            -180.00     5360.00
00873            -140.00     5840.00
00874            -240.00     5520.00
00875            -240.00     5840.00
00876            -140.00     5920.00
00877            -240.00     5840.00
00878            -220.00     6160.00
00879            -240.00     6160.00
00880            -260.00     6320.00
00881            -240.00     6240.00
00882            -240.00     6480.00
00883            -260.00     6560.00
00884            -340.00     6400.00
00885            -300.00     6640.00
00886            -300.00     6640.00
00887            -320.00     6720.00
00888            -320.00     6800.00
00889            -320.00     6880.00
00890            -400.00     6960.00
00891            -400.00     6880.00
00892            -340.00     7120.00
00893            -400.00     7040.00
00894            -420.00     7120.00
00895            -420.00     7120.00
00896            -460.00     7280.00
00897            -480.00     7280.00
00898            -500.00     7280.00
00899            -480.00     7440.00
00900            -500.00     7360.00
00901            -540.00     7440.00
00902            -500.00     7520.00
00903            -580.00     7440.00
00904            -640.00     7440.00
00905            -640.00     7520.00
00906            -620.00     7600.00
00907            -700.00     7520.00
00908            -720.00     7520.00
00909            -720.00     7520.00
00910            -780.00     7600.00
00911            -820.00     7600.00
00912            -820.00     7600.00
00913            -840.00     7520.00
00914            -900.00     7600.00
00915            -900.00     7520.00
00916            -960.00     7600.00
00917           -1000.00     7520.00
00918           -1060.00     7440.00
00919           -1060.00     7520.00
00920           -1060.00     7520.00
00921           -1120.00     7440.00
00922           -1140.00     7520.00
00923           -1180.00     7440.00
00924           -1180.00     7360.00
00925           -1200.00     7360.00
00926           -1200.00     7280.00
00927           -1220.00     7280.00
00928           -1220.00     7280.00
00929           -1220.00     7200.00
00930           -1220.00     7120.00
00931           -1220.00     7120.00
00932           -1200.00     7040.00
00933           -1180.00     7040.00
00934           -1140.00     6960.00
00935           -1140.00     6880.00
00936           -1120.00     6800.00
00937           -1120.00     6800.00
00938           -1100.00     6720.00
00939           -1040.00     6640.00
00940           -1020.00     6560.00
00941           -1000.00     6480.00
00942            -980.00     6480.00
00943            -960.00     6320.00
00944            -900.00     6240.00
00945            -880.00     6160.00
00946            -860.00     6160.00
00947            -800.00     6000.00
00948            -760.00     5920.00
00949            -740.00     5920.00
00950            -720.00     5680.00
00951            -700.00     5600.00
00952            -640.00     5520.00
00953            -620.00     5440.00
00954            -580.00     5360.00
00955            -580.00     5280.00
00956            -560.00     5200.00
00957            -540.00     5040.00
00958            -500.00     4960.00
00959            -480.00     4800.00
00960            -460.00     4720.00
00961            -420.00     4560.00
00962            -400.00     4480.00
00963            -400.00     4320.00
00964            -400.00     4240.00
00965            -360.00     4080.00
00966            -320.00     4000.00
00967            -320.00     3920.00
00968            -320.00     3760.00
00969            -300.00     3680.00
00970            -300.00     3440.00
00971            -260.00     3360.00
00972            -260.00     3280.00
00973            -240.00     3120.00
00974            -240.00     3040.00
00975            -220.00     2800.00
00976            -220.00     2720.00
00977            -180.00     2640.00
00978            -220.00     2480.00
00979            -180.00     2320.00
00980            -160.00     2240.00
00981            -160.00     2080.00
00982            -160.00     1920.00
00983            -160.00     1840.00
00984            -140.00     1680.00
00985            -100.00     1520.00
00986            -100.00     1360.00
00987            -100.00     1280.00
00988            -100.00     1120.00
00989            -100.00      960.00
00990            -100.00      880.00
00991            -100.00      720.00
00992             -80.00      560.00
00993             -80.00      400.00
00994             -60.00      240.00
00995             -60.00      160.00
00996             -60.00      -80.00
00997             -60.00     -160.00
00998               0.00     -240.00
00999              60.00     -400.00
01000              60.00     -560.00
01001              60.00     -640.00
01002              20.00     -800.00
01003              20.00     -960.00
01004              20.00    -1040.00
01005              80.00    -1120.00
01006             340.00    -1360.00
01007             820.00    -1680.00
01008             540.00    -1840.00
01009            -340.00    -1840.00
01010           -1140.00    -2000.00
01011           -1120.00    -1840.00
01012             380.00    -2000.00
01013             700.00    -2560.00
01014            -380.00    -2080.00
01015             140.00    -2800.00
01016             460.00    -2880.00
01017            -100.00    -2320.00
01018             160.00    -3120.00
01019               0.00    -3280.00
01020              60.00    -2960.00
01021             480.00    -3360.00
01022             -80.00    -3600.00
01023            -160.00    -3600.00
01024             180.00    -3680.00
01025             -20.00    -3760.00
01026             140.00    -4160.00
01027             240.00    -4000.00
01028             -20.00    -4080.00
01029               0.00    -4560.00
01030             240.00    -4400.00
01031             240.00    -4400.00
01032               0.00    -4720.00
01033             140.00    -4800.00
01034             300.00    -4880.00
01035             140.00    -4880.00
01036              80.00    -5280.00
01037             160.00    -5120.00
01038             240.00    -5120.00
01039             180.00    -5520.00
01040             160.00    -5440.00
01041             220.00    -5600.00
01042             180.00    -5680.00
01043             220.00    -5840.00
01044             300.00    -5920.00
01045             220.00    -6000.00
01046             180.00    -6160.00
01047             280.00    -6080.00
01048             300.00    -6160.00
01049             240.00    -6400.00
01050             300.00    -6320.00
01051             340.00    -6480.00
01052             300.00    -6480.00
01053             300.00    -6560.00
01054             340.00    -6640.00
01055             340.00    -6640.00
01056             340.00    -6880.00
01057             380.00    -6800.00
01058             380.00    -6880.00
01059             340.00    -6960.00
01060             400.00    -6960.00
01061             460.00    -6960.00
01062             460.00    -7120.00
01063             420.00    -7200.00
01064             480.00    -7200.00
01065             480.00    -7200.00
01066             500.00    -7280.00
01067             540.00    -7280.00
01068             560.00    -7280.00
01069             560.00    -7440.00
01070             620.00    -7440.00
01071             600.00    -7360.00
01072             600.00    -7440.00
01073             640.00    -7440.00
01074             700.00    -7440.00
01075             720.00    -7520.00
01076             720.00    -7600.00
01077             780.00    -7520.00
01078             800.00    -7520.00
01079             800.00    -7600.00
01080             860.00    -7520.00
01081             900.00    -7520.00
01082             940.00    -7520.00
01083             960.00    -7520.00
01084             980.00    -7600.00
01085            1020.00    -7440.00
01086            1040.00    -7520.00
01087            1120.00    -7440.00
01088            1140.00    -7440.00
01089            1140.00    -7440.00
01090            1180.00    -7440.00
01091            1180.00    -7360.00
01092            1200.00    -7280.00
01093            1200.00    -7280.00
01094            1260.00    -7280.00
01095            1260.00    -7120.00
01096            1220.00    -7200.00
01097            1240.00    -7120.00
01098            1200.00    -7120.00
01099            1200.00    -6960.00
01100            1200.00    -6960.00
01101            1180.00    -6960.00
01102            1180.00    -6880.00
01103            1140.00    -6800.00
01104            1120.00    -6720.00
01105            1100.00    -6640.00
01106            1040.00    -6560.00
01107            1040.00    -6560.00
01108            1020.00    -6480.00
01109             980.00    -6320.00
01110             960.00    -6320.00
01111             900.00    -6240.00
01112             880.00    -6160.00
01113             860.00    -6000.00
01114             820.00    -6000.00
01115             800.00    -5840.00
01116             780.00    -5840.00
01117             720.00    -5760.00
01118             680.00    -5600.00
01119             660.00    -5440.00
01120             640.00    -5360.00
01121             620.00    -5280.00
01122             580.00    -5200.00
01123             560.00    -5200.00
01124             540.00    -5040.00
01125             500.00    -4880.00
01126             480.00    -4880.00
01127             480.00    -4720.00
01128             420.00    -4640.00
01129             420.00    -4400.00
01130             400.00    -4320.00
01131             380.00    -4240.00
01132             380.00    -4080.00
01133             340.00    -4000.00
01134             340.00    -3920.00
01135             320.00    -3760.00
01136             300.00    -3680.00
01137             260.00    -3520.00
01138             260.00    -3440.00
01139             240.00    -3280.00
01140             240.00    -3120.00
01141             240.00    -2880.00
01142             220.00    -2880.00
01143             220.00    -2720.00
01144             220.00    -2640.00
01145             200.00    -2480.00
01146             160.00    -2320.00
01147             180.00    -2160.00
01148             160.00    -2080.00
01149             160.00    -1920.00
01150             160.00    -1840.00
01151             140.00    -1680.00
01152             140.00    -1520.00
01153             140.00    -1360.00
01154             140.00    -1200.00
01155             140.00    -1120.00
01156             100.00     -960.00
01157             100.00     -880.00
01158              80.00     -720.00
01159             100.00     -560.00
01160              80.00     -480.00
01161              80.00     -320.00
01162             100.00     -160.00
01163              80.00       80.00
01164              60.00      160.00
01165              80.00      320.00
01166             140.00      400.00
01167             160.00      480.00
01168             140.00      560.00
01169             100.00      800.00
01170              80.00      880.00
01171              80.00     1040.00
01172             140.00     1200.00
01173             540.00     1360.00
01174            1020.00     1680.00
01175             400.00     1760.00
01176            -800.00     1760.00
01177           -1740.00     1520.00
01178            -560.00     2160.00
01179            1200.00     2400.00
01180              60.00     2240.00
01181            -500.00     2480.00
01182             640.00     2240.00
01183              60.00     2800.00
01184            -460.00     3280.00
01185             140.00     2400.00
01186             -20.00     3280.00
01187             300.00     3680.00
01188             -20.00     2720.00
01189            -480.00     3520.00
01190             260.00     4080.00
01191            -160.00     3360.00
01192            -380.00     3920.00
01193             380.00     4080.00
01194            -160.00     4080.00
01195            -300.00     4320.00
01196               0.00     4000.00
01197             -60.00     4720.00
01198            -100.00     4560.00
01199            -280.00     4320.00
01200               0.00     5200.00
01201             -80.00     4720.00
01202            -320.00     4960.00
01203            -100.00     5200.00
01204            -160.00     5200.00
01205            -120.00     5520.00
01206            -160.00     5200.00
01207            -180.00     5680.00
01208            -160.00     5680.00
01209            -260.00     5600.00
01210            -160.00     6000.00
01211            -180.00     5760.00
01212            -260.00     6000.00
01213            -220.00     6080.00
01214            -260.00     6160.00
01215            -260.00     6320.00
01216            -240.00     6240.00
01217            -220.00     6480.00
01218            -320.00     6480.00
01219            -340.00     6480.00
01220            -300.00     6720.00
01221            -320.00     6640.00
01222            -300.00     6800.00
01223            -320.00     6800.00
01224            -360.00     6960.00
01225            -420.00     6880.00
01226            -340.00     6960.00
01227            -340.00     7120.00
01228            -420.00     7120.00
01229            -420.00     7120.00
01230            -440.00     7200.00
01231            -480.00     7200.00
01232            -500.00     7280.00
01233            -480.00     7360.00
01234            -500.00     7440.00
01235            -520.00     7360.00
01236            -540.00     7520.00
01237            -560.00     7440.00
01238            -640.00     7520.00
01239            -640.00     7440.00
01240            -620.00     7520.00
01241            -640.00     7600.00
01242            -700.00     7520.00
01243            -700.00     7600.00
01244            -740.00     7600.00
01245            -800.00     7520.00
01246            -820.00     7600.00
01247            -820.00     7520.00
01248            -880.00     7520.00
01249            -900.00     7520.00
01250            -920.00     7520.00
01251            -980.00     7600.00
01252           -1040.00     7520.00
01253           -1060.00     7520.00
01254           -1060.00     7520.00
01255           -1100.00     7440.00
01256           -1140.00     7520.00
01257           -1140.00     7440.00
01258           -1200.00     7440.00
01259           -1220.00     7360.00
01260           -1200.00     7280.00
01261           -1200.00     7360.00
01262           -1220.00     7200.00
01263           -1220.00     7200.00
01264           -1220.00     7120.00
01265           -1220.00     7120.00
01266           -1220.00     7120.00
01267           -1180.00     6960.00
01268           -1140.00     6960.00
01269           -1120.00     6960.00
01270           -1140.00     6800.00
01271           -1180.00     6800.00
01272           -1180.00     6720.00
01273           -1140.00     6640.00
01274           -1080.00     6640.00
01275           -1040.00     6480.00
01276            -960.00     6480.00
01277            -880.00     6320.00
01278            -860.00     6320.00
01279            -840.00     6160.00
01280            -860.00     6080.00
01281            -860.00     6000.00
01282            -860.00     5920.00
01283            -820.00     5840.00
01284            -780.00     5840.00
01285            -700.00     5680.00
01286            -640.00     5520.00
01287            -580.00     5520.00
01288            -560.00     5360.00
01289            -580.00     5280.00
01290            -580.00     5200.00
01291            -560.00     5040.00
01292            -540.00     4960.00
01293            -480.00     4880.00
01294            -420.00     4800.00
01295            -420.00     4640.00
01296            -400.00     4480.00
01297            -400.00     4400.00
01298            -400.00     4320.00
01299            -380.00     4160.00
01300            -340.00     4000.00
01301            -320.00     4000.00
01302            -300.00     3920.00
01303            -300.00     3760.00
01304            -320.00     3600.00
01305            -300.00     3440.00
01306            -300.00     3280.00
01307            -260.00     3200.00
01308            -240.00     3120.00
01309            -220.00     2960.00
01310            -180.00     2800.00
01311            -180.00     2640.00
01312            -220.00     2480.00
01313            -220.00     2400.00
01314            -220.00     2320.00
01315            -180.00     2160.00
01316            -160.00     2000.00
01317            -160.00     1840.00
01318            -120.00     1680.00
01319            -140.00     1520.00
01320            -140.00     1440.00
01321            -140.00     1360.00
01322            -140.00     1200.00
01323            -120.00     1120.00
01324            -100.00      880.00
01325             -80.00      720.00
01326             -80.00      560.00
01327             -60.00      480.00
01328             -80.00      320.00
01329             -80.00      240.00
01330            -100.00       80.00
01331             -80.00      -80.00
01332             -40.00     -160.00
01333              40.00     -320.00
01334              80.00     -480.00
01335              60.00     -560.00
01336               0.00     -720.00
01337               0.00     -800.00
01338               0.00     -960.00
01339               0.00    -1040.00
01340             160.00    -1200.00
01341             620.00    -1360.00
01342             800.00    -1760.00
01343             160.00    -1840.00
01344            -740.00    -2000.00
01345           -1360.00    -2000.00
01346            -480.00    -1760.00
01347             860.00    -2400.00
01348              60.00    -2320.00
01349            -260.00    -2240.00
01350             480.00    -3120.00
01351             140.00    -2480.00
01352               0.00    -2640.00
01353             160.00    -3440.00
01354            -120.00    -3040.00
01355             340.00    -3040.00
01356             280.00    -3600.00
01357            -260.00    -3600.00
01358             100.00    -3680.00
01359             120.00    -3680.00
01360               0.00    -3920.00
01361             260.00    -4160.00
01362             120.00    -3920.00
01363             -60.00    -4320.00
01364             140.00    -4480.00
01365             300.00    -4320.00
01366             120.00    -4640.00
01367               0.00    -4800.00
01368             260.00    -4880.00
01369             220.00    -4800.00
01370              60.00    -5040.00
01371             120.00    -5280.00
01372             220.00    -5040.00
01373             240.00    -5360.00
01374             180.00    -5520.00
01375             220.00    -5360.00
01376             240.00    -5680.00
01377             160.00    -5840.00
01378             260.00    -5920.00
01379             260.00    -5840.00
01380             160.00    -6000.00
01381             220.00    -6160.00
01382             320.00    -6080.00
01383             300.00    -6320.00
01384             260.00    -6320.00
01385             320.00    -6320.00
01386             320.00    -6560.00
01387             260.00    -6560.00
01388             320.00    -6640.00
01389             360.00    -6640.00
01390             340.00    -6800.00
01391             380.00    -6880.00
01392             380.00    -6800.00
01393             340.00    -6960.00
01394             380.00    -6960.00
01395             460.00    -7040.00
01396             460.00    -7040.00
01397             420.00    -7120.00
01398             460.00    -7200.00
01399             480.00    -7200.00
01400             460.00    -7280.00
01401             500.00    -7280.00
01402             560.00    -7280.00
01403             560.00    -7360.00
01404             560.00    -7440.00
01405             620.00    -7440.00
01406             620.00    -7440.00
01407             620.00    -7440.00
01408             680.00    -7520.00
01409             720.00    -7520.00
01410             700.00    -7520.00
01411             720.00    -7600.00
01412             780.00    -7520.00
01413             800.00    -7520.00
01414             820.00    -7600.00
01415             880.00    -7520.00
01416             940.00    -7520.00
01417             940.00    -7520.00
01418             980.00    -7520.00
01419            1020.00    -7520.00
01420            1040.00    -7440.00
01421            1060.00    -7440.00
01422            1120.00    -7520.00
01423            1160.00    -7440.00
01424            1180.00    -7440.00
01425            1180.00    -7360.00
01426            1200.00    -7280.00
01427            1200.00    -7280.00
01428            1220.00    -7280.00
01429            1260.00    -7200.00
01430            1240.00    -7200.00
01431            1220.00    -7120.00
01432            1220.00    -7040.00
01433            1200.00    -7040.00
01434            1200.00    -6960.00
01435            1200.00    -6960.00
01436            1200.00    -6880.00
01437            1180.00    -6800.00
01438            1120.00    -6800.00
01439            1120.00    -6640.00
01440            1080.00    -6560.00
01441            1060.00    -6560.00
01442            1040.00    -6480.00
01443            1020.00    -6400.00
01444             960.00    -6320.00
01445             940.00    -6240.00
01446             900.00    -6240.00
01447             860.00    -6160.00
01448             840.00    -6000.00
01449             800.00    -5920.00
01450             800.00    -5920.00
01451             740.00    -5760.00
01452             700.00    -5600.00
01453             660.00    -5440.00
01454             660.00    -5520.00
01455             620.00    -5360.00
01456             620.00    -5280.00
01457             560.00    -5200.00
01458             540.00    -5040.00
01459             500.00    -4960.00
01460             480.00    -4880.00
01461             480.00    -4720.00
01462             460.00    -4640.00
01463             440.00    -4560.00
01464             400.00    -4480.00
01465             400.00    -4320.00
01466             380.00    -4240.00
01467             340.00    -4080.00
01468             340.00    -4000.00
01469             320.00    -3760.00
01470             320.00    -3680.00
01471             300.00    -3600.00
01472             240.00    -3440.00
01473             260.00    -3360.00
01474             240.00    -3280.00
01475             240.00    -3120.00
01476             240.00    -2880.00
01477             220.00    -2800.00
01478             220.00    -2720.00
01479             200.00    -2640.00
01480             180.00    -2400.00
01481             160.00    -2320.00
01482             180.00    -2160.00
01483             180.00    -2000.00
01484             160.00    -1840.00
01485             140.00    -1760.00
01486             140.00    -1680.00
01487             140.00    -1440.00
01488             140.00    -1280.00
01489             140.00    -1200.00
01490             140.00    -1040.00
01491             100.00     -880.00
01492              80.00     -800.00
01493              80.00     -720.00
01494              80.00     -480.00
01495             100.00     -400.00
01496              80.00     -240.00
01497              80.00      -80.00
01498              80.00       80.00
01499              80.00      240.00
01500             100.00      400.00
01501             160.00      480.00
01502             160.00      560.00
01503             140.00      720.00
01504             100.00      880.00
01505              80.00      960.00
01506             100.00     1120.00
01507             240.00     1200.00
01508             900.00     1520.00
01509             840.00     1680.00
01510            -160.00     1840.00
01511           -1380.00     1680.00
01512           -1480.00     1680.00
01513             500.00     2320.00
01514             980.00     2320.00
01515            -580.00     2320.00
01516              60.00     2400.00
01517             640.00     2400.00
01518            -460.00     3280.00
01519            -160.00     2720.00
01520             140.00     2560.00
01521              40.00     3760.00
01522             300.00     3120.00
01523            -420.00     2880.00
01524            -160.00     4080.00
01525             260.00     3600.00
01526            -480.00     3440.00
01527              60.00     4080.00
01528             240.00     3920.00
01529            -380.00     4320.00
01530            -100.00     4160.00
01531             -20.00     4320.00
01532             -60.00     4880.00
01533            -220.00     4240.00
01534            -220.00     4800.00
01535              80.00     5120.00
01536            -240.00     4720.00
01537            -220.00     5200.00
01538            -100.00     5200.00
01539            -180.00     5360.00
01540            -100.00     5360.00
01541            -180.00     5360.00
01542            -140.00     5840.00
01543            -240.00     5520.00
01544            -240.00     5840.00
01545            -100.00     5920.00
01546            -240.00     5840.00
01547            -220.00     6160.00
01548            -240.00     6080.00
01549            -260.00     6320.00
01550            -260.00     6160.00
01551            -220.00     6320.00
01552            -260.00     6560.00
01553            -340.00     6480.00
01554            -320.00     6640.00
01555            -300.00     6720.00
01556            -300.00     6720.00
01557            -300.00     6800.00
01558            -320.00     6880.00
01559            -400.00     6880.00
01560            -400.00     6880.00
01561            -340.00     7120.00
01562            -380.00     7040.00
01563            -420.00     7120.00
01564            -420.00     7120.00
01565            -440.00     7200.00
01566            -480.00     7200.00
01567            -480.00     7280.00
01568            -480.00     7440.00
01569            -520.00     7360.00
01570            -540.00     7360.00
01571            -520.00     7520.00
01572            -580.00     7440.00
01573            -640.00     7440.00
01574            -620.00     7440.00
01575            -620.00     7600.00
01576            -660.00     7520.00
01577            -720.00     7600.00
01578            -720.00     7600.00
01579            -740.00     7520.00
01580            -800.00     7520.00
01581            -800.00     7600.00
01582            -860.00     7520.00
01583            -900.00     7600.00
01584            -920.00     7520.00
01585            -960.00     7520.00
01586           -1020.00     7520.00
01587           -1060.00     7520.00
01588           -1040.00     7520.00
01589           -1100.00     7520.00
01590           -1120.00     7520.00
01591           -1140.00     7440.00
01592           -1180.00     7440.00
01593           -1200.00     7440.00
01594           -1200.00     7280.00
01595           -1220.00     7360.00
01596           -1220.00     7280.00
01597           -1220.00     7200.00
01598           -1220.00     7200.00
01599           -1240.00     7200.00
01600           -1220.00     7120.00
01601           -1220.00     7040.00
01602           -1180.00     6960.00
01603           -1140.00     6960.00
01604           -1140.00     6880.00
01605           -1140.00     6800.00
01606           -1120.00     6720.00
01607           -1100.00     6720.00
01608           -1040.00     6640.00
01609           -1040.00     6560.00
01610           -1000.00     6560.00
01611            -960.00     6320.00
01612            -960.00     6320.00
01613            -900.00     6240.00
01614            -880.00     6160.00
01615            -840.00     6000.00
01616            -800.00     6000.00
01617            -780.00     5920.00
01618            -740.00     5840.00
01619            -720.00     5680.00
01620            -700.00     5600.00
01621            -640.00     5520.00
01622            -620.00     5520.00
01623            -580.00     5360.00
01624            -560.00     5200.00
01625            -560.00     5120.00
01626            -520.00     5040.00
01627            -480.00     4960.00
01628            -480.00     4800.00
01629            -460.00     4720.00
01630            -420.00     4560.00
01631            -400.00     4560.00
01632            -400.00     4400.00
01633            -380.00     4240.00
01634            -380.00     4080.00
01635            -340.00     4000.00
01636            -320.00     3920.00
01637            -300.00     3760.00
01638            -320.00     3680.00
01639            -300.00     3440.00
01640            -260.00     3360.00
01641            -260.00     3280.00
01642            -240.00     3120.00
01643            -240.00     2960.00
01644            -220.00     2800.00
01645            -220.00     2720.00
01646            -180.00     2640.00
01647            -220.00     2480.00
01648            -160.00     2320.00
01649            -180.00     2160.00
01650            -160.00     2080.00
01651            -160.00     1920.00
01652            -160.00     1840.00
01653            -140.00     1680.00
01654            -140.00     1520.00
01655            -120.00     1440.00
01656            -120.00     1200.00
01657            -100.00     1120.00
01658            -120.00     1040.00
01659            -100.00      800.00
01660            -100.00      720.00
01661            -100.00      560.00
01662            -100.00      400.00
01663             -80.00      240.00
01664             -60.00      160.00
01665             -80.00        0.00
01666             -60.00     -160.00
01667               0.00     -240.00
01668              60.00     -400.00
01669              60.00     -480.00
01670              40.00     -720.00
01671              20.00     -800.00
01672               0.00     -880.00
01673               0.00    -1040.00
01674              60.00    -1120.00
01675             340.00    -1280.00
01676             800.00    -1520.00
01677             540.00    -1840.00
01678            -320.00    -1840.00
01679           -1120.00    -2000.00
01680           -1180.00    -1760.00
01681             340.00    -2000.00
01682             740.00    -2560.00
01683            -380.00    -2080.00
01684             100.00    -2720.00
01685             480.00    -2880.00
01686             -80.00    -2320.00
01687             160.00    -3120.00
01688               0.00    -3360.00
01689              40.00    -2880.00
01690             500.00    -3360.00
01691             -60.00    -3520.00
01692            -160.00    -3600.00
01693             180.00    -3680.00
01694             -20.00    -3760.00
01695             160.00    -4160.00
01696             260.00    -4000.00
01697               0.00    -4080.00
01698               0.00    -4560.00
01699             240.00    -4320.00
01700             260.00    -4400.00
01701             -20.00    -4720.00
01702             140.00    -4800.00
01703             320.00    -4800.00
01704             140.00    -4880.00
01705              80.00    -5360.00
01706             160.00    -5120.00
01707             220.00    -5200.00
01708             220.00    -5520.00
01709             180.00    -5440.00
01710             240.00    -5520.00
01711             180.00    -5680.00
01712             200.00    -5840.00
01713             300.00    -5920.00
01714             220.00    -5840.00
01715             180.00    -6160.00
01716             260.00    -6160.00
01717             300.00    -6160.00
01718             240.00    -6320.00
01719             280.00    -6320.00
01720             320.00    -6400.00
01721             260.00    -6480.00
01722             300.00    -6640.00
01723             340.00    -6640.00
01724             340.00    -6640.00
01725             320.00    -6880.00
01726             380.00    -6800.00
01727             340.00    -6800.00
01728             340.00    -6960.00
01729             400.00    -7040.00
01730             460.00    -7040.00
01731             420.00    -7040.00
01732             420.00    -7200.00
01733             480.00    -7120.00
01734             480.00    -7200.00
01735             480.00    -7280.00
01736             540.00    -7280.00
01737             560.00    -7360.00
01738             560.00    -7440.00
01739             580.00    -7440.00
01740             620.00    -7440.00
01741             600.00    -7520.00
01742             620.00    -7520.00
01743             700.00    -7440.00
01744             700.00    -7520.00
01745             720.00    -7520.00
01746             780.00    -7520.00
01747             800.00    -7520.00
01748             800.00    -7520.00
01749             860.00    -7520.00
01750             920.00    -7520.00
01751             940.00    -7520.00
01752             960.00    -7520.00
01753            1020.00    -7520.00
01754            1020.00    -7520.00
01755            1040.00    -7520.00
01756            1100.00    -7520.00
01757            1140.00    -7440.00
01758            1140.00    -7360.00
01759            1180.00    -7360.00
01760            1200.00    -7280.00
01761            1200.00    -7280.00
01762            1200.00    -7280.00
01763            1260.00    -7200.00
01764            1260.00    -7120.00
01765            1220.00    -7200.00
01766            1220.00    -7120.00
01767            1220.00    -7120.00
01768            1200.00    -6960.00
01769            1200.00    -6960.00
01770            1200.00    -6880.00
01771            1180.00    -6880.00
01772            1160.00    -6800.00
01773            1120.00    -6720.00
01774            1100.00    -6640.00
01775            1040.00    -6640.00
01776            1040.00    -6560.00
01777            1020.00    -6480.00
01778             980.00    -6400.00
01779             940.00    -6320.00
01780             940.00    -6240.00
01781             880.00    -6160.00
01782             860.00    -6080.00
01783             820.00    -6000.00
01784             800.00    -5840.00
01785             780.00    -5840.00
01786             720.00    -5680.00
01787             700.00    -5600.00
01788             660.00    -5440.00
01789             620.00    -5440.00
01790             620.00    -5360.00
01791             580.00    -5200.00
01792             540.00    -5120.00
01793             520.00    -5040.00
01794             480.00    -4880.00
01795             480.00    -4800.00
01796             460.00    -4720.00
01797             440.00    -4560.00
01798             420.00    -4480.00
01799             380.00    -4400.00
01800             380.00    -4240.00
01801             340.00    -4160.00
01802             340.00    -4000.00
01803             340.00    -3920.00
01804             320.00    -3760.00
01805             300.00    -3680.00
01806             280.00    -3520.00
01807             260.00    -3440.00
01808             240.00    -3280.00
01809             240.00    -3120.00
01810             240.00    -2960.00
01811             220.00    -2880.00
01812             220.00    -2720.00
01813             220.00    -2640.00
01814             180.00    -2480.00
01815             180.00    -2400.00
01816             180.00    -2160.00
01817             180.00    -2080.00
01818             160.00    -2000.00
01819             160.00    -1760.00
01820             140.00    -1680.00
01821             140.00    -1520.00
01822             140.00    -1440.00
01823             140.00    -1200.00
01824             120.00    -1120.00
01825             140.00     -960.00
01826             100.00     -880.00
01827             100.00     -720.00
01828              80.00     -560.00
01829              80.00     -400.00
01830             100.00     -320.00
01831             100.00      -80.00
01832              80.00        0.00
01833              80.00      160.00
01834              80.00      320.00
01835             140.00      400.00
01836             160.00      480.00
01837             160.00      720.00
01838             140.00      800.00
01839              80.00      880.00
01840              80.00     1040.00
01841             120.00     1200.00
01842             540.00     1440.00
01843            1020.00     1680.00
01844             420.00     1760.00
01845            -740.00     1760.00
01846           -1740.00     1600.00
01847            -640.00     2080.00
01848            1180.00     2320.00
01849             120.00     2240.00
01850            -540.00     2480.00
01851             580.00     2320.00
01852              80.00     2800.00
01853            -500.00     3280.00
01854             100.00     2400.00
01855               0.00     3120.00
01856             240.00     3760.00
01857               0.00     2720.00
01858            -500.00     3440.00
01859             240.00     4080.00
01860            -140.00     3280.00
01861            -400.00     3920.00
01862             340.00     4000.00
01863            -140.00     4080.00
01864            -320.00     4320.00
01865              20.00     4000.00
01866             -40.00     4720.00
01867            -100.00     4560.00
01868            -280.00     4320.00
01869               0.00     5200.00
01870             -60.00     4800.00
01871            -320.00     4960.00
01872            -100.00     5200.00
01873            -160.00     5200.00
01874            -120.00     5440.00
01875            -140.00     5200.00
01876            -180.00     5680.00
01877            -160.00     5680.00
01878            -260.00     5520.00
01879            -160.00     6000.00
01880            -160.00     5840.00
01881            -260.00     6000.00
01882            -220.00     6080.00
01883            -260.00     6160.00
01884            -260.00     6320.00
01885            -240.00     6240.00
01886            -220.00     6480.00
01887            -300.00     6480.00
01888            -320.00     6480.00
01889            -300.00     6720.00
01890            -320.00     6640.00
01891            -320.00     6800.00
01892            -320.00     6800.00
01893            -340.00     6880.00
01894            -420.00     6880.00
01895            -340.00     6960.00
01896            -340.00     7120.00
01897            -400.00     7040.00
01898            -420.00     7120.00
01899            -420.00     7200.00
01900            -460.00     7280.00
01901            -500.00     7280.00
01902            -480.00     7360.00
01903            -500.00     7360.00
01904            -540.00     7360.00
01905            -500.00     7440.00
01906            -560.00     7440.00
01907            -620.00     7440.00
01908            -640.00     7440.00
01909            -620.00     7520.00
01910            -640.00     7600.00
01911            -700.00     7520.00
01912            -720.00     7520.00
01913            -740.00     7520.00
01914            -780.00     7520.00
01915            -800.00     7600.00
01916            -820.00     7600.00
01917            -880.00     7600.00
01918            -900.00     7520.00
01919            -940.00     7600.00
01920            -980.00     7520.00
01921           -1040.00     7440.00
01922           -1060.00     7520.00
01923           -1060.00     7600.00
01924           -1100.00     7440.00
01925           -1120.00     7440.00
01926           -1140.00     7440.00
01927           -1180.00     7440.00
01928           -1200.00     7360.00
01929           -1220.00     7360.00
01930           -1220.00     7360.00
01931           -1220.00     7200.00
01932           -1220.00     7200.00
01933           -1220.00     7200.00
01934           -1240.00     7120.00
01935           -1220.00     7120.00
01936           -1200.00     7040.00
01937           -1180.00     6960.00
01938           -1140.00     6880.00
01939           -1180.00     6880.00
01940           -1140.00     6800.00
01941           -1120.00     6640.00
01942           -1060.00     6640.00
01943           -1040.00     6640.00
01944           -1020.00     6480.00
01945            -980.00     6480.00
01946            -960.00     6400.00
01947            -900.00     6320.00
01948            -900.00     6240.00
01949            -860.00     6160.00
01950            -800.00     6000.00
01951            -780.00     5920.00
01952            -740.00     5840.00
01953            -740.00     5760.00
01954            -720.00     5680.00
01955            -660.00     5600.00
01956            -640.00     5520.00
01957            -620.00     5360.00
01958            -580.00     5280.00
01959            -560.00     5200.00
01960            -540.00     5040.00
01961            -500.00     4960.00
01962            -500.00     4880.00
01963            -460.00     4880.00
01964            -420.00     4640.00
01965            -420.00     4560.00
01966            -400.00     4400.00
01967            -400.00     4320.00
01968            -380.00     4160.00
01969            -340.00     4080.00
01970            -320.00     3920.00
01971            -320.00     3840.00
01972            -320.00     3680.00
01973            -300.00     3520.00
01974            -300.00     3440.00
01975            -260.00     3360.00
01976            -240.00     3200.00
01977            -240.00     3040.00
01978            -240.00     2960.00
01979            -220.00     2800.00
01980            -220.00     2640.00
01981            -220.00     2560.00
01982            -220.00     2400.00
01983            -180.00     2320.00
01984            -180.00     2160.00
01985            -160.00     2000.00
01986            -160.00     1840.00
01987            -140.00     1760.00
01988            -140.00     1600.00
01989            -120.00     1440.00
01990            -100.00     1360.00
01991            -120.00     1200.00
01992            -100.00     1040.00
01993            -100.00      880.00
01994            -100.00      720.00
01995            -100.00      720.00
01996            -100.00      480.00
01997             -80.00      320.00
01998             -80.00      240.00
01999             -80.00       80.00
02000             -60.00      -80.00
02001             -40.00     -240.00
02002               0.00     -320.00
02003              60.00     -480.00
02004              60.00     -560.00
02005              20.00     -720.00
02006               0.00     -880.00
02007               0.00     -960.00
02008              40.00    -1040.00
02009             160.00    -1200.00
02010             600.00    -1360.00
02011             800.00    -1760.00
02012             160.00    -1840.00
02013            -720.00    -2000.00
02014           -1340.00    -2000.00
02015            -500.00    -1760.00
02016             860.00    -2400.00
02017             140.00    -2320.00
02018            -300.00    -2240.00
02019             460.00    -3040.00
02020             180.00    -2480.00
02021               0.00    -2560.00
02022             160.00    -3360.00
02023            -100.00    -3040.00
02024             320.00    -3040.00
02025             320.00    -3600.00
02026            -260.00    -3600.00
02027              80.00    -3600.00
02028             100.00    -3600.00
02029             -20.00    -3920.00
02030             280.00    -4080.00
02031             140.00    -3920.00
02032             -60.00    -4400.00
02033             160.00    -4480.00
02034             300.00    -4320.00
02035             140.00    -4640.00
02036               0.00    -4800.00
02037             240.00    -4880.00
02038             240.00    -4800.00
02039              80.00    -5040.00
02040             140.00    -5280.00
02041             220.00    -5040.00
02042             240.00    -5360.00
02043             160.00    -5600.00
02044             220.00    -5440.00
02045             240.00    -5680.00
02046             160.00    -5840.00
02047             280.00    -5840.00
02048             260.00    -5840.00
02049             160.00    -6000.00
02050             220.00    -6160.00
02051             300.00    -6080.00
02052             260.00    -6320.00
02053             240.00    -6400.00
02054             320.00    -6320.00
02055             320.00    -6480.00
02056             260.00    -6560.00
02057             320.00    -6640.00
02058             340.00    -6640.00
02059             320.00    -6800.00
02060             340.00    -6880.00
02061             380.00    -6800.00
02062             340.00    -6960.00
02063             380.00    -6960.00
02064             460.00    -7040.00
02065             460.00    -7120.00
02066             420.00    -7120.00
02067             460.00    -7200.00
02068             480.00    -7120.00
02069             460.00    -7280.00
02070             500.00    -7280.00
02071             560.00    -7280.00
02072             560.00    -7360.00
02073             560.00    -7440.00
02074             620.00    -7440.00
02075             620.00    -7440.00
02076             620.00    -7520.00
02077             700.00    -7440.00
02078             720.00    -7520.00
02079             720.00    -7520.00
02080             740.00    -7520.00
02081             800.00    -7440.00
02082             800.00    -7600.00
02083             820.00    -7520.00
02084             860.00    -7520.00
02085             940.00    -7520.00
02086             940.00    -7520.00
02087             980.00    -7440.00
02088            1020.00    -7440.00
02089            1020.00    -7440.00
02090            1060.00    -7440.00
02091            1120.00    -7440.00
02092            1180.00    -7360.00
02093            1180.00    -7440.00
02094            1200.00    -7360.00
02095            1200.00    -7280.00
02096            1200.00    -7280.00
02097            1220.00    -7280.00
02098            1260.00    -7200.00
02099            1240.00    -7200.00
02100            1260.00    -7120.00
02101            1220.00    -7040.00
02102            1220.00    -6960.00
02103            1200.00    -6960.00
02104            1200.00    -6960.00
02105            1180.00    -6880.00
02106            1180.00    -6800.00
02107            1120.00    -6800.00
02108            1120.00    -6640.00
02109            1060.00    -6640.00
02110            1040.00    -6560.00
02111            1040.00    -6480.00
02112            1020.00    -6480.00
02113             960.00    -6320.00
02114             920.00    -6240.00
02115             880.00    -6240.00
02116             860.00    -6160.00
02117             820.00    -6000.00
02118             800.00    -5920.00
02119             780.00    -5840.00
02120             740.00    -5760.00
02121             700.00    -5680.00
02122             660.00    -5600.00
02123             640.00    -5440.00
02124             620.00    -5360.00
02125             620.00    -5280.00
02126             560.00    -5200.00
02127             540.00    -5040.00
02128             500.00    -4960.00
02129             480.00    -4880.00
02130             480.00    -4720.00
02131             440.00    -4640.00
02132             400.00    -4560.00
02133             400.00    -4400.00
02134             380.00    -4320.00
02135             340.00    -4240.00
02136             340.00    -4080.00
02137             320.00    -3920.00
02138             320.00    -3840.00
02139             320.00    -3680.00
02140             300.00    -3600.00
02141             300.00    -3440.00
02142             260.00    -3360.00
02143             240.00    -3200.00
02144             240.00    -3120.00
02145             240.00    -2880.00
02146             220.00    -2800.00
02147             220.00    -2720.00
02148             180.00    -2560.00
02149             180.00    -2480.00
02150             180.00    -2320.00
02151             180.00    -2160.00
02152             160.00    -2000.00
02153             160.00    -1840.00
02154             160.00    -1760.00
02155             140.00    -1600.00
02156             140.00    -1440.00
02157             140.00    -1360.00
02158             140.00    -1200.00
02159             120.00    -1120.00
02160             100.00     -880.00
02161             100.00     -720.00
02162              80.00     -720.00
02163             100.00     -480.00
02164              80.00     -320.00
02165              80.00     -240.00
02166              80.00      -80.00
02167              80.00       80.00
02168              80.00      160.00
02169             100.00      400.00
02170             160.00      400.00
02171             160.00      560.00
02172             140.00      720.00
02173             100.00      880.00
02174              80.00      960.00
02175              80.00     1120.00
02176             240.00     1360.00
02177             860.00     1520.00
02178             860.00     1680.00
02179            -140.00     1840.00
02180           -1360.00     1680.00
02181           -1540.00     1680.00
02182             420.00     2320.00
02183            1000.00     2320.00
02184            -580.00     2320.00
02185               0.00     2320.00
02186             640.00     2320.00
02187            -460.00     3280.00
02188            -180.00     2720.00
02189             140.00     2560.00
02190              20.00     3760.00
02191             300.00     3200.00
02192            -400.00     2800.00
02193            -180.00     4080.00
02194             260.00     3680.00
02195            -480.00     3440.00
02196              20.00     4080.00
02197             240.00     3920.00
02198            -380.00     4320.00
02199            -100.00     4160.00
02200               0.00     4240.00
02201             -20.00     4880.00
02202            -220.00     4240.00
02203            -200.00     4800.00
02204              60.00     5120.00
02205            -240.00     4640.00
02206            -220.00     5200.00
02207             -80.00     5200.00
02208            -160.00     5360.00
02209            -100.00     5360.00
02210            -180.00     5360.00
02211            -160.00     5840.00
02212            -240.00     5520.00
02213            -240.00     5840.00
02214            -120.00     5840.00
02215            -240.00     5840.00
02216            -240.00     6160.00
02217            -240.00     6000.00
02218            -260.00     6320.00
02219            -240.00     6240.00
02220            -220.00     6320.00
02221            -260.00     6560.00
02222            -320.00     6480.00
02223            -300.00     6640.00
02224            -300.00     6640.00
02225            -300.00     6720.00
02226            -320.00     6800.00
02227            -320.00     6880.00
02228            -380.00     6880.00
02229            -400.00     6880.00
02230            -340.00     7120.00
02231            -380.00     7040.00
02232            -420.00     7120.00
02233            -420.00     7120.00
02234            -460.00     7280.00
02235            -480.00     7280.00
02236            -500.00     7360.00
02237            -480.00     7360.00
02238            -500.00     7360.00
02239            -540.00     7440.00
02240            -540.00     7520.00
02241            -580.00     7520.00
02242            -640.00     7440.00
02243            -640.00     7520.00
02244            -620.00     7520.00
02245            -680.00     7520.00
02246            -740.00     7520.00
02247            -720.00     7600.00
02248            -780.00     7600.00
02249            -800.00     7520.00
02250            -820.00     7520.00
02251            -860.00     7600.00
02252            -900.00     7520.00
02253            -940.00     7600.00
02254            -960.00     7600.00
02255           -1020.00     7520.00
02256           -1060.00     7440.00
02257           -1060.00     7600.00
02258           -1060.00     7520.00
02259           -1120.00     7520.00
02260           -1140.00     7440.00
02261           -1180.00     7440.00
02262           -1200.00     7360.00
02263           -1220.00     7280.00
02264           -1200.00     7360.00
02265           -1220.00     7280.00
02266           -1220.00     7200.00
02267           -1220.00     7200.00
02268           -1220.00     7200.00
02269           -1220.00     7120.00
02270           -1200.00     7040.00
02271           -1180.00     6960.00
02272           -1140.00     6960.00
02273           -1140.00     6880.00
02274           -1140.00     6880.00
02275           -1120.00     6800.00
02276           -1100.00     6640.00
02277           -1040.00     6640.00
02278           -1020.00     6560.00
02279           -1020.00     6480.00
02280            -960.00     6400.00
02281            -940.00     6320.00
02282            -900.00     6240.00
02283            -880.00     6160.00
02284            -860.00     6160.00
02285            -800.00     6000.00
02286            -780.00     5920.00
02287            -740.00     5840.00
02288            -720.00     5680.00
02289            -720.00     5680.00
02290            -640.00     5520.00
02291            -620.00     5520.00
02292            -580.00     5360.00
02293            -580.00     5200.00
02294            -560.00     5200.00
02295            -500.00     5040.00
02296            -480.00     4960.00
02297            -480.00     4880.00
02298            -460.00     4640.00
02299            -420.00     4640.00
02300            -400.00     4480.00
02301            -400.00     4400.00
02302            -380.00     4240.00
02303            -360.00     4080.00
02304            -320.00     4000.00
02305            -320.00     3920.00
02306            -320.00     3760.00
02307            -320.00     3680.00
02308            -300.00     3520.00
02309            -280.00     3440.00
02310            -260.00     3280.00
02311            -240.00     3120.00
02312            -240.00     2960.00
02313            -240.00     2960.00
02314            -220.00     2720.00
02315            -220.00     2640.00
02316            -200.00     2480.00
02317            -160.00     2400.00
02318            -180.00     2240.00
02319            -160.00     2080.00
02320            -160.00     2000.00
02321            -160.00     1760.00
02322            -160.00     1680.00
02323            -140.00     1520.00
02324            -100.00     1360.00
02325            -100.00     1200.00
02326            -100.00     1120.00
02327            -100.00      960.00
02328            -100.00      800.00
02329            -100.00      720.00
02330            -100.00      560.00
02331             -80.00      480.00
02332             -80.00      240.00
02333             -60.00      160.00
02334             -60.00       80.00
02335             -60.00     -160.00
02336             -20.00     -240.00
02337              60.00     -400.00
02338              80.00     -480.00
02339              60.00     -720.00
02340              20.00     -800.00
02341              20.00     -880.00
02342               0.00    -1040.00
02343              60.00    -1120.00
02344             320.00    -1360.00
02345             820.00    -1520.00
02346             580.00    -1840.00
02347            -300.00    -1840.00
02348           -1100.00    -2080.00
02349           -1180.00    -1840.00
02350             300.00    -2000.00
02351             780.00    -2560.00
02352            -340.00    -2080.00
02353              80.00    -2640.00
02354             480.00    -2960.00
02355             -80.00    -2320.00
02356             140.00    -3040.00
02357              20.00    -3360.00
02358              20.00    -2880.00
02359             480.00    -3360.00
02360             -20.00    -3600.00
02361            -160.00    -3600.00
02362             180.00    -3680.00
02363               0.00    -3760.00
02364             140.00    -4080.00
02365             300.00    -4000.00
02366               0.00    -4080.00
02367               0.00    -4560.00
02368             240.00    -4400.00
02369             260.00    -4400.00
02370               0.00    -4720.00
02371             100.00    -4800.00
02372             300.00    -4800.00
02373             120.00    -4880.00
02374              60.00    -5280.00
02375             160.00    -5200.00
02376             220.00    -5120.00
02377             220.00    -5600.00
02378             160.00    -5440.00
02379             220.00    -5520.00
02380             180.00    -5760.00
02381             220.00    -5840.00
02382             300.00    -5920.00
02383             220.00    -5920.00
02384             160.00    -6160.00
02385             260.00    -6160.00
02386             300.00    -6160.00
02387             240.00    -6320.00
02388             300.00    -6320.00
02389             340.00    -6480.00
02390             260.00    -6480.00
02391             280.00    -6640.00
02392             340.00    -6640.00
02393             340.00    -6720.00
02394             340.00    -6880.00
02395             380.00    -6880.00
02396             380.00    -6880.00
02397             340.00    -6960.00
02398             400.00    -7040.00
02399             480.00    -7040.00
02400             460.00    -7120.00
02401             440.00    -7200.00
02402             480.00    -7120.00
02403             480.00    -7200.00
02404             480.00    -7280.00
02405             540.00    -7280.00
02406             560.00    -7280.00
02407             560.00    -7440.00
02408             580.00    -7440.00
02409             620.00    -7440.00
02410             620.00    -7440.00
02411             640.00    -7520.00
02412             720.00    -7440.00
02413             720.00    -7520.00
02414             740.00    -7520.00
02415             780.00    -7520.00
02416             800.00    -7520.00
02417             800.00    -7520.00
02418             860.00    -7520.00
02419             900.00    -7520.00
02420             940.00    -7520.00
02421             960.00    -7520.00
02422            1020.00    -7520.00
02423            1020.00    -7440.00
02424            1040.00    -7440.00
02425            1100.00    -7440.00
02426            1140.00    -7440.00
02427            1180.00    -7440.00
02428            1180.00    -7360.00
02429            1200.00    -7280.00
02430            1200.00    -7280.00
02431            1220.00    -7280.00
02432            1260.00    -7200.00
02433            1260.00    -7120.00
02434            1240.00    -7200.00
02435            1220.00    -7120.00
02436            1200.00    -7120.00
02437            1200.00    -7040.00
02438            1180.00    -6960.00
02439            1200.00    -6960.00
02440            1180.00    -6800.00
02441            1140.00    -6800.00
02442            1120.00    -6720.00
02443            1100.00    -6640.00
02444            1040.00    -6560.00
02445            1040.00    -6480.00
02446            1020.00    -6480.00
02447             980.00    -6320.00
02448             940.00    -6320.00
02449             900.00    -6160.00
02450             880.00    -6160.00
02451             860.00    -6160.00
02452             820.00    -6000.00
02453             800.00    -5920.00
02454             760.00    -5840.00
02455             720.00    -5680.00
02456             700.00    -5600.00
02457             660.00    -5440.00
02458             620.00    -5360.00
02459             620.00    -5280.00
02460             580.00    -5200.00
02461             540.00    -5120.00
02462             540.00    -5040.00
02463             500.00    -4880.00
02464             480.00    -4880.00
02465             480.00    -4720.00
02466             460.00    -4560.00
02467             420.00    -4480.00
02468             380.00    -4320.00
02469             380.00    -4320.00
02470             340.00    -4080.00
02471             340.00    -4000.00
02472             340.00    -3920.00
02473             320.00    -3760.00
02474             300.00    -3680.00
02475             280.00    -3520.00
02476             260.00    -3360.00
02477             260.00    -3280.00
02478             260.00    -3120.00
02479             240.00    -3040.00
02480             240.00    -2800.00
02481             220.00    -2800.00
02482             220.00    -2640.00
02483             180.00    -2480.00
02484             180.00    -2320.00
02485             180.00    -2240.00
02486             180.00    -2080.00
02487             160.00    -2000.00
02488             160.00    -1840.00
02489             140.00    -1680.00
02490             160.00    -1520.00
02491             140.00    -1440.00
02492             140.00    -1200.00
02493             140.00    -1120.00
02494             140.00    -1040.00
02495             100.00     -880.00
02496              80.00     -720.00
02497             100.00     -560.00
02498              80.00     -400.00
02499             100.00     -240.00
02500              80.00     -160.00
02501              80.00        0.00
02502              60.00      160.00
02503              80.00      240.00
02504             140.00      400.00
02505             160.00      560.00
02506             140.00      720.00
02507             100.00      800.00
02508              80.00      880.00
02509              60.00     1040.00
02510             120.00     1120.00
02511             500.00     1360.00
02512            1020.00     1600.00
02513             460.00     1760.00
02514            -740.00     1760.00
02515           -1740.00     1680.00
02516            -700.00     2080.00
02517            1140.00     2400.00
02518             180.00     2240.00
02519            -560.00     2480.00
02520             560.00     2240.00
02521             140.00     2800.00
02522            -480.00     3280.00
02523              80.00     2480.00
02524               0.00     3120.00
02525             240.00     3760.00
02526               0.00     2720.00
02527            -500.00     3440.00
02528             240.00     4080.00
02529            -120.00     3360.00
02530            -420.00     3920.00
02531             340.00     4000.00
02532            -100.00     4080.00
02533            -320.00     4400.00
02534              20.00     4000.00
02535             -20.00     4720.00
02536             -80.00     4640.00
02537            -300.00     4320.00
02538             -20.00     5120.00
02539             -20.00     4800.00
02540            -320.00     4960.00
02541            -100.00     5200.00
02542            -160.00     5200.00
02543            -140.00     5360.00
02544            -140.00     5200.00
02545            -160.00     5600.00
02546            -160.00     5680.00
02547            -260.00     5520.00
02548            -160.00     6000.00
02549            -180.00     5840.00
02550            -260.00     5920.00
02551            -220.00     6160.00
02552            -240.00     6160.00
02553            -240.00     6320.00
02554            -220.00     6240.00
02555            -220.00     6480.00
02556            -300.00     6400.00
02557            -320.00     6480.00
02558            -300.00     6640.00
02559            -300.00     6640.00
02560            -300.00     6720.00
02561            -300.00     6800.00
02562            -340.00     6880.00
02563            -420.00     6880.00
02564            -340.00     6960.00
02565            -340.00     7120.00
02566            -400.00     7040.00
02567            -420.00     7120.00
02568            -420.00     7200.00
02569            -460.00     7280.00
02570            -500.00     7200.00
02571            -480.00     7360.00
02572            -500.00     7360.00
02573            -540.00     7360.00
02574            -500.00     7440.00
02575            -560.00     7440.00
02576            -640.00     7520.00
02577            -640.00     7440.00
02578            -620.00     7520.00
02579            -640.00     7600.00
02580            -720.00     7520.00
02581            -720.00     7520.00
02582            -740.00     7520.00
02583            -800.00     7600.00
02584            -820.00     7520.00
02585            -820.00     7520.00
02586            -880.00     7520.00
02587            -900.00     7520.00
02588            -960.00     7600.00
02589            -960.00     7600.00
02590           -1040.00     7520.00
02591           -1060.00     7440.00
02592           -1060.00     7520.00
02593           -1100.00     7520.00
02594           -1140.00     7440.00
02595           -1140.00     7440.00
02596           -1180.00     7440.00
02597           -1180.00     7440.00
02598           -1200.00     7280.00
02599           -1220.00     7280.00
02600           -1220.00     7200.00
02601           -1220.00     7200.00
02602           -1220.00     7120.00
02603           -1240.00     7120.00
02604           -1220.00     7120.00
02605           -1200.00     7040.00
02606           -1160.00     6960.00
02607           -1140.00     6880.00
02608           -1140.00     6800.00
02609           -1120.00     6800.00
02610           -1120.00     6640.00
02611           -1060.00     6640.00
02612           -1040.00     6560.00
02613           -1020.00     6480.00
02614            -960.00     6480.00
02615            -960.00     6320.00
02616            -940.00     6320.00
02617            -900.00     6240.00
02618            -880.00     6160.00
02619            -800.00     6000.00
02620            -780.00     5920.00
02621            -740.00     5840.00
02622            -720.00     5840.00
02623            -700.00     5680.00
02624            -660.00     5600.00
02625            -620.00     5520.00
02626            -580.00     5360.00
02627            -560.00     5280.00
02628            -560.00     5200.00
02629            -540.00     5040.00
02630            -500.00     4960.00
02631            -480.00     4880.00
02632            -480.00     4720.00
02633            -420.00     4640.00
02634            -420.00     4560.00
02635            -400.00     4400.00
02636            -400.00     4320.00
02637            -380.00     4160.00
02638            -340.00     4080.00
02639            -320.00     3920.00
02640            -320.00     3920.00
02641            -320.00     3760.00
02642            -320.00     3600.00
02643            -300.00     3440.00
02644            -260.00     3360.00
02645            -240.00     3200.00
02646            -260.00     3040.00
02647            -240.00     2960.00
02648            -240.00     2800.00
02649            -220.00     2720.00
02650            -200.00     2560.00
02651            -200.00     2400.00
02652            -180.00     2320.00
02653            -160.00     2160.00
02654            -160.00     2080.00
02655            -160.00     1840.00
02656            -160.00     1680.00
02657            -160.00     1600.00
02658            -120.00     1520.00
02659            -100.00     1360.00
02660            -100.00     1200.00
02661            -100.00     1120.00
02662            -120.00      880.00
02663            -100.00      800.00
02664            -100.00      560.00
02665            -100.00      480.00
02666             -80.00      320.00
02667             -60.00      240.00
02668             -60.00      160.00
02669             -60.00        0.00
02670             -40.00     -240.00
02671              20.00     -400.00
02672              60.00     -400.00
02673              80.00     -560.00
02674              20.00     -720.00
02675              20.00     -880.00
02676               0.00     -880.00
02677              20.00    -1040.00
02678             140.00    -1200.00
02679             580.00    -1360.00
02680             820.00    -1760.00
02681             200.00    -1840.00
02682            -700.00    -2000.00
02683           -1300.00    -2000.00
02684            -560.00    -1840.00
02685             860.00    -2400.00
02686             160.00    -2320.00
02687            -320.00    -2160.00
02688             420.00    -3120.00
02689             180.00    -2560.00
02690             -20.00    -2560.00
02691             160.00    -3360.00
02692            -100.00    -3040.00
02693             320.00    -3040.00
02694             320.00    -3440.00
02695            -260.00    -3600.00
02696              60.00    -3600.00
02697             100.00    -3680.00
02698             -20.00    -3920.00
02699             260.00    -4160.00
02700             140.00    -3920.00
02701             -60.00    -4400.00
02702             100.00    -4560.00
02703             300.00    -4320.00
02704             140.00    -4640.00
02705             -20.00    -4800.00
02706             240.00    -4880.00
02707             220.00    -4720.00
02708              60.00    -5040.00
02709             120.00    -5280.00
02710             200.00    -5040.00
02711             220.00    -5360.00
02712             160.00    -5600.00
02713             200.00    -5440.00
02714             220.00    -5600.00
02715             160.00    -5760.00
02716             260.00    -5920.00
02717             260.00    -5840.00
02718             160.00    -6000.00
02719             220.00    -6160.00
02720             300.00    -6080.00
02721             260.00    -6320.00
02722             240.00    -6400.00
02723             320.00    -6400.00
02724             320.00    -6480.00
02725             260.00    -6560.00
02726             300.00    -6640.00
02727             380.00    -6640.00
02728             320.00    -6800.00
02729             340.00    -6880.00
02730             380.00    -6800.00
02731             360.00    -6880.00
02732             380.00    -6960.00
02733             460.00    -6960.00
02734             460.00    -7120.00
02735             420.00    -7200.00
02736             460.00    -7200.00
02737             480.00    -7120.00
02738             480.00    -7200.00
02739             500.00    -7280.00
02740             560.00    -7280.00
02741             560.00    -7280.00
02742             580.00    -7440.00
02743             600.00    -7440.00
02744             620.00    -7440.00
02745             620.00    -7440.00
02746             660.00    -7520.00
02747             720.00    -7520.00
02748             720.00    -7520.00
02749             740.00    -7520.00
02750             780.00    -7440.00
02751             800.00    -7520.00
02752             820.00    -7520.00
02753             880.00    -7520.00
02754             940.00    -7520.00
02755             940.00    -7520.00
02756             980.00    -7520.00
02757            1020.00    -7520.00
02758            1020.00    -7520.00
02759            1060.00    -7520.00
02760            1120.00    -7440.00
02761            1140.00    -7440.00
02762            1180.00    -7440.00
02763            1180.00    -7360.00
02764            1200.00    -7280.00
02765            1200.00    -7280.00
02766            1220.00    -7280.00
02767            1220.00    -7120.00
02768            1260.00    -7120.00
02769            1220.00    -7120.00
02770            1200.00    -7120.00
02771            1200.00    -7040.00
02772            1200.00    -6960.00
02773            1180.00    -6960.00
02774            1180.00    -6960.00
02775            1140.00    -6800.00
02776            1120.00    -6800.00
02777            1120.00    -6640.00
02778            1060.00    -6640.00
02779            1040.00    -6560.00
02780            1040.00    -6480.00
02781            1020.00    -6400.00
02782             960.00    -6320.00
02783             940.00    -6240.00
02784             880.00    -6160.00
02785             860.00    -6080.00
02786             820.00    -6000.00
02787             800.00    -5920.00
02788             800.00    -5920.00
02789             720.00    -5840.00
02790             700.00    -5680.00
02791             660.00    -5520.00
02792             640.00    -5360.00
02793             620.00    -5360.00
02794             620.00    -5280.00
02795             580.00    -5200.00
02796             540.00    -5040.00
02797             500.00    -4960.00
02798             480.00    -4880.00
02799             480.00    -4720.00
02800             460.00    -4640.00
02801             440.00    -4560.00
02802             400.00    -4400.00
02803             380.00    -4320.00
02804             380.00    -4240.00
02805             340.00    -4080.00
02806             340.00    -3920.00
02807             320.00    -3840.00
02808             320.00    -3760.00
02809             300.00    -3600.00
02810             280.00    -3440.00
02811             260.00    -3280.00
02812             240.00    -3280.00
02813             240.00    -3040.00
02814             240.00    -2880.00
02815             220.00    -2800.00
02816             220.00    -2720.00
02817             220.00    -2640.00
02818             200.00    -2480.00
02819             180.00    -2320.00
02820             180.00    -2160.00
02821             180.00    -2000.00
02822             160.00    -1920.00
02823             160.00    -1760.00
02824             140.00    -1600.00
02825             140.00    -1440.00
02826             140.00    -1360.00
02827             140.00    -1200.00
02828             140.00    -1040.00
02829             100.00     -880.00
02830              80.00     -800.00
02831              80.00     -640.00
02832              80.00     -560.00
02833              80.00     -400.00
02834              60.00     -160.00
02835              80.00      -80.00
02836              60.00       80.00
02837              60.00      160.00
02838             100.00      400.00
02839             140.00      480.00
02840             160.00      560.00
02841             140.00      720.00
02842              80.00      880.00
02843              80.00      960.00
02844              80.00     1120.00
02845             220.00     1280.00
02846             840.00     1520.00
02847             880.00     1680.00
02848            -100.00     1840.00
02849           -1320.00     1680.00
02850           -1580.00     1680.00
02851             360.00     2320.00
02852            1040.00     2320.00
02853            -560.00     2320.00
02854             -60.00     2400.00
02855             660.00     2320.00
02856            -420.00     3200.00
02857            -220.00     2880.00
02858             140.00     2480.00
02859               0.00     3760.00
02860             320.00     3280.00
02861            -380.00     2800.00
02862            -240.00     4080.00
02863             300.00     3760.00
02864            -480.00     3440.00
02865             -20.00     4080.00
02866             300.00     3920.00
02867            -360.00     4320.00
02868            -100.00     4240.00
02869               0.00     4240.00
02870             -20.00     4880.00
02871            -180.00     4320.00
02872            -220.00     4720.00
02873              80.00     5120.00
02874            -220.00     4640.00
02875            -220.00     5200.00
02876            -100.00     5120.00
02877            -180.00     5360.00
02878             -80.00     5360.00
02879            -200.00     5280.00
02880            -160.00     5840.00
02881            -220.00     5520.00
02882            -240.00     5840.00
02883            -140.00     6000.00
02884            -240.00     5840.00
02885            -220.00     6160.00
02886            -240.00     6000.00
02887            -260.00     6240.00
02888            -240.00     6240.00
02889            -220.00     6320.00
02890            -240.00     6560.00
02891            -320.00     6480.00
02892            -300.00     6640.00
02893            -300.00     6640.00
02894            -320.00     6720.00
02895            -320.00     6800.00
02896            -340.00     6880.00
02897            -400.00     6880.00
02898            -420.00     6880.00
02899            -340.00     7120.00
02900            -380.00     7040.00
02901            -420.00     7120.00
02902            -420.00     7120.00
02903            -420.00     7360.00
02904            -480.00     7280.00
02905            -500.00     7360.00
02906            -480.00     7440.00
02907            -500.00     7360.00
02908            -540.00     7440.00
02909            -540.00     7440.00
02910            -580.00     7440.00
02911            -640.00     7440.00
02912            -640.00     7440.00
02913            -640.00     7600.00
02914            -660.00     7520.00
02915            -720.00     7520.00
02916            -720.00     7600.00
02917            -780.00     7520.00
02918            -820.00     7600.00
02919            -820.00     7520.00
02920            -860.00     7520.00
02921            -900.00     7520.00
02922            -900.00     7600.00
02923            -940.00     7600.00
02924           -1020.00     7600.00
02925           -1060.00     7440.00
02926           -1040.00     7520.00
02927           -1060.00     7520.00
02928           -1120.00     7440.00
02929           -1140.00     7440.00
02930           -1180.00     7360.00
02931           -1200.00     7360.00
02932           -1200.00     7360.00
02933           -1220.00     7280.00
02934           -1220.00     7360.00
02935           -1200.00     7200.00
02936           -1200.00     7200.00
02937           -1220.00     7200.00
02938           -1220.00     7120.00
02939           -1200.00     7040.00
02940           -1180.00     6960.00
02941           -1140.00     6960.00
02942           -1140.00     6880.00
02943           -1140.00     6800.00
02944           -1120.00     6800.00
02945           -1100.00     6640.00
02946           -1040.00     6640.00
02947           -1020.00     6560.00
02948            -980.00     6480.00
02949            -960.00     6480.00
02950            -940.00     6320.00
02951            -900.00     6240.00
02952            -880.00     6160.00
02953            -820.00     6080.00
02954            -800.00     6000.00
02955            -780.00     5920.00
02956            -740.00     5840.00
02957            -740.00     5680.00
02958            -700.00     5600.00
02959            -640.00     5520.00
02960            -620.00     5520.00
02961            -600.00     5360.00
02962            -580.00     5280.00
02963            -560.00     5200.00
02964            -520.00     5040.00
02965            -500.00     4880.00
02966            -480.00     4880.00
02967            -460.00     4720.00
02968            -440.00     4640.00
02969            -420.00     4560.00
02970            -400.00     4320.00
02971            -400.00     4240.00
02972            -380.00     4080.00
02973            -320.00     4000.00
02974            -320.00     3920.00
02975            -320.00     3760.00
02976            -320.00     3680.00
02977            -300.00     3520.00
02978            -260.00     3360.00
02979            -260.00     3280.00
02980            -240.00     3120.00
02981            -240.00     3040.00
02982            -240.00     2800.00
02983            -220.00     2800.00
02984            -220.00     2640.00
02985            -220.00     2480.00
02986            -180.00     2320.00
02987            -160.00     2160.00
02988            -160.00     2080.00
02989            -160.00     2000.00
02990            -160.00     1840.00
02991            -140.00     1680.00
02992            -120.00     1520.00
02993            -100.00     1360.00
02994            -100.00     1280.00
02995            -100.00     1120.00
02996            -100.00      960.00
02997            -100.00      800.00
02998            -100.00      720.00
02999            -100.00      560.00
03000             -80.00      400.00
03001             -80.00      240.00
03002             -60.00      160.00
03003             -60.00        0.00
03004             -60.00     -160.00
03005             -20.00     -240.00
03006              60.00     -400.00
03007              60.00     -480.00
03008              40.00     -720.00
03009              20.00     -800.00
03010               0.00     -880.00
03011              20.00    -1040.00
03012              60.00    -1200.00
03013             320.00    -1280.00
03014             800.00    -1520.00
03015             620.00    -1840.00
03016            -260.00    -1840.00
03017           -1060.00    -2000.00
03018           -1220.00    -1840.00
03019             240.00    -2000.00
03020             800.00    -2480.00
03021            -320.00    -2080.00
03022              60.00    -2640.00
03023             480.00    -2960.00
03024             -80.00    -2320.00
03025             140.00    -3040.00
03026              20.00    -3360.00
03027               0.00    -2880.00
03028             500.00    -3360.00
03029             -20.00    -3600.00
03030            -180.00    -3600.00
03031             180.00    -3680.00
03032             -20.00    -3760.00
03033             100.00    -4160.00
03034             260.00    -4000.00
03035               0.00    -4080.00
03036             -20.00    -4560.00
03037             240.00    -4400.00
03038             260.00    -4400.00
03039               0.00    -4720.00
03040             100.00    -4880.00
03041             300.00    -4880.00
03042             140.00    -4880.00
03043              80.00    -5280.00
03044             160.00    -5200.00
03045             220.00    -5200.00
03046             200.00    -5520.00
03047             160.00    -5440.00
03048             240.00    -5520.00
03049             180.00    -5760.00
03050             220.00    -5840.00
03051             300.00    -5840.00
03052             220.00    -5920.00
03053             180.00    -6160.00
03054             260.00    -6160.00
03055             300.00    -6080.00
03056             240.00    -6320.00
03057             280.00    -6400.00
03058             320.00    -6480.00
03059             260.00    -6480.00
03060             260.00    -6560.00
03061             340.00    -6640.00
03062             380.00    -6640.00
03063             340.00    -6800.00
03064             380.00    -6800.00
03065             380.00    -6880.00
03066             360.00    -6960.00
03067             400.00    -6960.00
03068             480.00    -7040.00
03069             440.00    -7120.00
03070             460.00    -7200.00
03071             460.00    -7120.00
03072             480.00    -7200.00
03073             480.00    -7280.00
03074             540.00    -7280.00
03075             580.00    -7280.00
03076             560.00    -7440.00
03077             620.00    -7440.00
03078             620.00    -7440.00
03079             620.00    -7440.00
03080             640.00    -7520.00
03081             720.00    -7520.00
03082             720.00    -7520.00
03083             720.00    -7520.00
03084             780.00    -7520.00
03085             800.00    -7520.00
03086             800.00    -7600.00
03087             860.00    -7520.00
03088             920.00    -7520.00
03089             940.00    -7520.00
03090             980.00    -7520.00
03091            1020.00    -7520.00
03092            1020.00    -7440.00
03093            1040.00    -7440.00
03094            1100.00    -7440.00
03095            1140.00    -7440.00
03096            1180.00    -7440.00
03097            1180.00    -7360.00
03098            1200.00    -7440.00
03099            1200.00    -7280.00
03100            1200.00    -7280.00
03101            1240.00    -7200.00
03102            1260.00    -7280.00
03103            1240.00    -7120.00
03104            1220.00    -7120.00
03105            1220.00    -7120.00
03106            1200.00    -7040.00
03107            1180.00    -6960.00
03108            1200.00    -6880.00
03109            1180.00    -6880.00
03110            1140.00    -6800.00
03111            1120.00    -6800.00
03112            1100.00    -6640.00
03113            1060.00    -6640.00
03114            1040.00    -6480.00
03115            1040.00    -6480.00
03116             980.00    -6400.00
03117             960.00    -6320.00
03118             920.00    -6240.00
03119             880.00    -6160.00
03120             860.00    -6080.00
03121             820.00    -6000.00
03122             820.00    -5920.00
03123             780.00    -5840.00
03124             720.00    -5680.00
03125             700.00    -5600.00
03126             680.00    -5520.00
03127             640.00    -5440.00
03128             620.00    -5360.00
03129             620.00    -5280.00
03130             560.00    -5040.00
03131             540.00    -5040.00
03132             520.00    -4880.00
03133             480.00    -4800.00
03134             480.00    -4720.00
03135             460.00    -4560.00
03136             440.00    -4560.00
03137             400.00    -4400.00
03138             400.00    -4240.00
03139             360.00    -4080.00
03140             340.00    -4000.00
03141             340.00    -3920.00
03142             320.00    -3760.00
03143             320.00    -3680.00
03144             300.00    -3600.00
03145             280.00    -3440.00
03146             260.00    -3280.00
03147             240.00    -3120.00
03148             240.00    -3040.00
03149             240.00    -2880.00
03150             220.00    -2800.00
03151             220.00    -2640.00
03152             180.00    -2480.00
03153             180.00    -2400.00
03154             180.00    -2240.00
03155             180.00    -2080.00
03156             160.00    -2000.00
03157             140.00    -1840.00
03158             140.00    -1680.00
03159             140.00    -1520.00
03160             140.00    -1440.00
03161             140.00    -1280.00
03162             140.00    -1120.00
03163             100.00    -1040.00
03164              80.00     -880.00
03165             100.00     -720.00
03166             100.00     -560.00
03167              80.00     -480.00
03168              80.00     -240.00
03169              80.00     -160.00
03170              80.00        0.00
03171              80.00      160.00
03172              80.00      240.00
03173             140.00      400.00
03174             160.00      480.00
03175             160.00      720.00
03176             100.00      720.00
03177              80.00      880.00
03178              80.00     1040.00
03179             120.00     1200.00
03180             480.00     1440.00
03181            1020.00     1680.00
03182             500.00     1760.00
03183            -700.00     1840.00
03184           -1700.00     1520.00
03185            -780.00     2080.00
03186            1140.00     2400.00
03187             240.00     2240.00
03188            -600.00     2480.00
03189             540.00     2240.00
03190             180.00     2720.00
03191            -500.00     3280.00
03192             100.00     2400.00
03193              20.00     3040.00
03194             220.00     3760.00
03195              60.00     2800.00
03196            -500.00     3440.00
03197             220.00     4160.00
03198             -80.00     3360.00
03199            -420.00     3840.00
03200             320.00     4080.00
03201             -60.00     4080.00
03202            -320.00     4400.00
03203               0.00     4000.00
03204             -40.00     4640.00
03205             -80.00     4640.00
03206            -260.00     4320.00
03207             -20.00     5120.00
03208             -20.00     4800.00
03209            -300.00     4880.00
03210            -100.00     5200.00
03211            -140.00     5200.00
03212            -140.00     5520.00
03213            -140.00     5200.00
03214            -180.00     5600.00
03215            -160.00     5680.00
03216            -260.00     5520.00
03217            -160.00     6000.00
03218            -160.00     5840.00
03219            -260.00     6000.00
03220            -220.00     6160.00
03221            -260.00     6160.00
03222            -260.00     6240.00
03223            -240.00     6240.00
03224            -220.00     6560.00
03225            -300.00     6480.00
03226            -320.00     6480.00
03227            -300.00     6640.00
03228            -300.00     6640.00
03229            -320.00     6800.00
03230            -320.00     6800.00
03231            -380.00     6880.00
03232            -420.00     6880.00
03233            -360.00     6960.00
03234            -340.00     7040.00
03235            -400.00     7120.00
03236            -420.00     7120.00
03237            -420.00     7200.00
03238            -460.00     7280.00
03239            -500.00     7200.00
03240            -480.00     7360.00
03241            -480.00     7360.00
03242            -520.00     7360.00
03243            -520.00     7360.00
03244            -540.00     7520.00
03245            -640.00     7520.00
03246            -660.00     7440.00
03247            -620.00     7520.00
03248            -640.00     7520.00
03249            -700.00     7440.00
03250            -720.00     7520.00
03251            -740.00     7520.00
03252            -780.00     7520.00
03253            -820.00     7520.00
03254            -800.00     7600.00
03255            -880.00     7520.00
03256            -900.00     7600.00
03257            -940.00     7520.00
03258            -980.00     7520.00
03259           -1040.00     7440.00
03260           -1060.00     7440.00
03261           -1060.00     7520.00
03262           -1100.00     7440.00
03263           -1120.00     7440.00
03264           -1140.00     7440.00
03265           -1180.00     7440.00
03266           -1200.00     7440.00
03267           -1200.00     7360.00
03268           -1200.00     7360.00
03269           -1220.00     7200.00
03270           -1220.00     7200.00
03271           -1220.00     7280.00
03272           -1220.00     7120.00
03273           -1220.00     7120.00
03274           -1180.00     6960.00
03275           -1180.00     6960.00
03276           -1140.00     6880.00
03277           -1140.00     6800.00
03278           -1120.00     6800.00
03279           -1120.00     6640.00
03280           -1060.00     6640.00
03281           -1040.00     6640.00
03282           -1000.00     6560.00
03283            -980.00     6480.00
03284            -960.00     6320.00
03285            -940.00     6240.00
03286            -900.00     6240.00
03287            -880.00     6080.00
03288            -820.00     6000.00
03289            -800.00     5920.00
03290            -740.00     5840.00
03291            -740.00     5840.00
03292            -720.00     5680.00
03293            -660.00     5600.00
03294            -640.00     5520.00
03295            -620.00     5360.00
03296            -580.00     5280.00
03297            -560.00     5120.00
03298            -540.00     5040.00
03299            -500.00     4960.00
03300            -480.00     4880.00
03301            -480.00     4720.00
03302            -460.00     4640.00
03303            -420.00     4560.00
03304            -420.00     4400.00
03305            -400.00     4320.00
03306            -380.00     4160.00
03307            -360.00     4080.00
03308            -320.00     4000.00
03309            -320.00     3840.00
03310            -320.00     3760.00
03311            -300.00     3600.00
03312            -260.00     3440.00
03313            -260.00     3360.00
03314            -240.00     3280.00
03315            -220.00     3040.00
03316            -220.00     2960.00
03317            -220.00     2800.00
03318            -180.00     2720.00
03319            -220.00     2560.00
03320            -180.00     2400.00
03321            -180.00     2320.00
03322            -180.00     2160.00
03323            -160.00     2080.00
03324            -160.00     1920.00
03325            -160.00     1760.00
03326            -140.00     1680.00
03327            -120.00     1520.00
03328            -100.00     1360.00
03329            -120.00     1200.00
03330            -100.00     1040.00
03331            -100.00      880.00
03332            -100.00      800.00
03333            -100.00      640.00
03334            -100.00      400.00
03335             -80.00      400.00
03336             -60.00      240.00
03337             -60.00       80.00
03338             -60.00      -80.00
03339             -40.00     -240.00
03340               0.00     -320.00
03341              60.00     -480.00
03342              60.00     -560.00
03343              60.00     -720.00
03344              20.00     -880.00
03345              20.00     -960.00
03346              20.00    -1120.00
03347             140.00    -1200.00
03348             560.00    -1360.00
03349             820.00    -1680.00
03350             220.00    -1840.00
03351            -660.00    -1840.00
03352           -1320.00    -2000.00
03353            -640.00    -1760.00
03354             800.00    -2320.00
03355             220.00    -2320.00
03356            -340.00    -2160.00
03357             400.00    -3120.00
03358             220.00    -2640.00
03359             -60.00    -2480.00
03360             160.00    -3360.00
03361            -100.00    -3120.00
03362             300.00    -3040.00
03363             340.00    -3520.00
03364            -260.00    -3600.00
03365              40.00    -3680.00
03366             100.00    -3680.00
03367             -20.00    -3920.00
03368             240.00    -4240.00
03369             160.00    -3920.00
03370             -60.00    -4320.00
03371             100.00    -4560.00
03372             300.00    -4320.00
03373             140.00    -4640.00
03374             -20.00    -4800.00
03375             240.00    -4880.00
03376             240.00    -4800.00
03377              80.00    -5040.00
03378             120.00    -5360.00
03379             220.00    -5040.00
03380             240.00    -5360.00
03381             160.00    -5520.00
03382             220.00    -5360.00
03383             220.00    -5680.00
03384             160.00    -5760.00
03385             280.00    -5920.00
03386             260.00    -5840.00
03387             160.00    -6000.00
03388             220.00    -6240.00
03389             300.00    -6080.00
03390             300.00    -6240.00
03391             240.00    -6400.00
03392             320.00    -6320.00
03393             320.00    -6480.00
03394             240.00    -6560.00
03395             320.00    -6640.00
03396             360.00    -6640.00
03397             340.00    -6720.00
03398             360.00    -6880.00
03399             380.00    -6800.00
03400             340.00    -6880.00
03401             380.00    -6960.00
03402             460.00    -6960.00
03403             480.00    -7120.00
03404             420.00    -7200.00
03405             460.00    -7200.00
03406             480.00    -7200.00
03407             480.00    -7280.00
03408             500.00    -7280.00
03409             560.00    -7280.00
03410             560.00    -7440.00
03411             560.00    -7440.00
03412             620.00    -7440.00
03413             620.00    -7440.00
03414             620.00    -7440.00
03415             680.00    -7440.00
03416             720.00    -7520.00
03417             700.00    -7520.00
03418             740.00    -7520.00
03419             780.00    -7520.00
03420             780.00    -7520.00
03421             800.00    -7600.00
03422             880.00    -7440.00
03423             920.00    -7520.00
03424             940.00    -7520.00
03425             980.00    -7520.00
03426            1020.00    -7440.00
03427            1020.00    -7440.00
03428            1060.00    -7440.00
03429            1120.00    -7440.00
03430            1140.00    -7440.00
03431            1180.00    -7440.00
03432            1180.00    -7280.00
03433            1200.00    -7360.00
03434            1200.00    -7280.00
03435            1220.00    -7280.00
03436            1260.00    -7200.00
03437            1220.00    -7120.00
03438            1220.00    -7200.00
03439            1220.00    -7120.00
03440            1220.00    -7040.00
03441            1200.00    -6960.00
03442            1200.00    -6960.00
03443            1220.00    -6880.00
03444            1180.00    -6800.00
03445            1140.00    -6800.00
03446            1120.00    -6720.00
03447            1060.00    -6640.00
03448            1060.00    -6560.00
03449            1040.00    -6480.00
03450            1020.00    -6480.00
03451             960.00    -6320.00
03452             940.00    -6240.00
03453             900.00    -6240.00
03454             880.00    -6160.00
03455             840.00    -6000.00
03456             820.00    -5920.00
03457             780.00    -5840.00
03458             740.00    -5760.00
03459             720.00    -5680.00
03460             700.00    -5520.00
03461             640.00    -5440.00
03462             640.00    -5360.00
03463             620.00    -5280.00
03464             580.00    -5200.00
03465             540.00    -5040.00
03466             540.00    -5040.00
03467             480.00    -4880.00
03468             480.00    -4720.00
03469             480.00    -4640.00
03470             440.00    -4560.00
03471             400.00    -4400.00
03472             400.00    -4320.00
03473             380.00    -4240.00
03474             340.00    -4080.00
03475             340.00    -4000.00
03476             320.00    -3840.00
03477             320.00    -3760.00
03478             300.00    -3600.00
03479             300.00    -3440.00
03480             260.00    -3280.00
03481             260.00    -3280.00
03482             240.00    -3040.00
03483             240.00    -2960.00
03484             220.00    -2880.00
03485             220.00    -2720.00
03486             180.00    -2560.00
03487             200.00    -2480.00
03488             180.00    -2320.00
03489             180.00    -2160.00
03490             160.00    -2000.00
03491             160.00    -1840.00
03492             140.00    -1760.00
03493             140.00    -1600.00
03494             120.00    -1440.00
03495             140.00    -1360.00
03496             140.00    -1200.00
03497             140.00    -1120.00
03498             100.00     -880.00
03499              80.00     -800.00
03500              80.00     -640.00
03501             100.00     -480.00
03502              60.00     -320.00
03503              80.00     -240.00
03504              80.00      -80.00
03505              80.00        0.00
03506              60.00      160.00
03507              80.00      320.00
03508             140.00      400.00
03509             160.00      560.00
03510             140.00      720.00
03511             100.00      800.00
03512              80.00     1040.00
03513             100.00     1120.00
03514             220.00     1200.00
03515             820.00     1520.00
03516             900.00     1680.00
03517             -60.00     1760.00
03518           -1280.00     1760.00
03519           -1600.00     1680.00
03520             280.00     2320.00
03521            1100.00     2320.00
03522            -500.00     2320.00
03523            -100.00     2400.00
03524             700.00     2320.00
03525            -400.00     3200.00
03526            -240.00     2880.00
03527             160.00     2480.00
03528               0.00     3680.00
03529             320.00     3280.00
03530            -340.00     2800.00
03531            -260.00     4000.00
03532             300.00     3680.00
03533            -460.00     3440.00
03534             -40.00     4080.00
03535             300.00     4000.00
03536            -340.00     4240.00
03537            -120.00     4240.00
03538               0.00     4240.00
03539             -60.00     4880.00
03540            -180.00     4320.00
03541            -220.00     4720.00
03542              80.00     5120.00
03543            -220.00     4720.00
03544            -220.00     5120.00
03545             -80.00     5120.00
03546            -180.00     5360.00
03547            -100.00     5360.00
03548            -180.00     5280.00
03549            -160.00     5840.00
03550            -220.00     5520.00
03551            -260.00     5840.00
03552            -140.00     5920.00
03553            -240.00     5840.00
03554            -240.00     6160.00
03555            -240.00     6080.00
03556            -260.00     6240.00
03557            -240.00     6240.00
03558            -220.00     6320.00
03559            -240.00     6560.00
03560            -320.00     6400.00
03561            -320.00     6560.00
03562            -300.00     6640.00
03563            -300.00     6720.00
03564            -320.00     6800.00
03565            -320.00     6800.00
03566            -400.00     6880.00
03567            -420.00     6880.00
03568            -340.00     7120.00
03569            -380.00     7120.00
03570            -420.00     7120.00
03571            -420.00     7120.00
03572            -420.00     7280.00
03573            -480.00     7280.00
03574            -500.00     7280.00
03575            -480.00     7360.00
03576            -500.00     7360.00
03577            -500.00     7440.00
03578            -500.00     7440.00
03579            -580.00     7440.00
03580            -660.00     7520.00
03581            -640.00     7440.00
03582            -620.00     7600.00
03583            -660.00     7520.00
03584            -720.00     7520.00
03585            -720.00     7600.00
03586            -740.00     7520.00
03587            -800.00     7600.00
03588            -800.00     7600.00
03589            -840.00     7600.00
03590            -900.00     7600.00
03591            -920.00     7520.00
03592            -940.00     7600.00
03593            -980.00     7600.00
03594           -1040.00     7520.00
03595           -1060.00     7520.00
03596           -1060.00     7520.00
03597           -1120.00     7440.00
03598           -1140.00     7440.00
03599           -1180.00     7440.00
03600           -1200.00     7440.00
03601           -1200.00     7280.00
03602           -1220.00     7360.00
03603           -1200.00     7280.00
03604           -1220.00     7200.00
03605           -1200.00     7200.00
03606           -1220.00     7120.00
03607           -1220.00     7120.00
03608           -1200.00     6960.00
03609           -1180.00     7040.00
03610           -1140.00     6960.00
03611           -1140.00     6880.00
03612           -1120.00     6800.00
03613           -1120.00     6800.00
03614           -1100.00     6640.00
03615           -1060.00     6720.00
03616           -1020.00     6640.00
03617           -1020.00     6480.00
03618            -960.00     6480.00
03619            -940.00     6400.00
03620            -940.00     6320.00
03621            -880.00     6160.00
03622            -860.00     6160.00
03623            -800.00     6000.00
03624            -760.00     5920.00
03625            -740.00     5840.00
03626            -720.00     5680.00
03627            -700.00     5600.00
03628            -660.00     5600.00
03629            -620.00     5440.00
03630            -600.00     5360.00
03631            -580.00     5200.00
03632            -560.00     5200.00
03633            -540.00     5040.00
03634            -500.00     4960.00
03635            -480.00     4880.00
03636            -460.00     4720.00
03637            -420.00     4640.00
03638            -420.00     4560.00
03639            -400.00     4400.00
03640            -400.00     4240.00
03641            -380.00     4160.00
03642            -320.00     4080.00
03643            -320.00     3920.00
03644            -320.00     3760.00
03645            -320.00     3680.00
03646            -260.00     3520.00
03647            -300.00     3440.00
03648            -260.00     3280.00
03649            -260.00     3120.00
03650            -220.00     3040.00
03651            -240.00     2880.00
03652            -200.00     2800.00
03653            -200.00     2640.00
03654            -180.00     2480.00
03655            -180.00     2400.00
03656            -160.00     2240.00
03657            -160.00     2080.00
03658            -160.00     2000.00
03659            -160.00     1840.00
03660            -140.00     1680.00
03661            -140.00     1600.00
03662            -100.00     1440.00
03663            -100.00     1200.00
03664            -100.00     1120.00
03665            -100.00     1040.00
03666            -100.00      800.00
03667            -100.00      720.00
03668            -100.00      560.00
03669             -80.00      480.00
03670             -60.00      240.00
03671             -60.00      160.00
03672             -60.00        0.00
03673             -60.00     -160.00
03674             -20.00     -240.00
03675              60.00     -400.00
03676              60.00     -560.00
03677              60.00     -640.00
03678               0.00     -800.00
03679               0.00     -880.00
03680              20.00    -1040.00
03681              60.00    -1200.00
03682             300.00    -1360.00
03683             780.00    -1520.00
03684             620.00    -1840.00
03685            -220.00    -1840.00
03686           -1040.00    -2000.00
03687           -1260.00    -1840.00
03688             180.00    -2000.00
03689             820.00    -2560.00
03690            -320.00    -2080.00
03691               0.00    -2640.00
03692             500.00    -2960.00
03693             -80.00    -2320.00
03694             140.00    -3040.00
03695              60.00    -3360.00
03696             -20.00    -2960.00
03697             480.00    -3360.00
03698               0.00    -3600.00
03699            -220.00    -3600.00
03700             180.00    -3680.00
03701               0.00    -3680.00
03702             100.00    -4080.00
03703             300.00    -4000.00
03704              20.00    -4000.00
03705             -20.00    -4560.00
03706             220.00    -4400.00
03707             280.00    -4400.00
03708               0.00    -4720.00
03709              80.00    -4880.00
03710             300.00    -4720.00
03711             160.00    -4880.00
03712              60.00    -5280.00
03713             160.00    -5200.00
03714             240.00    -5120.00
03715             220.00    -5600.00
03716             180.00    -5520.00
03717             240.00    -5520.00
03718             180.00    -5680.00
03719             180.00    -5840.00
03720             300.00    -5920.00
03721             220.00    -5920.00
03722             180.00    -6160.00
03723             240.00    -6160.00
03724             320.00    -6160.00
03725             260.00    -6320.00
03726             260.00    -6400.00
03727             340.00    -6400.00
03728             300.00    -6560.00
03729             260.00    -6640.00
03730             340.00    -6560.00
03731             380.00    -6640.00
03732             320.00    -6880.00
03733             380.00    -6880.00
03734             380.00    -6880.00
03735             340.00    -6960.00
03736             400.00    -6960.00
03737             460.00    -7040.00
03738             460.00    -7120.00
03739             440.00    -7120.00
03740             480.00    -7200.00
03741             480.00    -7200.00
03742             480.00    -7360.00
03743             540.00    -7280.00
03744             540.00    -7280.00
03745             540.00    -7440.00
03746             580.00    -7440.00
03747             620.00    -7440.00
03748             600.00    -7440.00
03749             640.00    -7520.00
03750             720.00    -7520.00
03751             720.00    -7520.00
03752             700.00    -7520.00
03753             740.00    -7600.00
03754             780.00    -7520.00
03755             800.00    -7600.00
03756             820.00    -7520.00
03757             920.00    -7440.00
03758             940.00    -7520.00
03759             960.00    -7520.00
03760             980.00    -7520.00
03761            1020.00    -7520.00
03762            1020.00    -7520.00
03763            1100.00    -7520.00
03764            1140.00    -7440.00
03765            1160.00    -7440.00
03766            1160.00    -7440.00
03767            1180.00    -7280.00
03768            1180.00    -7280.00
03769            1200.00    -7280.00
03770            1220.00    -7280.00
03771            1260.00    -7200.00
03772            1220.00    -7120.00
03773            1260.00    -7200.00
03774            1220.00    -7120.00
03775            1220.00    -7040.00
03776            1200.00    -6960.00
03777            1200.00    -6960.00
03778            1180.00    -6880.00
03779            1140.00    -6800.00
03780            1120.00    -6800.00
03781            1100.00    -6640.00
03782            1080.00    -6560.00
03783            1060.00    -6560.00
03784            1040.00    -6480.00
03785             980.00    -6400.00
03786             940.00    -6320.00
03787             940.00    -6240.00
03788             880.00    -6160.00
03789             860.00    -6080.00
03790             860.00    -6000.00
03791             800.00    -5920.00
03792             780.00    -5840.00
03793             720.00    -5680.00
03794             700.00    -5600.00
03795             660.00    -5520.00
03796             640.00    -5360.00
03797             640.00    -5360.00
03798             620.00    -5200.00
03799             560.00    -5200.00
03800             540.00    -5040.00
03801             520.00    -4960.00
03802             500.00    -4880.00
03803             480.00    -4720.00
03804             420.00    -4560.00
03805             420.00    -4480.00
03806             400.00    -4400.00
03807             380.00    -4320.00
03808             380.00    -4080.00
03809             320.00    -4000.00
03810             320.00    -3920.00
03811             320.00    -3760.00
03812             300.00    -3680.00
03813             260.00    -3520.00
03814             260.00    -3360.00
03815             240.00    -3280.00
03816             240.00    -3120.00
03817             260.00    -3040.00
03818             240.00    -2880.00
03819             220.00    -2720.00
03820             220.00    -2640.00
03821             180.00    -2480.00
03822             180.00    -2400.00
03823             180.00    -2240.00
03824             180.00    -2080.00
03825             160.00    -2000.00
03826             160.00    -1840.00
03827             140.00    -1680.00
03828             140.00    -1520.00
03829             140.00    -1440.00
03830             140.00    -1200.00
03831             140.00    -1120.00
03832             100.00    -1040.00
03833             120.00     -880.00
03834             100.00     -720.00
03835              80.00     -560.00
03836             100.00     -400.00
03837              80.00     -240.00
03838              80.00     -160.00
03839              80.00        0.00
03840              80.00       80.00
03841              80.00      240.00
03842             140.00      400.00
03843             160.00      480.00
03844             160.00      720.00
03845             100.00      720.00
03846              80.00      880.00
03847              80.00     1040.00
03848             100.00     1120.00
03849             480.00     1360.00
03850            1020.00     1600.00
03851             540.00     1760.00
03852            -640.00     1840.00
03853           -1700.00     1600.00
03854            -860.00     2000.00
03855            1100.00     2400.00
03856             320.00     2240.00
03857            -620.00     2480.00
03858             500.00     2320.00
03859             220.00     2720.00
03860            -500.00     3280.00
03861              80.00     2400.00
03862              20.00     3040.00
03863             220.00     3760.00
03864             100.00     2800.00
03865            -500.00     3440.00
03866             160.00     4080.00
03867             -20.00     3360.00
03868            -460.00     3760.00
03869             320.00     4080.00
03870             -60.00     4000.00
03871            -340.00     4400.00
03872               0.00     4000.00
03873             -40.00     4640.00
03874             -80.00     4640.00
03875            -280.00     4240.00
03876             -60.00     5120.00
03877               0.00     4880.00
03878            -320.00     4880.00
03879            -100.00     5280.00
03880            -140.00     5040.00
03881            -140.00     5520.00
03882            -140.00     5200.00
03883            -180.00     5600.00
03884            -160.00     5680.00
03885            -260.00     5520.00
03886            -160.00     6000.00
03887            -160.00     5840.00
03888            -260.00     6000.00
03889            -220.00     6080.00
03890            -260.00     6160.00
03891            -260.00     6320.00
03892            -240.00     6240.00
03893            -220.00     6480.00
03894            -300.00     6480.00
03895            -340.00     6480.00
03896            -320.00     6640.00
03897            -300.00     6640.00
03898            -320.00     6800.00
03899            -320.00     6800.00
03900            -340.00     6880.00
03901            -420.00     6880.00
03902            -380.00     6960.00
03903            -340.00     7120.00
03904            -400.00     7120.00
03905            -420.00     7120.00
03906            -420.00     7200.00
03907            -460.00     7280.00
03908            -500.00     7280.00
03909            -480.00     7360.00
03910            -500.00     7440.00
03911            -500.00     7360.00
03912            -500.00     7440.00
03913            -540.00     7440.00
03914            -620.00     7520.00
03915            -640.00     7440.00
03916            -600.00     7440.00
03917            -640.00     7600.00
03918            -700.00     7520.00
03919            -720.00     7520.00
03920            -740.00     7520.00
03921            -780.00     7600.00
03922            -800.00     7600.00
03923            -820.00     7520.00
03924            -880.00     7520.00
03925            -900.00     7600.00
03926            -920.00     7520.00
03927            -960.00     7600.00
03928           -1020.00     7520.00
03929           -1060.00     7520.00
03930           -1060.00     7520.00
03931           -1100.00     7440.00
03932           -1120.00     7440.00
03933           -1140.00     7440.00
03934           -1180.00     7360.00
03935           -1200.00     7440.00
03936           -1200.00     7360.00
03937           -1220.00     7360.00
03938           -1220.00     7280.00
03939           -1220.00     7200.00
03940           -1220.00     7200.00
03941           -1240.00     7120.00
03942           -1220.00     7120.00
03943           -1200.00     6960.00
03944           -1180.00     6960.00
03945           -1140.00     6960.00
03946           -1140.00     6800.00
03947           -1140.00     6800.00
03948           -1120.00     6640.00
03949           -1080.00     6720.00
03950           -1040.00     6640.00
03951           -1020.00     6560.00
03952            -980.00     6480.00
03953            -960.00     6320.00
03954            -940.00     6320.00
03955            -900.00     6240.00
03956            -880.00     6160.00
03957            -820.00     6000.00
03958            -800.00     5920.00
03959            -740.00     5840.00
03960            -740.00     5760.00
03961            -740.00     5680.00
03962            -680.00     5600.00
03963            -640.00     5520.00
03964            -620.00     5440.00
03965            -580.00     5280.00
03966            -560.00     5200.00
03967            -540.00     5040.00
03968            -520.00     4960.00
03969            -480.00     4960.00
03970            -480.00     4800.00
03971            -440.00     4640.00
03972            -420.00     4560.00
03973            -400.00     4480.00
03974            -400.00     4320.00
03975            -380.00     4240.00
03976            -340.00     4080.00
03977            -320.00     4000.00
03978            -320.00     3760.00
03979            -300.00     3680.00
03980            -300.00     3600.00
03981            -280.00     3440.00
03982            -260.00     3360.00
03983            -240.00     3200.00
03984            -240.00     3120.00
03985            -240.00     2960.00
03986            -220.00     2800.00
03987            -200.00     2720.00
03988            -180.00     2560.00
03989            -180.00     2400.00
03990            -160.00     2320.00
03991            -160.00     2160.00
03992            -160.00     2000.00
03993            -160.00     1840.00
03994            -140.00     1760.00
03995            -120.00     1680.00
03996            -100.00     1440.00
03997            -100.00     1360.00
03998            -100.00     1200.00
03999            -100.00     1040.00
04000            -100.00      880.00
04001             -80.00      800.00
04002            -100.00      640.00
04003            -100.00      560.00
04004             -80.00      320.00
04005             -60.00      240.00
04006             -60.00       80.00
04007             -60.00      -80.00
04008             -60.00     -240.00
04009              20.00     -320.00
04010              60.00     -400.00
04011              60.00     -560.00
04012              20.00     -720.00
04013              20.00     -880.00
04014               0.00     -880.00
04015              20.00    -1120.00
04016             140.00    -1200.00
04017             540.00    -1360.00
04018             820.00    -1680.00
04019             240.00    -1840.00
04020            -640.00    -1920.00
04021           -1300.00    -2000.00
04022            -700.00    -1760.00
04023             800.00    -2320.00
04024             260.00    -2400.00
04025            -340.00    -2160.00
04026             400.00    -3040.00
04027             240.00    -2480.00
04028             -20.00    -2480.00
04029             160.00    -3360.00
04030            -100.00    -3120.00
04031             280.00    -3040.00
04032             360.00    -3520.00
04033            -240.00    -3600.00
04034              20.00    -3600.00
04035             140.00    -3680.00
04036             -20.00    -3840.00
04037             240.00    -4160.00
04038             160.00    -3920.00
04039             -60.00    -4320.00
04040              80.00    -4560.00
04041             300.00    -4320.00
04042             140.00    -4560.00
04043             -20.00    -4800.00
04044             220.00    -4960.00
04045             240.00    -4720.00
04046              80.00    -5040.00
04047             140.00    -5280.00
04048             200.00    -5040.00
04049             240.00    -5360.00
04050             160.00    -5520.00
04051             220.00    -5440.00
04052             240.00    -5680.00
04053             160.00    -5760.00
04054             260.00    -5920.00
04055             280.00    -5840.00
04056             180.00    -6000.00
04057             220.00    -6160.00
04058             300.00    -6080.00
04059             260.00    -6240.00
04060             240.00    -6320.00
04061             320.00    -6320.00
04062             320.00    -6480.00
04063             260.00    -6480.00
04064             320.00    -6640.00
04065             380.00    -6640.00
04066             340.00    -6800.00
04067             360.00    -6800.00
04068             380.00    -6800.00
04069             340.00    -6880.00
04070             380.00    -6960.00
04071             440.00    -6960.00
04072             460.00    -6960.00
04073             420.00    -7120.00
04074             460.00    -7200.00
04075             480.00    -7120.00
04076             480.00    -7200.00
04077             500.00    -7280.00
04078             540.00    -7280.00
04079             560.00    -7280.00
04080             560.00    -7440.00
04081             580.00    -7440.00
04082             620.00    -7440.00
04083             620.00    -7440.00
04084             660.00    -7520.00
04085             720.00    -7520.00
04086             700.00    -7520.00
04087             720.00    -7520.00
04088             780.00    -7520.00
04089             780.00    -7520.00
04090             800.00    -7600.00
04091             860.00    -7520.00
04092             940.00    -7520.00
04093             940.00    -7520.00
04094             980.00    -7520.00
04095            1020.00    -7440.00
04096            1020.00    -7440.00
04097            1060.00    -7440.00
04098            1120.00    -7360.00
04099            1140.00    -7440.00
04100            1180.00    -7440.00
04101            1180.00    -7280.00
04102            1200.00    -7360.00
04103            1200.00    -7280.00
04104            1220.00    -7280.00
04105            1260.00    -7200.00
04106            1260.00    -7200.00
04107            1260.00    -7120.00
04108            1240.00    -7120.00
04109            1220.00    -7040.00
04110            1220.00    -6960.00
04111            1200.00    -6960.00
04112            1200.00    -6880.00
04113            1180.00    -6880.00
04114            1140.00    -6800.00
04115            1120.00    -6640.00
04116            1100.00    -6640.00
04117            1060.00    -6560.00
04118            1040.00    -6480.00
04119            1020.00    -6400.00
04120             960.00    -6320.00
04121             940.00    -6240.00
04122             900.00    -6160.00
04123             880.00    -6160.00
04124             840.00    -6000.00
04125             820.00    -5920.00
04126             800.00    -5840.00
04127             740.00    -5760.00
04128             720.00    -5680.00
04129             660.00    -5520.00
04130             640.00    -5520.00
04131             640.00    -5360.00
04132             620.00    -5280.00
04133             580.00    -5200.00
04134             540.00    -5040.00
04135             500.00    -4960.00
04136             500.00    -4880.00
04137             480.00    -4720.00
04138             460.00    -4640.00
04139             420.00    -4560.00
04140             400.00    -4400.00
04141             380.00    -4320.00
04142             340.00    -4240.00
04143             340.00    -4080.00
04144             320.00    -4000.00
04145             320.00    -3840.00
04146             320.00    -3760.00
04147             300.00    -3600.00
04148             260.00    -3440.00
04149             260.00    -3360.00
04150             260.00    -3280.00
04151             240.00    -3040.00
04152             240.00    -2960.00
04153             220.00    -2800.00
04154             220.00    -2720.00
04155             180.00    -2560.00
04156             180.00    -2400.00
04157             180.00    -2320.00
04158             180.00    -2160.00
04159             160.00    -2080.00
04160             160.00    -1920.00
04161             140.00    -1760.00
04162             140.00    -1680.00
04163             140.00    -1440.00
04164             140.00    -1360.00
04165             140.00    -1200.00
04166             140.00    -1040.00
04167             120.00     -960.00
04168              80.00     -800.00
04169              80.00     -720.00
04170             100.00     -480.00
04171              80.00     -400.00
04172             100.00     -240.00
04173              80.00      -80.00
04174              80.00       80.00
04175              80.00      240.00
04176             100.00      240.00
04177             160.00      400.00
04178             160.00      560.00
04179             140.00      720.00
04180              80.00      880.00
04181              80.00      880.00
04182              80.00     1040.00
04183             220.00     1200.00
04184             800.00     1440.00
04185             900.00     1680.00
04186              20.00     1840.00
04187           -1220.00     1680.00
04188           -1600.00     1680.00
04189             220.00     2320.00
04190            1120.00     2320.00
04191            -480.00     2240.00
04192            -140.00     2400.00
04193             700.00     2320.00
04194            -340.00     3120.00
04195            -260.00     2960.00
04196             160.00     2480.00
04197             -20.00     3680.00
04198             320.00     3360.00
04199            -340.00     2720.00
04200            -300.00     4000.00
04201             300.00     3840.00
04202            -440.00     3440.00
04203            -100.00     4080.00
04204             300.00     3920.00
04205            -340.00     4240.00
04206            -140.00     4240.00
04207               0.00     4080.00
04208             -60.00     4880.00
04209            -160.00     4320.00
04210            -240.00     4720.00
04211              60.00     5120.00
04212            -220.00     4640.00
04213            -240.00     5200.00
04214             -80.00     5200.00
04215            -180.00     5280.00
04216            -100.00     5360.00
04217            -180.00     5280.00
04218            -160.00     5840.00
04219            -220.00     5520.00
04220            -260.00     5760.00
04221            -120.00     6000.00
04222            -240.00     5840.00
04223            -240.00     6160.00
04224            -240.00     6000.00
04225            -260.00     6240.00
04226            -240.00     6240.00
04227            -220.00     6320.00
04228            -240.00     6560.00
04229            -320.00     6400.00
04230            -320.00     6640.00
04231            -300.00     6640.00
04232            -320.00     6720.00
04233            -320.00     6800.00
04234            -320.00     6880.00
04235            -400.00     6960.00
04236            -400.00     6880.00
04237            -320.00     7120.00
04238            -380.00     7040.00
04239            -420.00     7120.00
04240            -420.00     7120.00
04241            -420.00     7280.00
04242            -480.00     7280.00
04243            -500.00     7200.00
04244            -480.00     7440.00
04245            -500.00     7360.00
04246            -540.00     7440.00
04247            -520.00     7440.00
04248            -560.00     7440.00
04249            -640.00     7440.00
04250            -640.00     7440.00
04251            -620.00     7520.00
04252            -660.00     7520.00
04253            -720.00     7520.00
04254            -720.00     7520.00
04255            -780.00     7520.00
04256            -800.00     7520.00
04257            -800.00     7600.00
04258            -820.00     7600.00
04259            -900.00     7600.00
04260            -900.00     7600.00
04261            -960.00     7600.00
04262            -980.00     7520.00
04263           -1040.00     7520.00
04264           -1060.00     7520.00
04265           -1080.00     7440.00
04266           -1120.00     7440.00
04267           -1120.00     7440.00
04268           -1180.00     7440.00
04269           -1200.00     7440.00
04270           -1220.00     7360.00
04271           -1220.00     7280.00
04272           -1220.00     7280.00
04273           -1220.00     7200.00
04274           -1220.00     7200.00
04275           -1220.00     7200.00
04276           -1260.00     7120.00
04277           -1220.00     7040.00
04278           -1200.00     7040.00
04279           -1180.00     6960.00
04280           -1140.00     6880.00
04281           -1140.00     6800.00
04282           -1120.00     6800.00
04283           -1100.00     6640.00
04284           -1060.00     6640.00
04285           -1040.00     6560.00
04286           -1020.00     6480.00
04287            -960.00     6480.00
04288            -960.00     6320.00
04289            -940.00     6240.00
04290            -880.00     6160.00
04291            -860.00     6080.00
04292            -800.00     6000.00
04293            -780.00     5920.00
04294            -740.00     5840.00
04295            -720.00     5680.00
04296            -700.00     5680.00
04297            -640.00     5520.00
04298            -620.00     5520.00
04299            -580.00     5360.00
04300            -580.00     5200.00
04301            -560.00     5200.00
04302            -520.00     5040.00
04303            -480.00     4880.00
04304            -480.00     4880.00
04305            -460.00     4720.00
04306            -420.00     4640.00
04307            -420.00     4480.00
04308            -400.00     4400.00
04309            -380.00     4240.00
04310            -380.00     4080.00
04311            -320.00     4000.00
04312            -320.00     3920.00
04313            -320.00     3760.00
04314            -300.00     3680.00
04315            -300.00     3520.00
04316            -260.00     3360.00
04317            -260.00     3280.00
04318            -240.00     3120.00
04319            -240.00     3040.00
04320            -240.00     2800.00
04321            -220.00     2800.00
04322            -220.00     2640.00
04323            -180.00     2480.00
04324            -220.00     2400.00
04325            -160.00     2240.00
04326            -160.00     2080.00
04327            -160.00     2000.00
04328            -160.00     1760.00
04329            -160.00     1680.00
04330            -140.00     1520.00
04331            -120.00     1440.00
04332            -100.00     1200.00
04333            -100.00     1120.00
04334            -100.00      960.00
04335            -100.00      800.00
04336            -100.00      720.00
04337            -100.00      560.00
04338             -80.00      400.00
04339             -80.00      320.00
04340             -60.00      160.00
04341             -80.00        0.00
04342             -60.00      -80.00
04343             -20.00     -240.00
04344              20.00     -400.00
04345              60.00     -480.00
04346              20.00     -720.00
04347               0.00     -800.00
04348               0.00     -880.00
04349              20.00     -960.00
04350              40.00    -1120.00
04351             280.00    -1280.00
04352             780.00    -1520.00
04353             640.00    -1840.00
04354            -180.00    -1840.00
04355           -1020.00    -2000.00
04356           -1260.00    -1840.00
04357             120.00    -2000.00
04358             840.00    -2560.00
04359            -300.00    -2080.00
04360             -20.00    -2640.00
04361             520.00    -3040.00
04362             -60.00    -2320.00
04363             140.00    -2960.00
04364              80.00    -3440.00
04365             -20.00    -2880.00
04366             480.00    -3280.00
04367              40.00    -3600.00
04368            -240.00    -3600.00
04369             180.00    -3680.00
04370               0.00    -3760.00
04371              80.00    -4080.00
04372             300.00    -4080.00
04373              20.00    -4000.00
04374               0.00    -4480.00
04375             240.00    -4400.00
04376             300.00    -4400.00
04377               0.00    -4720.00
04378              80.00    -4800.00
04379             300.00    -4880.00
04380             140.00    -4880.00
04381              80.00    -5200.00
04382             160.00    -5200.00
04383             220.00    -5040.00
04384             220.00    -5520.00
04385             160.00    -5440.00
04386             220.00    -5440.00
04387             220.00    -5680.00
04388             180.00    -5840.00
04389             300.00    -5840.00
04390             220.00    -5920.00
04391             160.00    -6160.00
04392             240.00    -6160.00
04393             300.00    -6160.00
04394             260.00    -6320.00
04395             260.00    -6320.00
04396             320.00    -6400.00
04397             280.00    -6480.00
04398             260.00    -6560.00
04399             340.00    -6560.00
04400             340.00    -6640.00
04401             340.00    -6880.00
04402             380.00    -6880.00
04403             380.00    -6880.00
04404             340.00    -6960.00
04405             400.00    -7040.00
04406             460.00    -6960.00
04407             420.00    -7120.00
04408             420.00    -7200.00
04409             480.00    -7200.00
04410             480.00    -7200.00
04411             480.00    -7280.00
04412             520.00    -7280.00
04413             560.00    -7280.00
04414             560.00    -7360.00
04415             560.00    -7440.00
04416             620.00    -7440.00
04417             600.00    -7440.00
04418             620.00    -7520.00
04419             700.00    -7520.00
04420             720.00    -7520.00
04421             720.00    -7600.00
04422             760.00    -7520.00
04423             800.00    -7440.00
04424             800.00    -7600.00
04425             860.00    -7520.00
04426             900.00    -7440.00
04427             940.00    -7520.00
04428             960.00    -7520.00
04429             980.00    -7520.00
04430            1020.00    -7520.00
04431            1040.00    -7520.00
04432            1100.00    -7440.00
04433            1140.00    -7440.00
04434            1140.00    -7440.00
04435            1180.00    -7360.00
04436            1200.00    -7440.00
04437            1200.00    -7280.00
04438            1200.00    -7280.00
04439            1260.00    -7200.00
04440            1260.00    -7200.00
04441            1220.00    -7200.00
04442            1240.00    -7120.00
04443            1220.00    -7120.00
04444            1200.00    -6960.00
04445            1200.00    -6960.00
04446            1200.00    -6880.00
04447            1200.00    -6880.00
04448            1180.00    -6800.00
04449            1120.00    -6640.00
04450            1100.00    -6640.00
04451            1060.00    -6560.00
04452            1060.00    -6560.00
04453            1040.00    -6480.00
04454             980.00    -6320.00
04455             960.00    -6320.00
04456             920.00    -6160.00
04457             880.00    -6160.00
04458             860.00    -6080.00
04459             820.00    -6000.00
04460             800.00    -5920.00
04461             780.00    -5840.00
04462             720.00    -5680.00
04463             680.00    -5600.00
04464             660.00    -5520.00
04465             640.00    -5440.00
04466             620.00    -5360.00
04467             580.00    -5280.00
04468             540.00    -5120.00
04469             500.00    -5040.00
04470             500.00    -4960.00
04471             480.00    -4880.00
04472             480.00    -4720.00
04473             480.00    -4640.00
04474             420.00    -4560.00
04475             380.00    -4400.00
04476             380.00    -4240.00
04477             320.00    -4160.00
04478             280.00    -4080.00
04479             280.00    -3920.00
04480             380.00    -3760.00
04481             380.00    -3680.00
04482             380.00    -3520.00
04483             320.00    -3440.00
04484             260.00    -3360.00
04485             180.00    -3200.00
04486             140.00    -2960.00
04487             160.00    -2960.00
04488             220.00    -2720.00
04489             260.00    -2640.00
04490             260.00    -2560.00
04491             240.00    -2320.00
04492             180.00    -2240.00
04493             160.00    -2080.00
04494             160.00    -2000.00
04495             120.00    -1840.00
04496             140.00    -1760.00
04497             140.00    -1520.00
04498             140.00    -1360.00
04499             120.00    -1280.00
04500             140.00    -1120.00
04501             140.00    -1040.00
04502             100.00     -880.00
04503             120.00     -720.00
04504             100.00     -560.00
04505              80.00     -400.00
04506              80.00     -240.00
04507              60.00     -160.00
04508              60.00        0.00
04509              60.00      160.00
04510              80.00      240.00
04511             140.00      400.00
04512             180.00      480.00
04513             180.00      640.00
04514             140.00      800.00
04515             100.00      880.00
04516              60.00     1040.00
04517              80.00     1120.00
04518             420.00     1360.00
04519            1020.00     1600.00
04520             580.00     1680.00
04521            -560.00     1840.00
04522           -1660.00     1520.00
04523            -920.00     2000.00
04524            1060.00     2480.00
04525             380.00     2240.00
04526            -660.00     2400.00
04527             480.00     2320.00
04528             260.00     2720.00
04529            -500.00     3360.00
04530              60.00     2400.00
04531              40.00     2960.00
04532             180.00     3760.00
04533             100.00     2800.00
04534            -500.00     3280.00
04535             160.00     4160.00
04536               0.00     3360.00
04537            -480.00     3760.00
04538             300.00     4080.00
04539             -20.00     4000.00
04540            -360.00     4400.00
04541             -20.00     4000.00
04542             -40.00     4640.00
04543             -60.00     4720.00
04544            -260.00     4240.00
04545             -60.00     5040.00
04546               0.00     4880.00
04547            -300.00     4880.00
04548            -120.00     5280.00
04549            -140.00     5120.00
04550            -140.00     5520.00
04551            -140.00     5200.00
04552            -180.00     5520.00
04553            -160.00     5760.00
04554            -260.00     5520.00
04555            -160.00     6000.00
04556            -160.00     5840.00
04557            -240.00     5920.00
04558            -240.00     6160.00
04559            -260.00     6160.00
04560            -260.00     6320.00
04561            -240.00     6240.00
04562            -220.00     6560.00
04563            -260.00     6480.00
04564            -320.00     6560.00
04565            -300.00     6640.00
04566            -300.00     6640.00
04567            -300.00     6800.00
04568            -320.00     6800.00
04569            -340.00     6960.00
04570            -420.00     6880.00
04571            -380.00     7040.00
04572            -340.00     7120.00
04573            -400.00     7040.00
04574            -420.00     7120.00
04575            -420.00     7120.00
04576            -460.00     7360.00
04577            -500.00     7280.00
04578            -480.00     7360.00
04579            -480.00     7360.00
04580            -520.00     7360.00
04581            -540.00     7440.00
04582            -540.00     7520.00
04583            -620.00     7520.00
04584            -640.00     7520.00
04585            -600.00     7520.00
04586            -640.00     7600.00
04587            -700.00     7520.00
04588            -740.00     7600.00
04589            -740.00     7600.00
04590            -800.00     7520.00
04591            -820.00     7600.00
04592            -820.00     7600.00
04593            -900.00     7520.00
04594            -900.00     7520.00
04595            -940.00     7600.00
04596            -960.00     7600.00
04597           -1040.00     7520.00
04598           -1060.00     7520.00
04599           -1060.00     7520.00
04600           -1100.00     7440.00
04601           -1140.00     7520.00
04602           -1140.00     7440.00
04603           -1200.00     7440.00
04604           -1200.00     7440.00
04605           -1220.00     7360.00
04606           -1220.00     7280.00
04607           -1220.00     7280.00
04608           -1220.00     7200.00
04609           -1220.00     7200.00
04610           -1220.00     7120.00
04611           -1220.00     7120.00
04612           -1220.00     7040.00
04613           -1180.00     6960.00
04614           -1140.00     6960.00
04615           -1140.00     6800.00
04616           -1120.00     6800.00
04617           -1120.00     6720.00
04618           -1060.00     6720.00
04619           -1040.00     6640.00
04620           -1020.00     6560.00
04621            -980.00     6480.00
04622            -960.00     6320.00
04623            -940.00     6320.00
04624            -900.00     6240.00
04625            -860.00     6160.00
04626            -820.00     6000.00
04627            -780.00     5920.00
04628            -740.00     5920.00
04629            -740.00     5840.00
04630            -720.00     5680.00
04631            -660.00     5600.00
04632            -620.00     5520.00
04633            -620.00     5360.00
04634            -580.00     5360.00
04635            -580.00     5200.00
04636            -560.00     5040.00
04637            -500.00     5040.00
04638            -480.00     4880.00
04639            -460.00     4720.00
04640            -420.00     4640.00
04641            -420.00     4560.00
04642            -400.00     4400.00
04643            -400.00     4320.00
04644            -380.00     4240.00
04645            -340.00     4080.00
04646            -320.00     4000.00
04647            -300.00     3920.00
04648            -320.00     3760.00
04649            -300.00     3600.00
04650            -260.00     3440.00
04651            -260.00     3360.00
04652            -240.00     3280.00
04653            -240.00     3120.00
04654            -240.00     2960.00
04655            -220.00     2800.00
04656            -220.00     2720.00
04657            -220.00     2640.00
04658            -220.00     2400.00
04659            -160.00     2320.00
04660            -160.00     2160.00
04661            -160.00     2080.00
04662            -180.00     1920.00
04663            -160.00     1760.00
04664            -140.00     1600.00
04665            -140.00     1520.00
04666            -100.00     1360.00
04667            -100.00     1200.00
04668            -100.00     1040.00
04669            -100.00      880.00
04670            -100.00      800.00
04671            -100.00      640.00
04672            -100.00      480.00
04673             -80.00      320.00
04674             -60.00      240.00
04675             -80.00       80.00
04676             -60.00      -80.00
04677             -40.00     -160.00
04678               0.00     -320.00
04679              60.00     -480.00
04680              60.00     -560.00
04681              20.00     -720.00
04682               0.00     -880.00
04683               0.00     -960.00
04684              20.00    -1040.00
04685             140.00    -1200.00
04686             540.00    -1360.00
04687             820.00    -1760.00
04688             300.00    -1840.00
04689            -620.00    -2000.00
04690           -1280.00    -2000.00
04691            -740.00    -1760.00
04692             780.00    -2320.00
04693             320.00    -2400.00
04694            -340.00    -2080.00
04695             380.00    -2960.00
04696             260.00    -2640.00
04697             -60.00    -2480.00
04698             180.00    -3360.00
04699             -80.00    -3120.00
04700             260.00    -2960.00
04701             400.00    -3440.00
04702            -220.00    -3600.00
04703              20.00    -3600.00
04704             140.00    -3600.00
04705             -20.00    -3840.00
04706             240.00    -4240.00
04707             180.00    -3920.00
04708             -60.00    -4240.00
04709             100.00    -4480.00
04710             300.00    -4320.00
04711             160.00    -4560.00
04712             -20.00    -4800.00
04713             220.00    -4880.00
04714             240.00    -4800.00
04715              80.00    -5040.00
04716             100.00    -5280.00
04717             180.00    -5040.00
04718             240.00    -5360.00
04719             160.00    -5520.00
04720             180.00    -5440.00
04721             220.00    -5600.00
04722             160.00    -5760.00
04723             240.00    -5840.00
04724             300.00    -5920.00
04725             180.00    -6000.00
04726             200.00    -6160.00
04727             300.00    -6160.00
04728             280.00    -6240.00
04729             240.00    -6400.00
04730             300.00    -6400.00
04731             320.00    -6480.00
04732             260.00    -6560.00
04733             300.00    -6640.00
04734             340.00    -6640.00
04735             320.00    -6800.00
04736             340.00    -6880.00
04737             380.00    -6800.00
04738             340.00    -6880.00
04739             380.00    -7040.00
04740             420.00    -6960.00
04741             480.00    -7120.00
04742             420.00    -7120.00
04743             460.00    -7200.00
04744             480.00    -7200.00
04745             460.00    -7280.00
04746             500.00    -7360.00
04747             540.00    -7280.00
04748             560.00    -7440.00
04749             560.00    -7440.00
04750             620.00    -7440.00
04751             620.00    -7440.00
04752             620.00    -7520.00
04753             660.00    -7520.00
04754             720.00    -7440.00
04755             700.00    -7520.00
04756             740.00    -7520.00
04757             780.00    -7440.00
04758             800.00    -7520.00
04759             820.00    -7600.00
04760             880.00    -7520.00
04761             940.00    -7520.00
04762             940.00    -7520.00
04763             960.00    -7520.00
04764            1020.00    -7520.00
04765            1040.00    -7440.00
04766            1060.00    -7520.00
04767            1120.00    -7440.00
04768            1180.00    -7360.00
04769            1160.00    -7440.00
04770            1180.00    -7280.00
04771            1200.00    -7280.00
04772            1200.00    -7280.00
04773            1220.00    -7280.00
04774            1260.00    -7200.00
04775            1260.00    -7200.00
04776            1220.00    -7120.00
04777            1240.00    -7120.00
04778            1220.00    -7040.00
04779            1200.00    -6960.00
04780            1200.00    -6960.00
04781            1200.00    -6880.00
04782            1180.00    -6880.00
04783            1140.00    -6800.00
04784            1120.00    -6640.00
04785            1060.00    -6640.00
04786            1060.00    -6560.00
04787            1040.00    -6480.00
04788            1020.00    -6400.00
04789             960.00    -6320.00
04790             940.00    -6240.00
04791             880.00    -6240.00
04792             860.00    -6080.00
04793             820.00    -6080.00
04794             800.00    -5920.00
04795             780.00    -5920.00
04796             740.00    -5840.00
04797             700.00    -5680.00
04798             660.00    -5600.00
04799             640.00    -5440.00
04800             620.00    -5360.00
04801             600.00    -5280.00
04802             580.00    -5200.00
04803             540.00    -5120.00
04804             500.00    -4960.00
04805             480.00    -4880.00
04806             480.00    -4720.00
04807             460.00    -4640.00
04808             440.00    -4560.00
04809             400.00    -4480.00
04810             380.00    -4320.00
04811             380.00    -4240.00
04812             340.00    -4080.00
04813             340.00    -3920.00
04814             320.00    -3840.00
04815             320.00    -3760.00
04816             300.00    -3600.00
04817             260.00    -3520.00
04818             260.00    -3360.00
04819             260.00    -3280.00
04820             240.00    -3120.00
04821             240.00    -2880.00
04822             220.00    -2800.00
04823             220.00    -2720.00
04824             180.00    -2640.00
04825             180.00    -2400.00
04826             180.00    -2320.00
04827             180.00    -2160.00
04828             180.00    -2000.00
04829             160.00    -2000.00
04830             160.00    -1760.00
04831             140.00    -1600.00
04832             140.00    -1520.00
04833             140.00    -1360.00
04834             140.00    -1200.00
04835             140.00    -1120.00
04836             100.00     -960.00
04837             100.00     -800.00
04838             100.00     -720.00
04839              80.00     -480.00
04840              80.00     -400.00
04841             100.00     -240.00
04842              80.00     -160.00
04843              80.00       80.00
04844              80.00      160.00
04845             100.00      320.00
04846             160.00      480.00
04847             140.00      560.00
04848             140.00      720.00
04849             100.00      800.00
04850              80.00      880.00
04851              80.00     1040.00
04852             180.00     1200.00
04853             780.00     1440.00
04854             940.00     1680.00
04855              40.00     1840.00
04856           -1200.00     1760.00
04857           -1660.00     1680.00
04858             140.00     2320.00
04859            1140.00     2320.00
04860            -420.00     2320.00
04861            -200.00     2400.00
04862             700.00     2320.00
04863            -320.00     3120.00
04864            -280.00     2960.00
04865             140.00     2400.00
04866             -20.00     3600.00
04867             320.00     3440.00
04868            -300.00     2720.00
04869            -320.00     3920.00
04870             320.00     3760.00
04871            -420.00     3360.00
04872            -140.00     4080.00
04873             320.00     3920.00
04874            -340.00     4240.00
04875            -160.00     4240.00
04876               0.00     4160.00
04877             -20.00     4880.00
04878            -160.00     4320.00
04879            -240.00     4640.00
04880              80.00     5200.00
04881            -180.00     4720.00
04882            -240.00     5120.00
04883             -80.00     5200.00
04884            -180.00     5360.00
04885            -100.00     5360.00
04886            -180.00     5200.00
04887            -160.00     5840.00
04888            -200.00     5520.00
04889            -260.00     5760.00
04890            -140.00     6000.00
04891            -220.00     5840.00
04892            -240.00     6080.00
04893            -240.00     6000.00
04894            -260.00     6240.00
04895            -240.00     6240.00
04896            -220.00     6320.00
04897            -240.00     6560.00
04898            -320.00     6320.00
04899            -320.00     6640.00
04900            -300.00     6640.00
04901            -320.00     6640.00
04902            -320.00     6800.00
04903            -320.00     6880.00
04904            -400.00     6960.00
04905            -400.00     6880.00
04906            -320.00     7040.00
04907            -340.00     7120.00
04908            -420.00     7120.00
04909            -400.00     7120.00
04910            -420.00     7200.00
04911            -480.00     7360.00
04912            -480.00     7200.00
04913            -480.00     7440.00
04914            -500.00     7360.00
04915            -540.00     7360.00
04916            -520.00     7440.00
04917            -580.00     7440.00
04918            -640.00     7440.00
04919            -620.00     7440.00
04920            -620.00     7520.00
04921            -680.00     7520.00
04922            -720.00     7520.00
04923            -720.00     7600.00
04924            -740.00     7520.00
04925            -800.00     7600.00
04926            -820.00     7520.00
04927            -860.00     7520.00
04928            -900.00     7600.00
04929            -940.00     7520.00
04930            -960.00     7520.00
04931           -1000.00     7520.00
04932           -1060.00     7440.00
04933           -1060.00     7520.00
04934           -1060.00     7440.00
04935           -1120.00     7520.00
04936           -1140.00     7440.00
04937           -1180.00     7440.00
04938           -1200.00     7440.00
04939           -1220.00     7280.00
04940           -1220.00     7360.00
04941           -1220.00     7360.00
04942           -1220.00     7200.00
04943           -1220.00     7200.00
04944           -1220.00     7200.00
04945           -1220.00     7120.00
04946           -1200.00     7040.00
04947           -1180.00     7040.00
04948           -1140.00     6960.00
04949           -1140.00     6960.00
04950           -1140.00     6800.00
04951           -1120.00     6720.00
04952           -1100.00     6640.00
04953           -1060.00     6640.00
04954           -1020.00     6640.00
04955            -980.00     6480.00
04956            -960.00     6400.00
04957            -940.00     6320.00
04958            -900.00     6240.00
04959            -880.00     6160.00
04960            -860.00     6080.00
04961            -800.00     6000.00
04962            -780.00     5920.00
04963            -740.00     5840.00
04964            -720.00     5680.00
04965            -720.00     5680.00
04966            -640.00     5520.00
04967            -620.00     5520.00
04968            -580.00     5360.00
04969            -560.00     5280.00
04970            -560.00     5200.00
04971            -520.00     5040.00
04972            -500.00     4960.00
04973            -480.00     4880.00
04974            -460.00     4720.00
04975            -420.00     4560.00
04976            -400.00     4480.00
04977            -380.00     4400.00
04978            -400.00     4240.00
04979            -380.00     4080.00
04980            -340.00     4000.00
04981            -320.00     3920.00
04982            -320.00     3760.00
04983            -320.00     3600.00
04984            -300.00     3520.00
04985            -300.00     3440.00
04986            -260.00     3280.00
04987            -240.00     3120.00
04988            -240.00     3040.00
04989            -240.00     2960.00
04990            -220.00     2800.00
04991            -220.00     2640.00
04992            -200.00     2480.00
04993            -180.00     2400.00
04994            -160.00     2240.00
04995            -160.00     2080.00
04996            -180.00     2000.00
04997            -160.00     1840.00
04998            -160.00     1760.00
04999            -140.00     1520.00
05000            -120.00     1440.00
