Unit:(mV)
                     CH1         CH2
Frequency              ? 300.157 kHz
00001             -96.00      360.00
00002             -88.00      320.00
00003             -88.00      280.00
00004             -88.00      240.00
00005             -72.00      200.00
00006             -64.00      120.00
00007             -64.00      120.00
00008             -56.00       80.00
00009             -56.00       40.00
00010             -56.00       40.00
00011             -40.00      -40.00
00012             -24.00      -80.00
00013              -8.00     -120.00
00014              -8.00     -160.00
00015              -8.00     -200.00
00016              -8.00     -200.00
00017               8.00     -240.00
00018             200.00     -320.00
00019             200.00     -440.00
00020            -240.00     -360.00
00021            -288.00     -360.00
00022              96.00     -520.00
00023             384.00     -520.00
00024            -104.00     -560.00
00025            -384.00     -520.00
00026               8.00     -720.00
00027             352.00     -600.00
00028             -32.00     -680.00
00029            -264.00     -760.00
00030             120.00     -760.00
00031             312.00     -760.00
00032              -8.00     -800.00
00033            -128.00     -960.00
00034             136.00     -960.00
00035             160.00     -920.00
00036               0.00    -1000.00
00037              32.00    -1080.00
00038             152.00    -1080.00
00039              56.00    -1040.00
00040              32.00    -1160.00
00041             160.00    -1200.00
00042             136.00    -1200.00
00043               0.00    -1240.00
00044              80.00    -1320.00
00045             200.00    -1280.00
00046              96.00    -1240.00
00047               8.00    -1400.00
00048             136.00    -1400.00
00049             200.00    -1400.00
00050              88.00    -1440.00
00051              80.00    -1520.00
00052             160.00    -1520.00
00053             168.00    -1520.00
00054             120.00    -1600.00
00055             128.00    -1640.00
00056             152.00    -1640.00
00057             152.00    -1640.00
00058             152.00    -1720.00
00059             160.00    -1680.00
00060             168.00    -1680.00
00061             160.00    -1720.00
00062             152.00    -1760.00
00063             184.00    -1800.00
00064             184.00    -1800.00
00065             176.00    -1840.00
00066             192.00    -1880.00
00067             208.00    -1880.00
00068             192.00    -1880.00
00069             184.00    -1880.00
00070             200.00    -1880.00
00071             216.00    -1920.00
00072             200.00    -1960.00
00073             200.00    -1960.00
00074             224.00    -1960.00
00075             216.00    -2000.00
00076             216.00    -2000.00
00077             232.00    -2000.00
00078             240.00    -2040.00
00079             232.00    -2040.00
00080             248.00    -2040.00
00081             248.00    -2040.00
00082             248.00    -2040.00
00083             248.00    -2120.00
00084             264.00    -2080.00
00085             264.00    -2080.00
00086             256.00    -2120.00
00087             256.00    -2120.00
00088             272.00    -2120.00
00089             272.00    -2120.00
00090             264.00    -2120.00
00091             280.00    -2120.00
00092             280.00    -2120.00
00093             288.00    -2120.00
00094             288.00    -2120.00
00095             280.00    -2120.00
00096             304.00    -2120.00
00097             288.00    -2120.00
00098             296.00    -2120.00
00099             312.00    -2120.00
00100             312.00    -2120.00
00101             312.00    -2120.00
00102             304.00    -2080.00
00103             312.00    -2040.00
00104             312.00    -2040.00
00105             312.00    -2040.00
00106             312.00    -2040.00
00107             312.00    -2040.00
00108             312.00    -2000.00
00109             312.00    -2000.00
00110             312.00    -1960.00
00111             312.00    -2000.00
00112             312.00    -2000.00
00113             312.00    -1960.00
00114             312.00    -1960.00
00115             312.00    -1880.00
00116             304.00    -1880.00
00117             312.00    -1880.00
00118             312.00    -1880.00
00119             296.00    -1840.00
00120             296.00    -1840.00
00121             288.00    -1800.00
00122             296.00    -1800.00
00123             288.00    -1800.00
00124             296.00    -1720.00
00125             296.00    -1720.00
00126             288.00    -1720.00
00127             288.00    -1720.00
00128             280.00    -1680.00
00129             264.00    -1640.00
00130             280.00    -1640.00
00131             272.00    -1560.00
00132             264.00    -1560.00
00133             264.00    -1520.00
00134             256.00    -1520.00
00135             256.00    -1480.00
00136             248.00    -1440.00
00137             248.00    -1400.00
00138             248.00    -1400.00
00139             232.00    -1320.00
00140             232.00    -1320.00
00141             224.00    -1320.00
00142             224.00    -1240.00
00143             224.00    -1240.00
00144             216.00    -1200.00
00145             208.00    -1160.00
00146             216.00    -1160.00
00147             200.00    -1080.00
00148             192.00    -1080.00
00149             192.00    -1000.00
00150             192.00    -1000.00
00151             184.00     -960.00
00152             176.00     -920.00
00153             168.00     -880.00
00154             160.00     -880.00
00155             160.00     -840.00
00156             152.00     -760.00
00157             152.00     -720.00
00158             152.00     -720.00
00159             136.00     -680.00
00160             136.00     -640.00
00161             128.00     -600.00
00162             120.00     -560.00
00163             120.00     -520.00
00164             120.00     -520.00
00165             104.00     -440.00
00166              96.00     -440.00
00167              96.00     -360.00
00168              96.00     -320.00
00169              88.00     -280.00
00170              72.00     -240.00
00171              80.00     -200.00
00172              72.00     -160.00
00173              72.00     -120.00
00174              72.00     -120.00
00175              72.00      -80.00
00176              64.00      -40.00
00177              64.00       40.00
00178              64.00       80.00
00179              64.00      120.00
00180              56.00      120.00
00181              56.00      200.00
00182              56.00      240.00
00183              64.00      280.00
00184             216.00      360.00
00185             224.00      360.00
00186            -208.00      360.00
00187            -232.00      360.00
00188             136.00      440.00
00189             304.00      600.00
00190            -240.00      440.00
00191            -384.00      480.00
00192              88.00      600.00
00193             280.00      720.00
00194            -192.00      680.00
00195            -288.00      680.00
00196             136.00      840.00
00197             216.00      840.00
00198            -216.00      840.00
00199            -232.00      840.00
00200             152.00      920.00
00201              80.00     1000.00
00202            -256.00      880.00
00203            -120.00     1000.00
00204             152.00     1160.00
00205             -88.00     1080.00
00206            -248.00     1040.00
00207               0.00     1200.00
00208              40.00     1240.00
00209            -200.00     1200.00
00210            -152.00     1240.00
00211              32.00     1320.00
00212             -96.00     1320.00
00213            -224.00     1320.00
00214             -72.00     1400.00
00215             -32.00     1440.00
00216            -168.00     1400.00
00217            -168.00     1440.00
00218             -72.00     1520.00
00219            -104.00     1560.00
00220            -168.00     1520.00
00221            -136.00     1560.00
00222            -120.00     1640.00
00223            -136.00     1640.00
00224            -168.00     1640.00
00225            -160.00     1680.00
00226            -136.00     1720.00
00227            -152.00     1720.00
00228            -192.00     1760.00
00229            -168.00     1800.00
00230            -152.00     1800.00
00231            -184.00     1800.00
00232            -200.00     1840.00
00233            -168.00     1880.00
00234            -192.00     1880.00
00235            -216.00     1880.00
00236            -184.00     1880.00
00237            -192.00     1960.00
00238            -224.00     1920.00
00239            -224.00     1960.00
00240            -192.00     1960.00
00241            -216.00     2000.00
00242            -224.00     1960.00
00243            -224.00     2000.00
00244            -232.00     2040.00
00245            -240.00     2040.00
00246            -232.00     2040.00
00247            -232.00     2040.00
00248            -256.00     2040.00
00249            -248.00     2080.00
00250            -248.00     2040.00
00251            -248.00     2080.00
00252            -264.00     2120.00
00253            -264.00     2080.00
00254            -264.00     2120.00
00255            -256.00     2120.00
00256            -280.00     2120.00
00257            -280.00     2120.00
00258            -264.00     2120.00
00259            -280.00     2120.00
00260            -288.00     2120.00
00261            -288.00     2120.00
00262            -288.00     2120.00
00263            -296.00     2120.00
00264            -288.00     2120.00
00265            -280.00     2120.00
00266            -296.00     2080.00
00267            -312.00     2040.00
00268            -296.00     2080.00
00269            -296.00     2080.00
00270            -312.00     2080.00
00271            -304.00     2040.00
00272            -312.00     2040.00
00273            -312.00     2080.00
00274            -312.00     2040.00
00275            -312.00     2040.00
00276            -304.00     2000.00
00277            -304.00     2000.00
00278            -320.00     2000.00
00279            -312.00     1960.00
00280            -312.00     1960.00
00281            -320.00     1960.00
00282            -312.00     1920.00
00283            -296.00     1920.00
00284            -312.00     1880.00
00285            -312.00     1880.00
00286            -312.00     1840.00
00287            -296.00     1840.00
00288            -296.00     1840.00
00289            -296.00     1800.00
00290            -296.00     1800.00
00291            -288.00     1720.00
00292            -288.00     1720.00
00293            -288.00     1680.00
00294            -288.00     1680.00
00295            -288.00     1680.00
00296            -272.00     1640.00
00297            -264.00     1560.00
00298            -280.00     1560.00
00299            -272.00     1560.00
00300            -264.00     1520.00
00301            -256.00     1480.00
00302            -256.00     1480.00
00303            -256.00     1400.00
00304            -248.00     1400.00
00305            -248.00     1360.00
00306            -232.00     1320.00
00307            -232.00     1320.00
00308            -224.00     1320.00
00309            -224.00     1240.00
00310            -224.00     1240.00
00311            -216.00     1200.00
00312            -216.00     1160.00
00313            -200.00     1120.00
00314            -200.00     1080.00
00315            -192.00     1040.00
00316            -192.00     1040.00
00317            -184.00     1000.00
00318            -184.00      960.00
00319            -184.00      920.00
00320            -168.00      880.00
00321            -168.00      840.00
00322            -168.00      800.00
00323            -168.00      760.00
00324            -152.00      720.00
00325            -136.00      720.00
00326            -128.00      680.00
00327            -128.00      600.00
00328            -136.00      600.00
00329            -128.00      560.00
00330            -104.00      520.00
00331            -120.00      440.00
00332            -112.00      400.00
00333            -104.00      400.00
00334             -96.00      360.00
00335             -96.00      320.00
00336             -88.00      280.00
00337             -72.00      200.00
00338             -72.00      200.00
00339             -72.00      160.00
00340             -64.00      120.00
00341             -56.00       80.00
00342             -56.00       40.00
00343             -48.00        0.00
00344             -40.00      -40.00
00345             -24.00      -80.00
00346              -8.00     -120.00
00347               0.00     -160.00
00348               0.00     -200.00
00349              -8.00     -200.00
00350               0.00     -280.00
00351             152.00     -280.00
00352             248.00     -440.00
00353            -184.00     -360.00
00354            -320.00     -360.00
00355              24.00     -520.00
00356             384.00     -480.00
00357               0.00     -560.00
00358            -392.00     -520.00
00359             -72.00     -680.00
00360             352.00     -640.00
00361              56.00     -640.00
00362            -272.00     -760.00
00363              40.00     -760.00
00364             320.00     -800.00
00365              48.00     -800.00
00366            -152.00     -920.00
00367              88.00     -920.00
00368             184.00     -920.00
00369              24.00     -960.00
00370               8.00    -1040.00
00371             152.00    -1080.00
00372              64.00    -1040.00
00373              16.00    -1160.00
00374             152.00    -1200.00
00375             160.00    -1200.00
00376               8.00    -1200.00
00377              56.00    -1320.00
00378             192.00    -1320.00
00379             120.00    -1320.00
00380               8.00    -1360.00
00381             112.00    -1400.00
00382             200.00    -1360.00
00383             104.00    -1400.00
00384              64.00    -1520.00
00385             152.00    -1520.00
00386             168.00    -1480.00
00387             128.00    -1560.00
00388             128.00    -1600.00
00389             160.00    -1560.00
00390             152.00    -1640.00
00391             152.00    -1680.00
00392             160.00    -1680.00
00393             168.00    -1720.00
00394             160.00    -1760.00
00395             160.00    -1760.00
00396             168.00    -1800.00
00397             192.00    -1800.00
00398             176.00    -1840.00
00399             192.00    -1840.00
00400             200.00    -1840.00
00401             192.00    -1840.00
00402             176.00    -1880.00
00403             200.00    -1920.00
00404             224.00    -1920.00
00405             200.00    -1960.00
00406             200.00    -1960.00
00407             216.00    -2000.00
00408             224.00    -1960.00
00409             216.00    -2000.00
00410             216.00    -2000.00
00411             248.00    -2000.00
00412             224.00    -2040.00
00413             232.00    -2040.00
00414             248.00    -2040.00
00415             248.00    -2040.00
00416             248.00    -2080.00
00417             256.00    -2120.00
00418             264.00    -2120.00
00419             256.00    -2120.00
00420             256.00    -2080.00
00421             264.00    -2120.00
00422             272.00    -2120.00
00423             264.00    -2120.00
00424             264.00    -2120.00
00425             280.00    -2120.00
00426             288.00    -2120.00
00427             280.00    -2120.00
00428             288.00    -2120.00
00429             288.00    -2080.00
00430             288.00    -2120.00
00431             288.00    -2080.00
00432             296.00    -2120.00
00433             296.00    -2080.00
00434             288.00    -2080.00
00435             296.00    -2120.00
00436             312.00    -2040.00
00437             312.00    -2080.00
00438             312.00    -2040.00
00439             312.00    -2040.00
00440             312.00    -2040.00
00441             312.00    -2000.00
00442             312.00    -2000.00
00443             312.00    -2000.00
00444             312.00    -1960.00
00445             312.00    -1960.00
00446             312.00    -1960.00
00447             312.00    -1960.00
00448             296.00    -1920.00
00449             304.00    -1920.00
00450             312.00    -1880.00
00451             312.00    -1880.00
00452             312.00    -1880.00
00453             296.00    -1840.00
00454             312.00    -1840.00
00455             312.00    -1840.00
00456             288.00    -1800.00
00457             296.00    -1760.00
00458             296.00    -1720.00
00459             288.00    -1720.00
00460             288.00    -1720.00
00461             280.00    -1640.00
00462             264.00    -1640.00
00463             280.00    -1600.00
00464             272.00    -1640.00
00465             264.00    -1560.00
00466             264.00    -1520.00
00467             256.00    -1520.00
00468             256.00    -1440.00
00469             256.00    -1440.00
00470             248.00    -1400.00
00471             248.00    -1400.00
00472             248.00    -1360.00
00473             232.00    -1320.00
00474             232.00    -1280.00
00475             224.00    -1240.00
00476             224.00    -1240.00
00477             216.00    -1200.00
00478             216.00    -1160.00
00479             216.00    -1160.00
00480             192.00    -1120.00
00481             192.00    -1080.00
00482             192.00    -1080.00
00483             184.00    -1000.00
00484             184.00     -960.00
00485             176.00     -920.00
00486             160.00     -920.00
00487             168.00     -880.00
00488             160.00     -800.00
00489             152.00     -800.00
00490             152.00     -720.00
00491             152.00     -720.00
00492             152.00     -680.00
00493             136.00     -640.00
00494             128.00     -600.00
00495             120.00     -560.00
00496             120.00     -520.00
00497             120.00     -520.00
00498             104.00     -440.00
00499              96.00     -400.00
00500              96.00     -360.00
00501              96.00     -360.00
00502              96.00     -280.00
00503              88.00     -240.00
00504              88.00     -240.00
00505              64.00     -160.00
00506              64.00     -120.00
00507              80.00      -80.00
00508              64.00      -80.00
00509              64.00      -40.00
00510              64.00       40.00
00511              64.00       40.00
00512              64.00       80.00
00513              64.00      120.00
00514              56.00      160.00
00515              40.00      200.00
00516              56.00      240.00
00517             184.00      280.00
00518             264.00      400.00
00519            -152.00      360.00
00520            -280.00      360.00
00521              56.00      400.00
00522             344.00      640.00
00523            -152.00      480.00
00524            -408.00      520.00
00525               8.00      600.00
00526             312.00      760.00
00527            -120.00      680.00
00528            -320.00      680.00
00529              64.00      760.00
00530             256.00      800.00
00531            -160.00      840.00
00532            -280.00      840.00
00533             104.00      920.00
00534             136.00     1000.00
00535            -216.00      920.00
00536            -184.00     1000.00
00537             128.00     1160.00
00538             -16.00     1160.00
00539            -256.00     1040.00
00540             -40.00     1160.00
00541              64.00     1240.00
00542            -184.00     1200.00
00543            -192.00     1200.00
00544              24.00     1320.00
00545             -56.00     1360.00
00546            -224.00     1320.00
00547            -104.00     1360.00
00548             -24.00     1440.00
00549            -152.00     1400.00
00550            -184.00     1440.00
00551             -88.00     1520.00
00552            -104.00     1560.00
00553            -160.00     1520.00
00554            -152.00     1560.00
00555            -120.00     1640.00
00556            -136.00     1680.00
00557            -168.00     1640.00
00558            -168.00     1640.00
00559            -136.00     1720.00
00560            -144.00     1720.00
00561            -200.00     1720.00
00562            -184.00     1760.00
00563            -152.00     1800.00
00564            -176.00     1840.00
00565            -200.00     1840.00
00566            -168.00     1880.00
00567            -184.00     1880.00
00568            -224.00     1880.00
00569            -192.00     1920.00
00570            -184.00     1960.00
00571            -224.00     1960.00
00572            -224.00     1960.00
00573            -200.00     2000.00
00574            -208.00     2000.00
00575            -232.00     1960.00
00576            -216.00     2000.00
00577            -232.00     2000.00
00578            -232.00     2040.00
00579            -232.00     2040.00
00580            -232.00     2040.00
00581            -248.00     2040.00
00582            -256.00     2080.00
00583            -256.00     2080.00
00584            -248.00     2080.00
00585            -256.00     2120.00
00586            -264.00     2120.00
00587            -256.00     2120.00
00588            -256.00     2120.00
00589            -280.00     2120.00
00590            -288.00     2080.00
00591            -264.00     2120.00
00592            -280.00     2120.00
00593            -288.00     2120.00
00594            -288.00     2120.00
00595            -288.00     2120.00
00596            -296.00     2120.00
00597            -296.00     2120.00
00598            -288.00     2120.00
00599            -296.00     2120.00
00600            -296.00     2120.00
00601            -296.00     2080.00
00602            -296.00     2120.00
00603            -312.00     2040.00
00604            -312.00     2040.00
00605            -312.00     2040.00
00606            -312.00     2040.00
00607            -312.00     2040.00
00608            -312.00     2040.00
00609            -312.00     2000.00
00610            -296.00     2000.00
00611            -320.00     2000.00
00612            -312.00     2000.00
00613            -304.00     1960.00
00614            -320.00     1960.00
00615            -312.00     1960.00
00616            -296.00     1920.00
00617            -304.00     1920.00
00618            -312.00     1840.00
00619            -312.00     1880.00
00620            -296.00     1840.00
00621            -296.00     1800.00
00622            -296.00     1800.00
00623            -296.00     1760.00
00624            -296.00     1760.00
00625            -296.00     1720.00
00626            -296.00     1720.00
00627            -288.00     1680.00
00628            -288.00     1680.00
00629            -280.00     1640.00
00630            -264.00     1640.00
00631            -280.00     1600.00
00632            -280.00     1560.00
00633            -264.00     1520.00
00634            -256.00     1520.00
00635            -256.00     1480.00
00636            -256.00     1440.00
00637            -256.00     1400.00
00638            -248.00     1360.00
00639            -240.00     1360.00
00640            -232.00     1320.00
00641            -224.00     1320.00
00642            -232.00     1240.00
00643            -224.00     1240.00
00644            -216.00     1200.00
00645            -216.00     1200.00
00646            -208.00     1160.00
00647            -200.00     1080.00
00648            -200.00     1080.00
00649            -192.00     1040.00
00650            -184.00     1000.00
00651            -184.00      960.00
00652            -176.00      920.00
00653            -168.00      880.00
00654            -184.00      840.00
00655            -168.00      800.00
00656            -160.00      760.00
00657            -152.00      760.00
00658            -136.00      720.00
00659            -136.00      680.00
00660            -128.00      640.00
00661            -128.00      600.00
00662            -128.00      560.00
00663            -120.00      560.00
00664            -112.00      480.00
00665            -120.00      440.00
00666            -104.00      360.00
00667             -96.00      360.00
00668             -88.00      320.00
00669             -96.00      280.00
00670             -88.00      240.00
00671             -88.00      200.00
00672             -72.00      200.00
00673             -64.00      120.00
00674             -56.00      120.00
00675             -56.00       40.00
00676             -56.00       40.00
00677             -40.00        0.00
00678             -32.00      -80.00
00679              -8.00     -120.00
00680              -8.00     -120.00
00681               0.00     -200.00
00682               0.00     -200.00
00683               0.00     -280.00
00684             120.00     -320.00
00685             264.00     -400.00
00686            -120.00     -440.00
00687            -328.00     -320.00
00688             -64.00     -520.00
00689             360.00     -520.00
00690              96.00     -560.00
00691            -376.00     -520.00
00692            -160.00     -640.00
00693             320.00     -680.00
00694             128.00     -640.00
00695            -264.00     -800.00
00696             -40.00     -800.00
00697             312.00     -760.00
00698             104.00     -800.00
00699            -136.00     -920.00
00700              40.00     -960.00
00701             192.00     -920.00
00702              40.00     -960.00
00703              -8.00    -1040.00
00704             128.00    -1080.00
00705              96.00    -1040.00
00706              24.00    -1080.00
00707             128.00    -1200.00
00708             168.00    -1200.00
00709              32.00    -1200.00
00710              24.00    -1280.00
00711             192.00    -1320.00
00712             152.00    -1280.00
00713               8.00    -1360.00
00714              88.00    -1400.00
00715             200.00    -1400.00
00716             128.00    -1400.00
00717              64.00    -1520.00
00718             136.00    -1480.00
00719             184.00    -1480.00
00720             128.00    -1560.00
00721             128.00    -1560.00
00722             152.00    -1600.00
00723             160.00    -1640.00
00724             152.00    -1640.00
00725             160.00    -1680.00
00726             168.00    -1680.00
00727             168.00    -1720.00
00728             160.00    -1760.00
00729             168.00    -1800.00
00730             184.00    -1800.00
00731             184.00    -1840.00
00732             192.00    -1840.00
00733             200.00    -1880.00
00734             192.00    -1840.00
00735             184.00    -1880.00
00736             192.00    -1920.00
00737             224.00    -1920.00
00738             216.00    -1960.00
00739             200.00    -2000.00
00740             216.00    -1960.00
00741             232.00    -2000.00
00742             216.00    -2000.00
00743             224.00    -2000.00
00744             248.00    -2040.00
00745             232.00    -2040.00
00746             232.00    -2040.00
00747             248.00    -2040.00
00748             248.00    -2040.00
00749             248.00    -2040.00
00750             256.00    -2080.00
00751             264.00    -2080.00
00752             256.00    -2080.00
00753             256.00    -2080.00
00754             256.00    -2040.00
00755             264.00    -2120.00
00756             264.00    -2120.00
00757             264.00    -2120.00
00758             280.00    -2120.00
00759             280.00    -2120.00
00760             280.00    -2120.00
00761             288.00    -2120.00
00762             288.00    -2120.00
00763             288.00    -2120.00
00764             280.00    -2120.00
00765             296.00    -2120.00
00766             296.00    -2120.00
00767             296.00    -2080.00
00768             296.00    -2040.00
00769             312.00    -2080.00
00770             312.00    -2040.00
00771             312.00    -2040.00
00772             312.00    -2040.00
00773             312.00    -2000.00
00774             312.00    -2040.00
00775             304.00    -2040.00
00776             312.00    -1960.00
00777             312.00    -2000.00
00778             312.00    -2000.00
00779             312.00    -1960.00
00780             312.00    -1960.00
00781             296.00    -1920.00
00782             296.00    -1920.00
00783             320.00    -1880.00
00784             320.00    -1880.00
00785             312.00    -1880.00
00786             288.00    -1840.00
00787             296.00    -1840.00
00788             312.00    -1800.00
00789             296.00    -1800.00
00790             296.00    -1800.00
00791             296.00    -1720.00
00792             288.00    -1720.00
00793             280.00    -1720.00
00794             288.00    -1680.00
00795             280.00    -1640.00
00796             280.00    -1640.00
00797             280.00    -1600.00
00798             264.00    -1560.00
00799             264.00    -1520.00
00800             256.00    -1520.00
00801             256.00    -1480.00
00802             248.00    -1440.00
00803             248.00    -1400.00
00804             248.00    -1400.00
00805             248.00    -1360.00
00806             232.00    -1320.00
00807             232.00    -1320.00
00808             224.00    -1240.00
00809             224.00    -1240.00
00810             216.00    -1200.00
00811             216.00    -1160.00
00812             216.00    -1160.00
00813             200.00    -1080.00
00814             192.00    -1080.00
00815             192.00    -1040.00
00816             192.00    -1000.00
00817             184.00    -1000.00
00818             184.00     -960.00
00819             168.00     -920.00
00820             160.00     -880.00
00821             160.00     -840.00
00822             152.00     -760.00
00823             152.00     -760.00
00824             152.00     -720.00
00825             152.00     -680.00
00826             136.00     -680.00
00827             128.00     -600.00
00828             120.00     -560.00
00829             120.00     -520.00
00830             120.00     -520.00
00831             120.00     -440.00
00832             104.00     -400.00
00833              96.00     -400.00
00834              96.00     -320.00
00835              88.00     -280.00
00836              88.00     -240.00
00837              80.00     -200.00
00838              64.00     -160.00
00839              64.00     -160.00
00840              72.00     -120.00
00841              72.00      -80.00
00842              72.00      -40.00
00843              64.00       40.00
00844              64.00       40.00
00845              64.00      120.00
00846              64.00      120.00
00847              56.00      200.00
00848              56.00      200.00
00849              56.00      240.00
00850             152.00      280.00
00851             288.00      360.00
00852             -72.00      360.00
00853            -296.00      360.00
00854             -24.00      360.00
00855             352.00      600.00
00856             -56.00      520.00
00857            -416.00      440.00
00858             -96.00      600.00
00859             312.00      720.00
00860             -24.00      680.00
00861            -328.00      640.00
00862              -8.00      760.00
00863             280.00      840.00
00864             -96.00      840.00
00865            -296.00      840.00
00866              40.00      880.00
00867             176.00     1000.00
00868            -168.00      920.00
00869            -216.00      960.00
00870             104.00     1080.00
00871              40.00     1160.00
00872            -248.00     1080.00
00873             -88.00     1120.00
00874              88.00     1240.00
00875            -128.00     1240.00
00876            -224.00     1160.00
00877              -8.00     1280.00
00878             -24.00     1360.00
00879            -208.00     1320.00
00880            -136.00     1360.00
00881             -24.00     1440.00
00882            -128.00     1440.00
00883            -192.00     1400.00
00884             -96.00     1480.00
00885             -88.00     1520.00
00886            -160.00     1520.00
00887            -160.00     1560.00
00888            -128.00     1640.00
00889            -136.00     1640.00
00890            -168.00     1640.00
00891            -168.00     1640.00
00892            -136.00     1680.00
00893            -136.00     1720.00
00894            -192.00     1720.00
00895            -192.00     1760.00
00896            -152.00     1800.00
00897            -168.00     1800.00
00898            -200.00     1800.00
00899            -168.00     1840.00
00900            -184.00     1880.00
00901            -224.00     1880.00
00902            -192.00     1880.00
00903            -176.00     1960.00
00904            -216.00     1960.00
00905            -232.00     1960.00
00906            -200.00     2000.00
00907            -216.00     2000.00
00908            -224.00     2000.00
00909            -216.00     2040.00
00910            -224.00     2040.00
00911            -232.00     2040.00
00912            -232.00     2040.00
00913            -232.00     2040.00
00914            -248.00     2040.00
00915            -248.00     2040.00
00916            -248.00     2080.00
00917            -248.00     2080.00
00918            -256.00     2080.00
00919            -264.00     2120.00
00920            -264.00     2080.00
00921            -256.00     2120.00
00922            -272.00     2120.00
00923            -280.00     2120.00
00924            -272.00     2120.00
00925            -264.00     2120.00
00926            -288.00     2120.00
00927            -280.00     2080.00
00928            -280.00     2120.00
00929            -296.00     2120.00
00930            -288.00     2080.00
00931            -288.00     2120.00
00932            -296.00     2120.00
00933            -296.00     2080.00
00934            -296.00     2120.00
00935            -296.00     2120.00
00936            -312.00     2080.00
00937            -312.00     2080.00
00938            -312.00     2040.00
00939            -304.00     2040.00
00940            -312.00     2040.00
00941            -312.00     2000.00
00942            -320.00     2000.00
00943            -312.00     2000.00
00944            -312.00     2000.00
00945            -312.00     1960.00
00946            -304.00     1960.00
00947            -320.00     1960.00
00948            -312.00     1920.00
00949            -312.00     1920.00
00950            -312.00     1880.00
00951            -312.00     1880.00
00952            -304.00     1880.00
00953            -296.00     1840.00
00954            -312.00     1840.00
00955            -296.00     1800.00
00956            -296.00     1800.00
00957            -296.00     1720.00
00958            -288.00     1720.00
00959            -288.00     1680.00
00960            -288.00     1680.00
00961            -288.00     1680.00
00962            -280.00     1640.00
00963            -272.00     1600.00
00964            -264.00     1560.00
00965            -272.00     1560.00
00966            -264.00     1520.00
00967            -256.00     1480.00
00968            -256.00     1480.00
00969            -264.00     1440.00
00970            -248.00     1440.00
00971            -240.00     1360.00
00972            -248.00     1360.00
00973            -232.00     1320.00
00974            -224.00     1320.00
00975            -224.00     1240.00
00976            -224.00     1240.00
00977            -216.00     1240.00
00978            -208.00     1160.00
00979            -200.00     1160.00
00980            -200.00     1080.00
00981            -192.00     1120.00
00982            -192.00     1040.00
00983            -176.00     1040.00
00984            -192.00      920.00
00985            -168.00      920.00
00986            -168.00      880.00
00987            -168.00      880.00
00988            -168.00      800.00
00989            -160.00      760.00
00990            -152.00      720.00
00991            -136.00      720.00
00992            -128.00      680.00
00993            -128.00      680.00
00994            -136.00      600.00
00995            -128.00      560.00
00996            -120.00      520.00
00997            -112.00      480.00
00998            -120.00      440.00
00999            -104.00      400.00
01000             -96.00      360.00
01001             -88.00      320.00
01002             -96.00      280.00
01003             -96.00      240.00
01004             -88.00      200.00
01005             -72.00      200.00
01006             -64.00      120.00
01007             -64.00      120.00
01008             -56.00       40.00
01009             -56.00       40.00
01010             -40.00      -40.00
01011             -32.00      -80.00
01012              -8.00      -80.00
01013              -8.00     -120.00
01014              -8.00     -160.00
01015              -8.00     -200.00
01016               0.00     -240.00
01017              88.00     -280.00
01018             264.00     -400.00
01019             -40.00     -440.00
01020            -344.00     -280.00
01021            -128.00     -520.00
01022             320.00     -520.00
01023             192.00     -560.00
01024            -344.00     -560.00
01025            -232.00     -640.00
01026             280.00     -680.00
01027             200.00     -600.00
01028            -232.00     -720.00
01029            -112.00     -760.00
01030             296.00     -840.00
01031             160.00     -760.00
01032            -136.00     -920.00
01033              -8.00    -1000.00
01034             200.00     -920.00
01035              72.00     -920.00
01036              -8.00    -1080.00
01037             120.00    -1080.00
01038             120.00    -1040.00
01039               8.00    -1080.00
01040              96.00    -1200.00
01041             192.00    -1200.00
01042              56.00    -1160.00
01043               8.00    -1240.00
01044             160.00    -1320.00
01045             184.00    -1240.00
01046              24.00    -1320.00
01047              64.00    -1440.00
01048             200.00    -1360.00
01049             144.00    -1400.00
01050              64.00    -1480.00
01051             120.00    -1520.00
01052             184.00    -1480.00
01053             128.00    -1560.00
01054             120.00    -1600.00
01055             144.00    -1600.00
01056             152.00    -1640.00
01057             152.00    -1680.00
01058             160.00    -1680.00
01059             168.00    -1720.00
01060             168.00    -1720.00
01061             160.00    -1760.00
01062             160.00    -1760.00
01063             184.00    -1800.00
01064             184.00    -1800.00
01065             184.00    -1840.00
01066             200.00    -1880.00
01067             200.00    -1840.00
01068             176.00    -1880.00
01069             192.00    -1880.00
01070             224.00    -1920.00
01071             216.00    -1960.00
01072             192.00    -1960.00
01073             216.00    -1960.00
01074             224.00    -1960.00
01075             216.00    -2000.00
01076             224.00    -2000.00
01077             232.00    -2000.00
01078             232.00    -2040.00
01079             232.00    -2040.00
01080             248.00    -2040.00
01081             240.00    -2040.00
01082             232.00    -2040.00
01083             248.00    -2080.00
01084             256.00    -2120.00
01085             256.00    -2080.00
01086             256.00    -2080.00
01087             256.00    -2120.00
01088             272.00    -2120.00
01089             264.00    -2080.00
01090             264.00    -2120.00
01091             280.00    -2120.00
01092             288.00    -2120.00
01093             280.00    -2120.00
01094             272.00    -2120.00
01095             288.00    -2120.00
01096             296.00    -2120.00
01097             288.00    -2120.00
01098             304.00    -2120.00
01099             296.00    -2080.00
01100             288.00    -2120.00
01101             296.00    -2120.00
01102             312.00    -2120.00
01103             312.00    -2040.00
01104             312.00    -2040.00
01105             312.00    -2040.00
01106             320.00    -2040.00
01107             320.00    -2000.00
01108             312.00    -2000.00
01109             320.00    -2000.00
01110             320.00    -2000.00
01111             312.00    -1960.00
01112             320.00    -1960.00
01113             312.00    -1960.00
01114             312.00    -1960.00
01115             312.00    -1880.00
01116             312.00    -1920.00
01117             320.00    -1880.00
01118             304.00    -1840.00
01119             296.00    -1840.00
01120             304.00    -1840.00
01121             304.00    -1800.00
01122             296.00    -1800.00
01123             296.00    -1760.00
01124             288.00    -1720.00
01125             288.00    -1720.00
01126             288.00    -1720.00
01127             288.00    -1680.00
01128             280.00    -1680.00
01129             288.00    -1640.00
01130             280.00    -1560.00
01131             280.00    -1560.00
01132             264.00    -1560.00
01133             256.00    -1520.00
01134             256.00    -1520.00
01135             256.00    -1440.00
01136             248.00    -1400.00
01137             248.00    -1440.00
01138             248.00    -1400.00
01139             232.00    -1360.00
01140             224.00    -1320.00
01141             232.00    -1320.00
01142             216.00    -1240.00
01143             216.00    -1240.00
01144             216.00    -1200.00
01145             216.00    -1160.00
01146             200.00    -1120.00
01147             192.00    -1080.00
01148             192.00    -1040.00
01149             192.00    -1040.00
01150             184.00     -960.00
01151             168.00     -920.00
01152             168.00     -920.00
01153             160.00     -880.00
01154             160.00     -840.00
01155             152.00     -840.00
01156             152.00     -760.00
01157             144.00     -760.00
01158             144.00     -720.00
01159             136.00     -680.00
01160             128.00     -600.00
01161             120.00     -560.00
01162             120.00     -560.00
01163             120.00     -480.00
01164             120.00     -440.00
01165             104.00     -440.00
01166              96.00     -400.00
01167              96.00     -360.00
01168              96.00     -320.00
01169              88.00     -280.00
01170              80.00     -240.00
01171              72.00     -160.00
01172              64.00     -160.00
01173              64.00     -120.00
01174              72.00      -80.00
01175              72.00      -40.00
01176              56.00        0.00
01177              64.00       40.00
01178              64.00       80.00
01179              64.00      120.00
01180              56.00      200.00
01181              56.00      200.00
01182              40.00      240.00
01183             120.00      280.00
01184             288.00      360.00
01185               8.00      360.00
01186            -288.00      360.00
01187             -88.00      360.00
01188             328.00      600.00
01189              56.00      560.00
01190            -408.00      440.00
01191            -168.00      600.00
01192             288.00      720.00
01193              64.00      720.00
01194            -328.00      600.00
01195             -88.00      760.00
01196             288.00      840.00
01197               0.00      840.00
01198            -312.00      840.00
01199             -32.00      880.00
01200             200.00     1000.00
01201            -120.00      920.00
01202            -256.00      920.00
01203              64.00     1080.00
01204              80.00     1160.00
01205            -224.00     1080.00
01206            -136.00     1120.00
01207              88.00     1240.00
01208             -96.00     1240.00
01209            -248.00     1160.00
01210             -32.00     1320.00
01211               0.00     1320.00
01212            -200.00     1320.00
01213            -160.00     1360.00
01214             -24.00     1400.00
01215            -104.00     1440.00
01216            -192.00     1440.00
01217            -120.00     1480.00
01218             -80.00     1560.00
01219            -152.00     1520.00
01220            -160.00     1560.00
01221            -128.00     1600.00
01222            -136.00     1640.00
01223            -160.00     1640.00
01224            -168.00     1640.00
01225            -152.00     1720.00
01226            -128.00     1720.00
01227            -192.00     1720.00
01228            -200.00     1760.00
01229            -152.00     1800.00
01230            -160.00     1800.00
01231            -200.00     1800.00
01232            -184.00     1840.00
01233            -168.00     1840.00
01234            -216.00     1880.00
01235            -200.00     1880.00
01236            -168.00     1920.00
01237            -200.00     1960.00
01238            -232.00     1960.00
01239            -200.00     1960.00
01240            -200.00     2000.00
01241            -224.00     2000.00
01242            -216.00     2000.00
01243            -224.00     2040.00
01244            -232.00     2040.00
01245            -232.00     2040.00
01246            -232.00     2040.00
01247            -248.00     2080.00
01248            -248.00     2080.00
01249            -240.00     2080.00
01250            -248.00     2080.00
01251            -256.00     2080.00
01252            -264.00     2080.00
01253            -264.00     2120.00
01254            -256.00     2120.00
01255            -264.00     2120.00
01256            -280.00     2120.00
01257            -264.00     2120.00
01258            -272.00     2160.00
01259            -288.00     2120.00
01260            -288.00     2120.00
01261            -288.00     2120.00
01262            -288.00     2120.00
01263            -296.00     2120.00
01264            -288.00     2080.00
01265            -296.00     2120.00
01266            -304.00     2120.00
01267            -296.00     2080.00
01268            -296.00     2120.00
01269            -312.00     2080.00
01270            -312.00     2040.00
01271            -320.00     2080.00
01272            -304.00     2040.00
01273            -296.00     2040.00
01274            -312.00     2040.00
01275            -320.00     2000.00
01276            -320.00     2000.00
01277            -320.00     2000.00
01278            -312.00     1960.00
01279            -312.00     1960.00
01280            -320.00     1960.00
01281            -320.00     1960.00
01282            -312.00     1960.00
01283            -312.00     1880.00
01284            -320.00     1880.00
01285            -312.00     1840.00
01286            -304.00     1840.00
01287            -312.00     1840.00
01288            -312.00     1800.00
01289            -296.00     1800.00
01290            -296.00     1760.00
01291            -296.00     1720.00
01292            -288.00     1720.00
01293            -288.00     1680.00
01294            -296.00     1680.00
01295            -288.00     1640.00
01296            -280.00     1600.00
01297            -264.00     1600.00
01298            -272.00     1560.00
01299            -272.00     1520.00
01300            -264.00     1520.00
01301            -256.00     1480.00
01302            -256.00     1440.00
01303            -256.00     1400.00
01304            -240.00     1400.00
01305            -232.00     1400.00
01306            -232.00     1320.00
01307            -232.00     1280.00
01308            -224.00     1280.00
01309            -216.00     1240.00
01310            -216.00     1200.00
01311            -216.00     1160.00
01312            -216.00     1160.00
01313            -200.00     1080.00
01314            -192.00     1080.00
01315            -192.00     1080.00
01316            -184.00     1000.00
01317            -184.00      960.00
01318            -184.00      920.00
01319            -168.00      880.00
01320            -168.00      840.00
01321            -160.00      840.00
01322            -168.00      760.00
01323            -152.00      760.00
01324            -136.00      720.00
01325            -136.00      680.00
01326            -128.00      600.00
01327            -128.00      600.00
01328            -128.00      560.00
01329            -120.00      520.00
01330            -120.00      520.00
01331            -128.00      440.00
01332            -104.00      440.00
01333             -96.00      400.00
01334             -96.00      320.00
01335             -96.00      280.00
01336             -96.00      240.00
01337             -88.00      240.00
01338             -72.00      200.00
01339             -64.00      120.00
01340             -64.00      120.00
01341             -64.00       80.00
01342             -64.00       40.00
01343             -40.00        0.00
01344             -32.00      -40.00
01345             -24.00     -120.00
01346             -24.00     -120.00
01347              -8.00     -160.00
01348              -8.00     -200.00
01349             -16.00     -240.00
01350              56.00     -280.00
01351             256.00     -360.00
01352              40.00     -440.00
01353            -328.00     -320.00
01354            -192.00     -440.00
01355             264.00     -520.00
01356             280.00     -600.00
01357            -296.00     -560.00
01358            -296.00     -600.00
01359             200.00     -720.00
01360             264.00     -600.00
01361            -192.00     -720.00
01362            -184.00     -760.00
01363             248.00     -760.00
01364             224.00     -760.00
01365            -120.00     -880.00
01366             -56.00    -1000.00
01367             192.00     -920.00
01368             104.00     -920.00
01369             -16.00    -1000.00
01370              96.00    -1080.00
01371             144.00    -1040.00
01372              24.00    -1080.00
01373              72.00    -1160.00
01374             192.00    -1200.00
01375              72.00    -1200.00
01376               0.00    -1240.00
01377             144.00    -1280.00
01378             192.00    -1280.00
01379              40.00    -1320.00
01380              48.00    -1400.00
01381             184.00    -1400.00
01382             168.00    -1400.00
01383              64.00    -1480.00
01384             104.00    -1560.00
01385             184.00    -1520.00
01386             152.00    -1560.00
01387             128.00    -1560.00
01388             136.00    -1640.00
01389             160.00    -1640.00
01390             152.00    -1680.00
01391             152.00    -1680.00
01392             160.00    -1680.00
01393             176.00    -1720.00
01394             160.00    -1760.00
01395             168.00    -1760.00
01396             184.00    -1800.00
01397             184.00    -1800.00
01398             176.00    -1840.00
01399             200.00    -1840.00
01400             200.00    -1880.00
01401             184.00    -1840.00
01402             184.00    -1880.00
01403             216.00    -1920.00
01404             224.00    -1920.00
01405             200.00    -1960.00
01406             216.00    -2000.00
01407             224.00    -1960.00
01408             216.00    -2000.00
01409             216.00    -2000.00
01410             240.00    -2000.00
01411             232.00    -2000.00
01412             232.00    -2040.00
01413             240.00    -2040.00
01414             248.00    -2080.00
01415             232.00    -2040.00
01416             248.00    -2080.00
01417             256.00    -2120.00
01418             264.00    -2120.00
01419             256.00    -2080.00
01420             256.00    -2120.00
01421             264.00    -2120.00
01422             264.00    -2080.00
01423             264.00    -2120.00
01424             272.00    -2120.00
01425             280.00    -2120.00
01426             288.00    -2120.00
01427             280.00    -2120.00
01428             288.00    -2120.00
01429             288.00    -2040.00
01430             288.00    -2120.00
01431             296.00    -2120.00
01432             304.00    -2120.00
01433             288.00    -2080.00
01434             296.00    -2120.00
01435             312.00    -2080.00
01436             312.00    -2040.00
01437             312.00    -2080.00
01438             312.00    -2040.00
01439             320.00    -2000.00
01440             312.00    -2000.00
01441             312.00    -2000.00
01442             312.00    -2000.00
01443             312.00    -1960.00
01444             320.00    -1960.00
01445             312.00    -1960.00
01446             312.00    -1960.00
01447             312.00    -1920.00
01448             304.00    -1920.00
01449             312.00    -1920.00
01450             320.00    -1880.00
01451             312.00    -1880.00
01452             304.00    -1840.00
01453             312.00    -1800.00
01454             296.00    -1840.00
01455             288.00    -1800.00
01456             296.00    -1720.00
01457             288.00    -1760.00
01458             296.00    -1720.00
01459             288.00    -1680.00
01460             280.00    -1680.00
01461             280.00    -1680.00
01462             280.00    -1640.00
01463             280.00    -1600.00
01464             280.00    -1560.00
01465             264.00    -1560.00
01466             256.00    -1520.00
01467             256.00    -1520.00
01468             256.00    -1440.00
01469             256.00    -1440.00
01470             248.00    -1400.00
01471             240.00    -1360.00
01472             232.00    -1360.00
01473             232.00    -1320.00
01474             216.00    -1320.00
01475             216.00    -1240.00
01476             216.00    -1200.00
01477             216.00    -1200.00
01478             208.00    -1200.00
01479             200.00    -1160.00
01480             192.00    -1080.00
01481             192.00    -1040.00
01482             192.00    -1040.00
01483             184.00    -1000.00
01484             168.00     -920.00
01485             168.00     -920.00
01486             168.00     -880.00
01487             160.00     -840.00
01488             160.00     -760.00
01489             152.00     -760.00
01490             144.00     -720.00
01491             144.00     -680.00
01492             136.00     -640.00
01493             128.00     -640.00
01494             120.00     -600.00
01495             120.00     -560.00
01496             120.00     -520.00
01497             120.00     -480.00
01498             104.00     -440.00
01499              96.00     -400.00
01500              96.00     -360.00
01501              96.00     -280.00
01502              88.00     -240.00
01503              88.00     -240.00
01504              72.00     -160.00
01505              72.00     -160.00
01506              72.00     -120.00
01507              72.00      -80.00
01508              64.00      -40.00
01509              72.00        0.00
01510              64.00       40.00
01511              64.00       80.00
01512              64.00      120.00
01513              56.00      160.00
01514              56.00      200.00
01515              56.00      200.00
01516              96.00      280.00
01517             280.00      360.00
01518              80.00      360.00
01519            -288.00      360.00
01520            -144.00      360.00
01521             280.00      520.00
01522             152.00      600.00
01523            -376.00      440.00
01524            -256.00      560.00
01525             248.00      720.00
01526             152.00      720.00
01527            -320.00      600.00
01528            -168.00      760.00
01529             256.00      840.00
01530              64.00      840.00
01531            -296.00      840.00
01532            -104.00      880.00
01533             216.00     1000.00
01534             -56.00     1000.00
01535            -264.00      920.00
01536               0.00     1040.00
01537             120.00     1160.00
01538            -192.00     1040.00
01539            -192.00     1080.00
01540              72.00     1200.00
01541             -40.00     1240.00
01542            -248.00     1200.00
01543             -72.00     1280.00
01544              24.00     1360.00
01545            -168.00     1320.00
01546            -200.00     1360.00
01547             -32.00     1440.00
01548             -72.00     1400.00
01549            -192.00     1400.00
01550            -136.00     1480.00
01551             -72.00     1520.00
01552            -152.00     1560.00
01553            -168.00     1520.00
01554            -128.00     1600.00
01555            -128.00     1640.00
01556            -152.00     1640.00
01557            -168.00     1640.00
01558            -152.00     1680.00
01559            -136.00     1720.00
01560            -176.00     1680.00
01561            -200.00     1760.00
01562            -160.00     1800.00
01563            -160.00     1800.00
01564            -192.00     1840.00
01565            -184.00     1840.00
01566            -168.00     1880.00
01567            -216.00     1880.00
01568            -200.00     1880.00
01569            -184.00     1960.00
01570            -192.00     1960.00
01571            -224.00     1920.00
01572            -200.00     1960.00
01573            -200.00     2000.00
01574            -224.00     2000.00
01575            -224.00     2000.00
01576            -224.00     2040.00
01577            -224.00     2040.00
01578            -224.00     2040.00
01579            -232.00     2040.00
01580            -232.00     2080.00
01581            -248.00     2080.00
01582            -248.00     2080.00
01583            -232.00     2120.00
01584            -256.00     2120.00
01585            -264.00     2120.00
01586            -264.00     2080.00
01587            -256.00     2120.00
01588            -264.00     2120.00
01589            -280.00     2120.00
01590            -264.00     2120.00
01591            -264.00     2120.00
01592            -280.00     2120.00
01593            -280.00     2120.00
01594            -296.00     2120.00
01595            -296.00     2120.00
01596            -296.00     2120.00
01597            -296.00     2120.00
01598            -296.00     2120.00
01599            -296.00     2080.00
01600            -296.00     2080.00
01601            -296.00     2120.00
01602            -312.00     2080.00
01603            -312.00     2040.00
01604            -312.00     2040.00
01605            -312.00     2040.00
01606            -312.00     2040.00
01607            -320.00     2040.00
01608            -320.00     2000.00
01609            -312.00     2000.00
01610            -320.00     2000.00
01611            -312.00     2000.00
01612            -320.00     1960.00
01613            -320.00     1960.00
01614            -320.00     1960.00
01615            -312.00     1960.00
01616            -304.00     1880.00
01617            -320.00     1880.00
01618            -312.00     1840.00
01619            -304.00     1840.00
01620            -296.00     1800.00
01621            -296.00     1800.00
01622            -296.00     1800.00
01623            -296.00     1760.00
01624            -296.00     1760.00
01625            -288.00     1720.00
01626            -288.00     1720.00
01627            -288.00     1680.00
01628            -288.00     1640.00
01629            -280.00     1600.00
01630            -264.00     1560.00
01631            -264.00     1560.00
01632            -264.00     1520.00
01633            -256.00     1520.00
01634            -256.00     1480.00
01635            -256.00     1440.00
01636            -256.00     1440.00
01637            -248.00     1400.00
01638            -240.00     1400.00
01639            -232.00     1320.00
01640            -232.00     1320.00
01641            -224.00     1280.00
01642            -224.00     1240.00
01643            -216.00     1200.00
01644            -216.00     1200.00
01645            -208.00     1160.00
01646            -200.00     1120.00
01647            -192.00     1040.00
01648            -192.00     1040.00
01649            -184.00     1000.00
01650            -176.00     1000.00
01651            -168.00      920.00
01652            -168.00      920.00
01653            -168.00      880.00
01654            -168.00      840.00
01655            -168.00      760.00
01656            -152.00      760.00
01657            -136.00      720.00
01658            -128.00      680.00
01659            -128.00      680.00
01660            -128.00      600.00
01661            -128.00      560.00
01662            -120.00      560.00
01663            -120.00      480.00
01664            -104.00      440.00
01665            -120.00      400.00
01666            -104.00      360.00
01667             -96.00      360.00
01668             -96.00      280.00
01669             -96.00      280.00
01670             -96.00      240.00
01671             -72.00      200.00
01672             -72.00      160.00
01673             -72.00      120.00
01674             -56.00       40.00
01675             -56.00       40.00
01676             -56.00        0.00
01677             -40.00      -40.00
01678             -24.00     -120.00
01679             -16.00     -120.00
01680              -8.00     -160.00
01681              -8.00     -160.00
01682              -8.00     -240.00
01683              32.00     -240.00
01684             232.00     -360.00
01685             120.00     -440.00
01686            -296.00     -320.00
01687            -248.00     -400.00
01688             192.00     -520.00
01689             344.00     -520.00
01690            -216.00     -560.00
01691            -352.00     -600.00
01692             120.00     -720.00
01693             320.00     -600.00
01694            -128.00     -720.00
01695            -232.00     -840.00
01696             192.00     -800.00
01697             264.00     -800.00
01698             -72.00     -840.00
01699             -96.00    -1000.00
01700             168.00     -920.00
01701             128.00     -920.00
01702              -8.00    -1000.00
01703              64.00    -1080.00
01704             152.00    -1080.00
01705              32.00    -1040.00
01706              56.00    -1200.00
01707             192.00    -1200.00
01708             104.00    -1160.00
01709               0.00    -1240.00
01710             120.00    -1320.00
01711             216.00    -1280.00
01712              64.00    -1320.00
01713              32.00    -1400.00
01714             168.00    -1400.00
01715             184.00    -1360.00
01716              72.00    -1480.00
01717              88.00    -1520.00
01718             168.00    -1480.00
01719             160.00    -1520.00
01720             128.00    -1600.00
01721             144.00    -1600.00
01722             160.00    -1640.00
01723             152.00    -1680.00
01724             152.00    -1680.00
01725             160.00    -1680.00
01726             168.00    -1720.00
01727             160.00    -1800.00
01728             168.00    -1760.00
01729             176.00    -1800.00
01730             184.00    -1800.00
01731             176.00    -1840.00
01732             200.00    -1840.00
01733             200.00    -1840.00
01734             184.00    -1880.00
01735             176.00    -1920.00
01736             216.00    -1920.00
01737             216.00    -1960.00
01738             200.00    -1960.00
01739             216.00    -2000.00
01740             224.00    -1960.00
01741             216.00    -2000.00
01742             216.00    -2040.00
01743             232.00    -2000.00
01744             232.00    -2000.00
01745             232.00    -2040.00
01746             232.00    -2040.00
01747             248.00    -2040.00
01748             232.00    -2040.00
01749             248.00    -2080.00
01750             256.00    -2120.00
01751             256.00    -2120.00
01752             256.00    -2120.00
01753             256.00    -2120.00
01754             264.00    -2120.00
01755             264.00    -2120.00
01756             264.00    -2120.00
01757             280.00    -2120.00
01758             288.00    -2120.00
01759             280.00    -2120.00
01760             280.00    -2120.00
01761             288.00    -2120.00
01762             296.00    -2080.00
01763             288.00    -2120.00
01764             296.00    -2080.00
01765             312.00    -2120.00
01766             296.00    -2120.00
01767             296.00    -2080.00
01768             312.00    -2040.00
01769             320.00    -2080.00
01770             312.00    -2040.00
01771             312.00    -2040.00
01772             320.00    -2040.00
01773             320.00    -2040.00
01774             312.00    -2000.00
01775             312.00    -2040.00
01776             320.00    -2000.00
01777             320.00    -1960.00
01778             320.00    -1960.00
01779             312.00    -1960.00
01780             320.00    -1960.00
01781             312.00    -1920.00
01782             312.00    -1880.00
01783             320.00    -1880.00
01784             312.00    -1880.00
01785             296.00    -1880.00
01786             296.00    -1840.00
01787             304.00    -1800.00
01788             296.00    -1800.00
01789             296.00    -1800.00
01790             296.00    -1760.00
01791             296.00    -1720.00
01792             288.00    -1720.00
01793             280.00    -1640.00
01794             280.00    -1680.00
01795             280.00    -1640.00
01796             280.00    -1600.00
01797             280.00    -1560.00
01798             264.00    -1520.00
01799             256.00    -1520.00
01800             256.00    -1480.00
01801             256.00    -1440.00
01802             248.00    -1400.00
01803             248.00    -1400.00
01804             232.00    -1400.00
01805             240.00    -1360.00
01806             224.00    -1320.00
01807             224.00    -1320.00
01808             216.00    -1240.00
01809             216.00    -1240.00
01810             216.00    -1200.00
01811             216.00    -1160.00
01812             200.00    -1120.00
01813             192.00    -1080.00
01814             192.00    -1040.00
01815             192.00    -1040.00
01816             192.00    -1000.00
01817             184.00     -960.00
01818             168.00     -920.00
01819             160.00     -920.00
01820             160.00     -840.00
01821             160.00     -840.00
01822             152.00     -760.00
01823             152.00     -760.00
01824             152.00     -680.00
01825             144.00     -680.00
01826             128.00     -600.00
01827             128.00     -600.00
01828             120.00     -560.00
01829             120.00     -520.00
01830             120.00     -480.00
01831             120.00     -440.00
01832             104.00     -400.00
01833             104.00     -360.00
01834              96.00     -320.00
01835              88.00     -280.00
01836              88.00     -240.00
01837              80.00     -160.00
01838              72.00     -160.00
01839              72.00     -120.00
01840              80.00     -120.00
01841              64.00      -40.00
01842              64.00       40.00
01843              64.00       40.00
01844              72.00       80.00
01845              64.00      120.00
01846              64.00      160.00
01847              64.00      200.00
01848              56.00      200.00
01849              72.00      240.00
01850             256.00      360.00
01851             160.00      360.00
01852            -264.00      360.00
01853            -192.00      360.00
01854             216.00      520.00
01855             232.00      600.00
01856            -320.00      440.00
01857            -320.00      520.00
01858             184.00      680.00
01859             216.00      720.00
01860            -264.00      600.00
01861            -224.00      680.00
01862             216.00      800.00
01863             136.00      800.00
01864            -280.00      840.00
01865            -168.00      840.00
01866             192.00     1000.00
01867               0.00     1000.00
01868            -272.00      920.00
01869             -56.00     1040.00
01870             136.00     1160.00
01871            -152.00     1080.00
01872            -224.00     1040.00
01873              40.00     1200.00
01874               0.00     1240.00
01875            -232.00     1160.00
01876            -112.00     1240.00
01877              32.00     1320.00
01878            -136.00     1320.00
01879            -216.00     1320.00
01880             -40.00     1400.00
01881             -56.00     1400.00
01882            -184.00     1400.00
01883            -152.00     1480.00
01884             -72.00     1520.00
01885            -128.00     1560.00
01886            -168.00     1520.00
01887            -136.00     1560.00
01888            -128.00     1640.00
01889            -160.00     1640.00
01890            -168.00     1640.00
01891            -160.00     1680.00
01892            -128.00     1720.00
01893            -160.00     1720.00
01894            -200.00     1720.00
01895            -168.00     1800.00
01896            -152.00     1800.00
01897            -192.00     1840.00
01898            -192.00     1840.00
01899            -168.00     1880.00
01900            -200.00     1880.00
01901            -216.00     1880.00
01902            -168.00     1960.00
01903            -192.00     1960.00
01904            -224.00     1960.00
01905            -208.00     1960.00
01906            -192.00     1960.00
01907            -224.00     1960.00
01908            -224.00     2000.00
01909            -224.00     2000.00
01910            -224.00     2040.00
01911            -232.00     2040.00
01912            -232.00     2040.00
01913            -248.00     2040.00
01914            -248.00     2080.00
01915            -256.00     2080.00
01916            -248.00     2120.00
01917            -248.00     2120.00
01918            -264.00     2080.00
01919            -264.00     2120.00
01920            -256.00     2080.00
01921            -264.00     2120.00
01922            -280.00     2120.00
01923            -264.00     2120.00
01924            -264.00     2120.00
01925            -280.00     2120.00
01926            -296.00     2120.00
01927            -280.00     2120.00
01928            -288.00     2120.00
01929            -296.00     2120.00
01930            -296.00     2120.00
01931            -288.00     2120.00
01932            -312.00     2120.00
01933            -296.00     2080.00
01934            -296.00     2080.00
01935            -312.00     2080.00
01936            -312.00     2040.00
01937            -320.00     2040.00
01938            -312.00     2040.00
01939            -312.00     2040.00
01940            -312.00     2040.00
01941            -320.00     2000.00
01942            -312.00     2000.00
01943            -312.00     2000.00
01944            -312.00     2000.00
01945            -312.00     1960.00
01946            -304.00     1960.00
01947            -320.00     1960.00
01948            -320.00     1920.00
01949            -344.00     1920.00
01950            -320.00     1880.00
01951            -296.00     1840.00
01952            -264.00     1840.00
01953            -256.00     1800.00
01954            -280.00     1800.00
01955            -296.00     1760.00
01956            -328.00     1720.00
01957            -344.00     1720.00
01958            -328.00     1720.00
01959            -296.00     1720.00
01960            -256.00     1680.00
01961            -256.00     1680.00
01962            -256.00     1640.00
01963            -256.00     1600.00
01964            -272.00     1560.00
01965            -288.00     1520.00
01966            -280.00     1520.00
01967            -256.00     1480.00
01968            -264.00     1480.00
01969            -256.00     1400.00
01970            -248.00     1400.00
01971            -232.00     1360.00
01972            -232.00     1360.00
01973            -224.00     1320.00
01974            -216.00     1320.00
01975            -224.00     1240.00
01976            -216.00     1200.00
01977            -216.00     1200.00
01978            -216.00     1160.00
01979            -224.00     1080.00
01980            -216.00     1120.00
01981            -192.00     1040.00
01982            -176.00     1040.00
01983            -160.00     1000.00
01984            -168.00      920.00
01985            -168.00      920.00
01986            -168.00      880.00
01987            -184.00      840.00
01988            -184.00      800.00
01989            -160.00      760.00
01990            -152.00      720.00
01991            -128.00      720.00
01992            -120.00      680.00
01993            -128.00      600.00
01994            -128.00      600.00
01995            -128.00      560.00
01996            -128.00      520.00
01997            -128.00      440.00
01998            -120.00      440.00
01999            -104.00      360.00
02000             -96.00      320.00
02001             -96.00      280.00
02002             -96.00      280.00
02003             -96.00      200.00
02004             -88.00      240.00
02005             -72.00      160.00
02006             -72.00      120.00
02007             -56.00       80.00
02008             -56.00       40.00
02009             -56.00        0.00
02010             -40.00      -40.00
02011             -24.00      -80.00
02012             -24.00     -120.00
02013              -8.00     -160.00
02014              -8.00     -200.00
02015               0.00     -240.00
02016              24.00     -280.00
02017             200.00     -320.00
02018             192.00     -440.00
02019            -256.00     -360.00
02020            -288.00     -400.00
02021              96.00     -520.00
02022             384.00     -520.00
02023            -128.00     -560.00
02024            -384.00     -560.00
02025              32.00     -720.00
02026             344.00     -600.00
02027             -56.00     -680.00
02028            -264.00     -840.00
02029             128.00     -840.00
02030             304.00     -800.00
02031             -24.00     -840.00
02032            -128.00     -960.00
02033             152.00     -920.00
02034             160.00     -920.00
02035               0.00    -1000.00
02036              40.00    -1080.00
02037             160.00    -1080.00
02038              56.00    -1080.00
02039              40.00    -1160.00
02040             168.00    -1200.00
02041             136.00    -1200.00
02042               0.00    -1240.00
02043              88.00    -1320.00
02044             208.00    -1320.00
02045              88.00    -1320.00
02046              24.00    -1400.00
02047             144.00    -1400.00
02048             200.00    -1360.00
02049              88.00    -1440.00
02050              80.00    -1480.00
02051             160.00    -1520.00
02052             160.00    -1480.00
02053             128.00    -1560.00
02054             136.00    -1640.00
02055             152.00    -1640.00
02056             152.00    -1680.00
02057             152.00    -1680.00
02058             160.00    -1680.00
02059             168.00    -1720.00
02060             160.00    -1760.00
02061             160.00    -1760.00
02062             168.00    -1800.00
02063             184.00    -1840.00
02064             168.00    -1840.00
02065             184.00    -1840.00
02066             200.00    -1880.00
02067             192.00    -1840.00
02068             184.00    -1880.00
02069             200.00    -1880.00
02070             216.00    -1960.00
02071             192.00    -1920.00
02072             200.00    -1960.00
02073             224.00    -1960.00
02074             216.00    -1960.00
02075             216.00    -2000.00
02076             232.00    -2040.00
02077             232.00    -2000.00
02078             224.00    -2040.00
02079             248.00    -2040.00
02080             248.00    -2040.00
02081             232.00    -2040.00
02082             248.00    -2080.00
02083             256.00    -2080.00
02084             264.00    -2120.00
02085             248.00    -2120.00
02086             256.00    -2120.00
02087             264.00    -2120.00
02088             272.00    -2120.00
02089             264.00    -2120.00
02090             280.00    -2120.00
02091             288.00    -2120.00
02092             288.00    -2120.00
02093             288.00    -2120.00
02094             288.00    -2120.00
02095             288.00    -2120.00
02096             288.00    -2120.00
02097             296.00    -2120.00
02098             312.00    -2120.00
02099             296.00    -2040.00
02100             296.00    -2120.00
02101             312.00    -2120.00
02102             320.00    -2040.00
02103             312.00    -2040.00
02104             320.00    -2040.00
02105             312.00    -2040.00
02106             320.00    -2040.00
02107             312.00    -2040.00
02108             312.00    -2000.00
02109             320.00    -2000.00
02110             320.00    -1960.00
02111             320.00    -1960.00
02112             320.00    -1960.00
02113             312.00    -1960.00
02114             312.00    -1920.00
02115             312.00    -1880.00
02116             320.00    -1880.00
02117             312.00    -1880.00
02118             304.00    -1880.00
02119             312.00    -1880.00
02120             296.00    -1840.00
02121             288.00    -1800.00
02122             296.00    -1800.00
02123             296.00    -1800.00
02124             296.00    -1720.00
02125             288.00    -1720.00
02126             280.00    -1680.00
02127             280.00    -1680.00
02128             264.00    -1640.00
02129             280.00    -1640.00
02130             280.00    -1560.00
02131             264.00    -1560.00
02132             256.00    -1520.00
02133             256.00    -1520.00
02134             256.00    -1440.00
02135             248.00    -1480.00
02136             248.00    -1440.00
02137             248.00    -1400.00
02138             232.00    -1360.00
02139             224.00    -1320.00
02140             224.00    -1320.00
02141             216.00    -1240.00
02142             216.00    -1240.00
02143             208.00    -1200.00
02144             208.00    -1200.00
02145             216.00    -1160.00
02146             192.00    -1080.00
02147             192.00    -1040.00
02148             192.00    -1040.00
02149             192.00    -1000.00
02150             184.00    -1000.00
02151             168.00     -920.00
02152             168.00     -920.00
02153             160.00     -880.00
02154             160.00     -840.00
02155             152.00     -760.00
02156             152.00     -760.00
02157             136.00     -720.00
02158             136.00     -680.00
02159             136.00     -600.00
02160             128.00     -600.00
02161             120.00     -560.00
02162             120.00     -480.00
02163             120.00     -520.00
02164             104.00     -440.00
02165             104.00     -440.00
02166             104.00     -400.00
02167              96.00     -360.00
02168              96.00     -280.00
02169              88.00     -240.00
02170              80.00     -160.00
02171              72.00     -160.00
02172              80.00     -120.00
02173              72.00      -80.00
02174              72.00      -40.00
02175              64.00        0.00
02176              64.00       40.00
02177              64.00       80.00
02178              64.00      120.00
02179              56.00      120.00
02180              64.00      200.00
02181              56.00      200.00
02182              64.00      240.00
02183             232.00      360.00
02184             216.00      360.00
02185            -216.00      360.00
02186            -232.00      360.00
02187             152.00      440.00
02188             312.00      640.00
02189            -248.00      440.00
02190            -376.00      520.00
02191              88.00      640.00
02192             264.00      760.00
02193            -208.00      600.00
02194            -280.00      680.00
02195             152.00      800.00
02196             200.00      840.00
02197            -232.00      800.00
02198            -224.00      840.00
02199             152.00     1000.00
02200              64.00      960.00
02201            -256.00      920.00
02202            -112.00     1040.00
02203             152.00     1160.00
02204             -96.00     1120.00
02205            -248.00     1080.00
02206               0.00     1200.00
02207              40.00     1240.00
02208            -224.00     1200.00
02209            -160.00     1200.00
02210              32.00     1320.00
02211            -104.00     1320.00
02212            -232.00     1280.00
02213             -72.00     1360.00
02214             -40.00     1440.00
02215            -168.00     1400.00
02216            -168.00     1480.00
02217             -80.00     1520.00
02218            -112.00     1560.00
02219            -168.00     1520.00
02220            -136.00     1560.00
02221            -120.00     1640.00
02222            -144.00     1640.00
02223            -168.00     1640.00
02224            -168.00     1680.00
02225            -136.00     1720.00
02226            -152.00     1720.00
02227            -200.00     1720.00
02228            -168.00     1760.00
02229            -136.00     1840.00
02230            -184.00     1800.00
02231            -192.00     1840.00
02232            -168.00     1880.00
02233            -192.00     1880.00
02234            -216.00     1880.00
02235            -184.00     1920.00
02236            -176.00     1960.00
02237            -224.00     1960.00
02238            -208.00     1960.00
02239            -192.00     2000.00
02240            -216.00     2000.00
02241            -224.00     2000.00
02242            -224.00     2000.00
02243            -232.00     2000.00
02244            -232.00     2040.00
02245            -224.00     2040.00
02246            -232.00     2040.00
02247            -240.00     2040.00
02248            -256.00     2080.00
02249            -248.00     2080.00
02250            -248.00     2120.00
02251            -256.00     2120.00
02252            -264.00     2080.00
02253            -256.00     2080.00
02254            -264.00     2120.00
02255            -288.00     2120.00
02256            -280.00     2120.00
02257            -264.00     2120.00
02258            -280.00     2120.00
02259            -288.00     2120.00
02260            -288.00     2120.00
02261            -296.00     2120.00
02262            -296.00     2120.00
02263            -296.00     2120.00
02264            -296.00     2120.00
02265            -312.00     2080.00
02266            -312.00     2080.00
02267            -296.00     2120.00
02268            -296.00     2080.00
02269            -312.00     2120.00
02270            -312.00     2040.00
02271            -312.00     2040.00
02272            -312.00     2040.00
02273            -320.00     2040.00
02274            -312.00     2040.00
02275            -320.00     2000.00
02276            -320.00     2000.00
02277            -312.00     2000.00
02278            -312.00     1960.00
02279            -312.00     1960.00
02280            -320.00     1960.00
02281            -312.00     1960.00
02282            -296.00     1920.00
02283            -296.00     1920.00
02284            -312.00     1880.00
02285            -312.00     1840.00
02286            -296.00     1880.00
02287            -296.00     1800.00
02288            -296.00     1800.00
02289            -296.00     1720.00
02290            -296.00     1720.00
02291            -288.00     1720.00
02292            -288.00     1680.00
02293            -288.00     1680.00
02294            -288.00     1640.00
02295            -272.00     1640.00
02296            -264.00     1640.00
02297            -264.00     1600.00
02298            -264.00     1560.00
02299            -264.00     1520.00
02300            -256.00     1480.00
02301            -256.00     1480.00
02302            -256.00     1440.00
02303            -248.00     1360.00
02304            -232.00     1400.00
02305            -232.00     1320.00
02306            -224.00     1320.00
02307            -224.00     1320.00
02308            -224.00     1240.00
02309            -216.00     1200.00
02310            -216.00     1160.00
02311            -208.00     1160.00
02312            -216.00     1120.00
02313            -200.00     1080.00
02314            -184.00     1080.00
02315            -184.00     1040.00
02316            -184.00     1000.00
02317            -184.00      960.00
02318            -184.00      920.00
02319            -168.00      880.00
02320            -168.00      840.00
02321            -168.00      800.00
02322            -160.00      760.00
02323            -152.00      720.00
02324            -136.00      720.00
02325            -136.00      680.00
02326            -128.00      680.00
02327            -136.00      600.00
02328            -128.00      560.00
02329            -120.00      520.00
02330            -128.00      480.00
02331            -104.00      400.00
02332            -104.00      400.00
02333             -96.00      360.00
02334             -96.00      280.00
02335             -96.00      280.00
02336             -88.00      240.00
02337             -88.00      200.00
02338             -72.00      160.00
02339             -64.00      120.00
02340             -64.00       40.00
02341             -56.00       40.00
02342             -56.00       40.00
02343             -40.00      -40.00
02344             -24.00      -80.00
02345              -8.00     -120.00
02346              -8.00     -160.00
02347              -8.00     -200.00
02348              -8.00     -200.00
02349               0.00     -280.00
02350             160.00     -320.00
02351             232.00     -440.00
02352            -192.00     -360.00
02353            -312.00     -360.00
02354              24.00     -520.00
02355             384.00     -520.00
02356             -24.00     -560.00
02357            -384.00     -520.00
02358             -56.00     -680.00
02359             344.00     -600.00
02360              24.00     -640.00
02361            -280.00     -760.00
02362              56.00     -800.00
02363             320.00     -800.00
02364              40.00     -800.00
02365            -152.00     -920.00
02366              96.00     -960.00
02367             184.00     -880.00
02368              24.00    -1000.00
02369              24.00    -1080.00
02370             152.00    -1080.00
02371              72.00    -1040.00
02372              24.00    -1160.00
02373             152.00    -1200.00
02374             160.00    -1160.00
02375               0.00    -1200.00
02376              64.00    -1320.00
02377             200.00    -1280.00
02378             120.00    -1280.00
02379               8.00    -1360.00
02380             120.00    -1400.00
02381             200.00    -1360.00
02382              96.00    -1480.00
02383              64.00    -1480.00
02384             152.00    -1520.00
02385             168.00    -1440.00
02386             120.00    -1600.00
02387             120.00    -1600.00
02388             152.00    -1560.00
02389             152.00    -1640.00
02390             152.00    -1680.00
02391             160.00    -1680.00
02392             160.00    -1680.00
02393             160.00    -1720.00
02394             160.00    -1760.00
02395             168.00    -1800.00
02396             184.00    -1800.00
02397             168.00    -1840.00
02398             176.00    -1840.00
02399             200.00    -1880.00
02400             192.00    -1840.00
02401             168.00    -1880.00
02402             200.00    -1880.00
02403             216.00    -1880.00
02404             200.00    -1960.00
02405             200.00    -1960.00
02406             216.00    -1960.00
02407             224.00    -1960.00
02408             216.00    -2000.00
02409             224.00    -2000.00
02410             232.00    -2000.00
02411             232.00    -2040.00
02412             232.00    -2080.00
02413             248.00    -2040.00
02414             232.00    -2080.00
02415             240.00    -2040.00
02416             256.00    -2120.00
02417             264.00    -2120.00
02418             256.00    -2120.00
02419             256.00    -2120.00
02420             264.00    -2120.00
02421             264.00    -2120.00
02422             256.00    -2080.00
02423             264.00    -2120.00
02424             288.00    -2120.00
02425             288.00    -2120.00
02426             280.00    -2120.00
02427             288.00    -2120.00
02428             296.00    -2120.00
02429             296.00    -2120.00
02430             296.00    -2120.00
02431             312.00    -2120.00
02432             304.00    -2040.00
02433             288.00    -2080.00
02434             312.00    -2040.00
02435             312.00    -2040.00
02436             320.00    -2040.00
02437             312.00    -2040.00
02438             312.00    -2040.00
02439             320.00    -2040.00
02440             320.00    -2040.00
02441             312.00    -2000.00
02442             320.00    -1960.00
02443             320.00    -2000.00
02444             312.00    -1960.00
02445             312.00    -1960.00
02446             320.00    -1960.00
02447             304.00    -1920.00
02448             312.00    -1920.00
02449             312.00    -1880.00
02450             320.00    -1880.00
02451             296.00    -1840.00
02452             312.00    -1840.00
02453             304.00    -1840.00
02454             288.00    -1800.00
02455             296.00    -1800.00
02456             288.00    -1800.00
02457             296.00    -1720.00
02458             288.00    -1720.00
02459             288.00    -1680.00
02460             280.00    -1680.00
02461             264.00    -1640.00
02462             280.00    -1640.00
02463             272.00    -1560.00
02464             280.00    -1560.00
02465             256.00    -1520.00
02466             256.00    -1520.00
02467             248.00    -1480.00
02468             256.00    -1440.00
02469             248.00    -1400.00
02470             248.00    -1400.00
02471             240.00    -1360.00
02472             224.00    -1320.00
02473             224.00    -1320.00
02474             224.00    -1240.00
02475             232.00    -1240.00
02476             224.00    -1240.00
02477             216.00    -1160.00
02478             192.00    -1160.00
02479             168.00    -1080.00
02480             168.00    -1040.00
02481             192.00    -1040.00
02482             216.00    -1000.00
02483             208.00    -1000.00
02484             192.00     -920.00
02485             168.00     -880.00
02486             152.00     -880.00
02487             136.00     -840.00
02488             152.00     -760.00
02489             160.00     -760.00
02490             168.00     -680.00
02491             160.00     -680.00
02492             152.00     -680.00
02493             128.00     -600.00
02494             104.00     -560.00
02495              88.00     -520.00
02496             104.00     -480.00
02497             128.00     -440.00
02498             128.00     -400.00
02499             144.00     -360.00
02500             128.00     -320.00
02501             104.00     -280.00
02502              64.00     -280.00
02503              40.00     -200.00
02504              40.00     -160.00
02505              56.00     -120.00
02506              88.00     -120.00
02507              96.00      -80.00
02508              88.00        0.00
02509              88.00       40.00
02510              64.00       80.00
02511              56.00      120.00
02512              56.00      120.00
02513              56.00      200.00
02514              56.00      200.00
02515              64.00      280.00
02516             192.00      320.00
02517             256.00      360.00
02518            -168.00      360.00
02519            -264.00      360.00
02520              72.00      400.00
02521             352.00      640.00
02522            -152.00      480.00
02523            -392.00      440.00
02524               0.00      600.00
02525             280.00      760.00
02526            -152.00      680.00
02527            -328.00      680.00
02528              88.00      760.00
02529             256.00      840.00
02530            -152.00      840.00
02531            -256.00      800.00
02532             112.00      960.00
02533             112.00     1000.00
02534            -248.00      920.00
02535            -184.00     1000.00
02536             128.00     1160.00
02537             -32.00     1120.00
02538            -248.00     1040.00
02539             -24.00     1160.00
02540              72.00     1280.00
02541            -192.00     1200.00
02542            -200.00     1200.00
02543               8.00     1320.00
02544             -64.00     1360.00
02545            -232.00     1320.00
02546             -96.00     1360.00
02547              -8.00     1480.00
02548            -152.00     1400.00
02549            -184.00     1400.00
02550             -96.00     1520.00
02551            -112.00     1560.00
02552            -168.00     1520.00
02553            -152.00     1560.00
02554            -120.00     1640.00
02555            -136.00     1680.00
02556            -168.00     1640.00
02557            -168.00     1720.00
02558            -136.00     1720.00
02559            -152.00     1720.00
02560            -192.00     1760.00
02561            -184.00     1760.00
02562            -136.00     1800.00
02563            -168.00     1800.00
02564            -192.00     1840.00
02565            -160.00     1880.00
02566            -192.00     1880.00
02567            -224.00     1880.00
02568            -192.00     1960.00
02569            -168.00     1960.00
02570            -216.00     1960.00
02571            -216.00     1960.00
02572            -192.00     2000.00
02573            -216.00     2000.00
02574            -232.00     2000.00
02575            -224.00     2040.00
02576            -224.00     2000.00
02577            -224.00     2040.00
02578            -224.00     2040.00
02579            -232.00     2040.00
02580            -240.00     2040.00
02581            -248.00     2080.00
02582            -248.00     2080.00
02583            -256.00     2080.00
02584            -256.00     2120.00
02585            -280.00     2080.00
02586            -264.00     2120.00
02587            -256.00     2120.00
02588            -272.00     2120.00
02589            -280.00     2120.00
02590            -264.00     2120.00
02591            -280.00     2120.00
02592            -296.00     2120.00
02593            -288.00     2120.00
02594            -288.00     2120.00
02595            -296.00     2080.00
02596            -288.00     2080.00
02597            -296.00     2120.00
02598            -312.00     2120.00
02599            -312.00     2120.00
02600            -296.00     2120.00
02601            -296.00     2080.00
02602            -304.00     2040.00
02603            -312.00     2040.00
02604            -312.00     2040.00
02605            -320.00     2080.00
02606            -320.00     2040.00
02607            -320.00     2000.00
02608            -320.00     2000.00
02609            -312.00     1960.00
02610            -312.00     1960.00
02611            -312.00     2000.00
02612            -320.00     1960.00
02613            -320.00     1960.00
02614            -312.00     1920.00
02615            -296.00     1960.00
02616            -296.00     1920.00
02617            -312.00     1880.00
02618            -312.00     1880.00
02619            -296.00     1840.00
02620            -304.00     1840.00
02621            -296.00     1800.00
02622            -296.00     1800.00
02623            -296.00     1720.00
02624            -288.00     1720.00
02625            -288.00     1720.00
02626            -288.00     1680.00
02627            -288.00     1640.00
02628            -280.00     1640.00
02629            -264.00     1600.00
02630            -264.00     1600.00
02631            -280.00     1560.00
02632            -264.00     1560.00
02633            -256.00     1520.00
02634            -256.00     1480.00
02635            -248.00     1440.00
02636            -248.00     1400.00
02637            -232.00     1360.00
02638            -232.00     1360.00
02639            -224.00     1320.00
02640            -224.00     1280.00
02641            -224.00     1240.00
02642            -224.00     1240.00
02643            -216.00     1200.00
02644            -200.00     1200.00
02645            -216.00     1120.00
02646            -200.00     1120.00
02647            -192.00     1080.00
02648            -184.00     1040.00
02649            -184.00     1000.00
02650            -168.00      920.00
02651            -168.00      920.00
02652            -168.00      880.00
02653            -168.00      840.00
02654            -168.00      840.00
02655            -160.00      760.00
02656            -160.00      760.00
02657            -136.00      720.00
02658            -136.00      680.00
02659            -128.00      600.00
02660            -128.00      600.00
02661            -136.00      560.00
02662            -120.00      520.00
02663            -120.00      480.00
02664            -128.00      440.00
02665            -120.00      400.00
02666            -104.00      360.00
02667             -96.00      320.00
02668             -88.00      280.00
02669             -88.00      240.00
02670             -88.00      200.00
02671             -72.00      160.00
02672             -64.00      120.00
02673             -56.00       80.00
02674             -56.00       40.00
02675             -40.00        0.00
02676             -40.00      -40.00
02677             -32.00      -80.00
02678             -24.00     -120.00
02679              -8.00     -120.00
02680              -8.00     -200.00
02681               0.00     -240.00
02682               0.00     -240.00
02683             120.00     -280.00
02684             256.00     -440.00
02685            -128.00     -400.00
02686            -328.00     -320.00
02687             -40.00     -520.00
02688             384.00     -480.00
02689              80.00     -560.00
02690            -384.00     -520.00
02691            -136.00     -680.00
02692             328.00     -640.00
02693             104.00     -600.00
02694            -264.00     -760.00
02695             -24.00     -800.00
02696             320.00     -800.00
02697             104.00     -800.00
02698            -152.00     -920.00
02699              56.00     -960.00
02700             200.00     -920.00
02701              40.00     -960.00
02702               0.00    -1080.00
02703             144.00    -1080.00
02704              88.00    -1040.00
02705              24.00    -1120.00
02706             120.00    -1200.00
02707             184.00    -1160.00
02708              24.00    -1200.00
02709              32.00    -1280.00
02710             200.00    -1320.00
02711             152.00    -1240.00
02712               8.00    -1360.00
02713              88.00    -1400.00
02714             200.00    -1400.00
02715             120.00    -1440.00
02716              64.00    -1520.00
02717             128.00    -1520.00
02718             176.00    -1520.00
02719             128.00    -1560.00
02720             120.00    -1600.00
02721             152.00    -1560.00
02722             152.00    -1640.00
02723             136.00    -1680.00
02724             152.00    -1680.00
02725             168.00    -1720.00
02726             160.00    -1760.00
02727             152.00    -1720.00
02728             168.00    -1800.00
02729             184.00    -1800.00
02730             176.00    -1840.00
02731             184.00    -1840.00
02732             192.00    -1880.00
02733             192.00    -1880.00
02734             168.00    -1880.00
02735             200.00    -1920.00
02736             216.00    -1880.00
02737             208.00    -1960.00
02738             200.00    -1960.00
02739             224.00    -1960.00
02740             224.00    -1960.00
02741             208.00    -1960.00
02742             224.00    -2040.00
02743             232.00    -2000.00
02744             232.00    -2040.00
02745             232.00    -2040.00
02746             248.00    -2040.00
02747             240.00    -2040.00
02748             232.00    -2120.00
02749             256.00    -2080.00
02750             272.00    -2120.00
02751             256.00    -2120.00
02752             256.00    -2040.00
02753             264.00    -2120.00
02754             264.00    -2120.00
02755             280.00    -2080.00
02756             280.00    -2120.00
02757             288.00    -2120.00
02758             288.00    -2120.00
02759             280.00    -2120.00
02760             280.00    -2120.00
02761             288.00    -2120.00
02762             296.00    -2120.00
02763             288.00    -2120.00
02764             296.00    -2120.00
02765             312.00    -2040.00
02766             312.00    -2080.00
02767             312.00    -2040.00
02768             312.00    -2040.00
02769             312.00    -2040.00
02770             296.00    -2080.00
02771             312.00    -2040.00
02772             320.00    -2040.00
02773             320.00    -2000.00
02774             312.00    -2040.00
02775             296.00    -2000.00
02776             312.00    -2000.00
02777             320.00    -2000.00
02778             320.00    -1960.00
02779             320.00    -1960.00
02780             312.00    -1920.00
02781             296.00    -1880.00
02782             312.00    -1920.00
02783             312.00    -1880.00
02784             312.00    -1840.00
02785             312.00    -1840.00
02786             296.00    -1840.00
02787             296.00    -1800.00
02788             288.00    -1800.00
02789             296.00    -1760.00
02790             288.00    -1720.00
02791             288.00    -1720.00
02792             288.00    -1720.00
02793             280.00    -1680.00
02794             280.00    -1640.00
02795             272.00    -1640.00
02796             280.00    -1640.00
02797             264.00    -1560.00
02798             264.00    -1520.00
02799             256.00    -1520.00
02800             256.00    -1440.00
02801             256.00    -1480.00
02802             248.00    -1400.00
02803             248.00    -1400.00
02804             248.00    -1360.00
02805             232.00    -1360.00
02806             232.00    -1320.00
02807             224.00    -1280.00
02808             224.00    -1240.00
02809             216.00    -1240.00
02810             216.00    -1200.00
02811             200.00    -1160.00
02812             192.00    -1120.00
02813             192.00    -1080.00
02814             192.00    -1040.00
02815             192.00    -1000.00
02816             184.00    -1000.00
02817             168.00     -960.00
02818             176.00     -880.00
02819             168.00     -880.00
02820             160.00     -840.00
02821             160.00     -760.00
02822             152.00     -760.00
02823             152.00     -720.00
02824             152.00     -680.00
02825             136.00     -640.00
02826             128.00     -600.00
02827             128.00     -560.00
02828             120.00     -560.00
02829             120.00     -520.00
02830             120.00     -480.00
02831             112.00     -400.00
02832              96.00     -360.00
02833              96.00     -320.00
02834              96.00     -320.00
02835              88.00     -280.00
02836              88.00     -240.00
02837              72.00     -160.00
02838              80.00     -120.00
02839              72.00     -120.00
02840              64.00      -80.00
02841              64.00      -40.00
02842              64.00       40.00
02843              64.00       40.00
02844              64.00       80.00
02845              56.00      120.00
02846              56.00      200.00
02847              56.00      200.00
02848              56.00      200.00
02849             152.00      280.00
02850             280.00      360.00
02851             -96.00      360.00
02852            -288.00      360.00
02853              -8.00      400.00
02854             360.00      600.00
02855             -64.00      520.00
02856            -416.00      440.00
02857             -80.00      600.00
02858             312.00      760.00
02859             -40.00      680.00
02860            -328.00      640.00
02861               8.00      760.00
02862             280.00      840.00
02863            -104.00      840.00
02864            -296.00      800.00
02865              40.00      920.00
02866             160.00     1000.00
02867            -192.00      920.00
02868            -216.00      920.00
02869             104.00     1080.00
02870              24.00     1160.00
02871            -256.00     1040.00
02872             -96.00     1080.00
02873              88.00     1240.00
02874            -152.00     1200.00
02875            -216.00     1200.00
02876               0.00     1320.00
02877             -32.00     1360.00
02878            -224.00     1320.00
02879            -128.00     1360.00
02880              -8.00     1440.00
02881            -120.00     1400.00
02882            -192.00     1440.00
02883             -96.00     1520.00
02884             -96.00     1560.00
02885            -160.00     1520.00
02886            -152.00     1560.00
02887            -120.00     1600.00
02888            -136.00     1640.00
02889            -168.00     1640.00
02890            -168.00     1680.00
02891            -136.00     1720.00
02892            -136.00     1720.00
02893            -192.00     1720.00
02894            -192.00     1800.00
02895            -144.00     1800.00
02896            -168.00     1840.00
02897            -192.00     1840.00
02898            -168.00     1880.00
02899            -184.00     1880.00
02900            -216.00     1880.00
02901            -192.00     1880.00
02902            -168.00     1920.00
02903            -216.00     1960.00
02904            -216.00     1960.00
02905            -192.00     1960.00
02906            -208.00     2000.00
02907            -232.00     2000.00
02908            -224.00     2040.00
02909            -232.00     2040.00
02910            -232.00     2040.00
02911            -232.00     2040.00
02912            -232.00     2040.00
02913            -248.00     2040.00
02914            -248.00     2040.00
02915            -248.00     2080.00
02916            -232.00     2080.00
02917            -264.00     2120.00
02918            -264.00     2040.00
02919            -264.00     2120.00
02920            -256.00     2120.00
02921            -264.00     2120.00
02922            -280.00     2120.00
02923            -280.00     2120.00
02924            -280.00     2120.00
02925            -288.00     2120.00
02926            -288.00     2120.00
02927            -288.00     2120.00
02928            -296.00     2120.00
02929            -296.00     2080.00
02930            -296.00     2120.00
02931            -296.00     2120.00
02932            -312.00     2040.00
02933            -304.00     2040.00
02934            -296.00     2080.00
02935            -296.00     2040.00
02936            -312.00     2080.00
02937            -312.00     2040.00
02938            -296.00     2040.00
02939            -320.00     2040.00
02940            -312.00     2040.00
02941            -312.00     2000.00
02942            -312.00     2000.00
02943            -312.00     2000.00
02944            -312.00     1960.00
02945            -312.00     1960.00
02946            -312.00     1960.00
02947            -312.00     1960.00
02948            -312.00     1880.00
02949            -296.00     1920.00
02950            -320.00     1880.00
02951            -304.00     1880.00
02952            -296.00     1840.00
02953            -296.00     1800.00
02954            -296.00     1800.00
02955            -296.00     1800.00
02956            -296.00     1760.00
02957            -288.00     1720.00
02958            -288.00     1720.00
02959            -280.00     1680.00
02960            -288.00     1640.00
02961            -288.00     1640.00
02962            -272.00     1600.00
02963            -264.00     1560.00
02964            -264.00     1560.00
02965            -256.00     1520.00
02966            -256.00     1520.00
02967            -256.00     1480.00
02968            -256.00     1440.00
02969            -248.00     1400.00
02970            -240.00     1400.00
02971            -232.00     1360.00
02972            -232.00     1320.00
02973            -224.00     1320.00
02974            -232.00     1240.00
02975            -232.00     1200.00
02976            -216.00     1200.00
02977            -216.00     1160.00
02978            -200.00     1160.00
02979            -200.00     1080.00
02980            -192.00     1080.00
02981            -184.00     1040.00
02982            -184.00     1000.00
02983            -184.00      960.00
02984            -168.00      920.00
02985            -184.00      880.00
02986            -184.00      880.00
02987            -168.00      840.00
02988            -168.00      760.00
02989            -152.00      760.00
02990            -136.00      720.00
02991            -136.00      680.00
02992            -128.00      640.00
02993            -136.00      560.00
02994            -128.00      560.00
02995            -128.00      520.00
02996            -120.00      480.00
02997            -120.00      440.00
02998            -104.00      400.00
02999            -104.00      400.00
03000             -96.00      360.00
03001             -88.00      280.00
03002             -88.00      240.00
03003             -80.00      200.00
03004             -72.00      160.00
03005             -64.00      120.00
03006             -64.00      120.00
03007             -56.00       40.00
03008             -64.00        0.00
03009             -40.00        0.00
03010             -32.00      -80.00
03011             -16.00     -120.00
03012              -8.00     -120.00
03013              -8.00     -200.00
03014               0.00     -200.00
03015               0.00     -240.00
03016              88.00     -280.00
03017             264.00     -400.00
03018             -56.00     -440.00
03019            -328.00     -320.00
03020            -104.00     -480.00
03021             344.00     -520.00
03022             176.00     -560.00
03023            -360.00     -560.00
03024            -216.00     -640.00
03025             288.00     -680.00
03026             192.00     -640.00
03027            -240.00     -760.00
03028            -104.00     -760.00
03029             296.00     -760.00
03030             160.00     -760.00
03031            -136.00     -880.00
03032               8.00    -1000.00
03033             200.00     -920.00
03034              64.00     -960.00
03035              -8.00    -1040.00
03036             128.00    -1120.00
03037             112.00    -1040.00
03038              16.00    -1080.00
03039             104.00    -1200.00
03040             192.00    -1200.00
03041              48.00    -1200.00
03042               8.00    -1280.00
03043             176.00    -1320.00
03044             168.00    -1240.00
03045              24.00    -1360.00
03046              64.00    -1400.00
03047             192.00    -1400.00
03048             152.00    -1400.00
03049              64.00    -1480.00
03050             128.00    -1520.00
03051             184.00    -1520.00
03052             136.00    -1560.00
03053             120.00    -1600.00
03054             152.00    -1600.00
03055             152.00    -1640.00
03056             152.00    -1680.00
03057             152.00    -1720.00
03058             168.00    -1680.00
03059             168.00    -1720.00
03060             160.00    -1760.00
03061             168.00    -1800.00
03062             184.00    -1800.00
03063             168.00    -1800.00
03064             184.00    -1840.00
03065             200.00    -1840.00
03066             192.00    -1880.00
03067             184.00    -1880.00
03068             192.00    -1920.00
03069             224.00    -1960.00
03070             208.00    -1960.00
03071             192.00    -1960.00
03072             216.00    -2000.00
03073             224.00    -1960.00
03074             216.00    -2000.00
03075             224.00    -2000.00
03076             248.00    -2040.00
03077             232.00    -2040.00
03078             232.00    -2040.00
03079             248.00    -2080.00
03080             248.00    -2040.00
03081             248.00    -2040.00
03082             256.00    -2120.00
03083             264.00    -2080.00
03084             256.00    -2080.00
03085             256.00    -2120.00
03086             264.00    -2120.00
03087             272.00    -2120.00
03088             280.00    -2120.00
03089             280.00    -2120.00
03090             288.00    -2120.00
03091             288.00    -2120.00
03092             272.00    -2120.00
03093             280.00    -2120.00
03094             288.00    -2120.00
03095             296.00    -2120.00
03096             288.00    -2120.00
03097             312.00    -2120.00
03098             296.00    -2120.00
03099             312.00    -2080.00
03100             304.00    -2080.00
03101             312.00    -2040.00
03102             312.00    -2040.00
03103             312.00    -2040.00
03104             312.00    -2040.00
03105             312.00    -2000.00
03106             312.00    -2000.00
03107             312.00    -2000.00
03108             312.00    -2000.00
03109             312.00    -1960.00
03110             320.00    -1960.00
03111             312.00    -1960.00
03112             312.00    -1960.00
03113             304.00    -1920.00
03114             312.00    -1920.00
03115             312.00    -1880.00
03116             312.00    -1880.00
03117             296.00    -1880.00
03118             296.00    -1840.00
03119             296.00    -1800.00
03120             296.00    -1800.00
03121             296.00    -1760.00
03122             296.00    -1720.00
03123             288.00    -1720.00
03124             288.00    -1720.00
03125             288.00    -1680.00
03126             280.00    -1680.00
03127             280.00    -1640.00
03128             280.00    -1640.00
03129             264.00    -1600.00
03130             264.00    -1560.00
03131             264.00    -1560.00
03132             264.00    -1480.00
03133             256.00    -1480.00
03134             256.00    -1440.00
03135             256.00    -1400.00
03136             248.00    -1400.00
03137             248.00    -1360.00
03138             232.00    -1360.00
03139             224.00    -1320.00
03140             232.00    -1280.00
03141             224.00    -1240.00
03142             216.00    -1200.00
03143             216.00    -1200.00
03144             216.00    -1160.00
03145             200.00    -1160.00
03146             192.00    -1080.00
03147             192.00    -1080.00
03148             192.00    -1000.00
03149             184.00    -1000.00
03150             184.00     -920.00
03151             168.00     -880.00
03152             168.00     -880.00
03153             160.00     -840.00
03154             160.00     -760.00
03155             152.00     -760.00
03156             152.00     -720.00
03157             152.00     -680.00
03158             136.00     -680.00
03159             128.00     -600.00
03160             120.00     -560.00
03161             128.00     -560.00
03162             120.00     -520.00
03163             120.00     -440.00
03164             104.00     -440.00
03165             104.00     -360.00
03166              96.00     -360.00
03167              96.00     -280.00
03168              88.00     -280.00
03169              88.00     -200.00
03170              72.00     -160.00
03171              72.00     -120.00
03172              72.00     -120.00
03173              72.00      -80.00
03174              64.00      -40.00
03175              64.00       40.00
03176              72.00       40.00
03177              64.00       40.00
03178              56.00      120.00
03179              56.00      160.00
03180              64.00      200.00
03181              56.00      200.00
03182             120.00      280.00
03183             280.00      360.00
03184             -32.00      360.00
03185            -296.00      360.00
03186             -64.00      360.00
03187             344.00      600.00
03188              32.00      520.00
03189            -416.00      400.00
03190            -168.00      600.00
03191             288.00      720.00
03192              40.00      680.00
03193            -328.00      600.00
03194             -64.00      760.00
03195             280.00      800.00
03196             -32.00      840.00
03197            -312.00      840.00
03198             -24.00      920.00
03199             200.00     1040.00
03200            -128.00      920.00
03201            -232.00      960.00
03202              64.00     1080.00
03203              64.00     1160.00
03204            -240.00     1040.00
03205            -128.00     1120.00
03206              88.00     1240.00
03207            -104.00     1240.00
03208            -232.00     1160.00
03209             -24.00     1280.00
03210              -8.00     1360.00
03211            -200.00     1320.00
03212            -160.00     1360.00
03213              -8.00     1440.00
03214            -104.00     1400.00
03215            -192.00     1400.00
03216            -104.00     1480.00
03217             -88.00     1560.00
03218            -152.00     1520.00
03219            -160.00     1560.00
03220            -128.00     1600.00
03221            -128.00     1640.00
03222            -160.00     1600.00
03223            -168.00     1640.00
03224            -136.00     1720.00
03225            -136.00     1720.00
03226            -176.00     1720.00
03227            -192.00     1760.00
03228            -152.00     1800.00
03229            -168.00     1840.00
03230            -192.00     1840.00
03231            -168.00     1840.00
03232            -168.00     1880.00
03233            -224.00     1880.00
03234            -200.00     1880.00
03235            -176.00     1960.00
03236            -200.00     1920.00
03237            -232.00     1920.00
03238            -192.00     1960.00
03239            -200.00     1960.00
03240            -224.00     2000.00
03241            -232.00     2000.00
03242            -232.00     2040.00
03243            -232.00     2040.00
03244            -232.00     2040.00
03245            -232.00     2040.00
03246            -256.00     2040.00
03247            -256.00     2040.00
03248            -256.00     2080.00
03249            -248.00     2120.00
03250            -256.00     2080.00
03251            -272.00     2120.00
03252            -264.00     2120.00
03253            -256.00     2120.00
03254            -272.00     2120.00
03255            -280.00     2120.00
03256            -280.00     2120.00
03257            -272.00     2120.00
03258            -288.00     2120.00
03259            -296.00     2120.00
03260            -288.00     2120.00
03261            -296.00     2120.00
03262            -296.00     2120.00
03263            -288.00     2120.00
03264            -296.00     2120.00
03265            -296.00     2120.00
03266            -296.00     2080.00
03267            -296.00     2080.00
03268            -312.00     2120.00
03269            -312.00     2080.00
03270            -320.00     2080.00
03271            -304.00     2040.00
03272            -304.00     2040.00
03273            -320.00     2040.00
03274            -312.00     2040.00
03275            -320.00     2040.00
03276            -312.00     2000.00
03277            -312.00     1960.00
03278            -312.00     1960.00
03279            -312.00     1960.00
03280            -312.00     1920.00
03281            -312.00     1920.00
03282            -296.00     1880.00
03283            -312.00     1880.00
03284            -312.00     1840.00
03285            -296.00     1840.00
03286            -296.00     1880.00
03287            -296.00     1800.00
03288            -296.00     1800.00
03289            -296.00     1800.00
03290            -288.00     1720.00
03291            -288.00     1720.00
03292            -288.00     1680.00
03293            -288.00     1680.00
03294            -288.00     1640.00
03295            -264.00     1640.00
03296            -264.00     1640.00
03297            -264.00     1560.00
03298            -264.00     1520.00
03299            -264.00     1520.00
03300            -256.00     1480.00
03301            -256.00     1440.00
03302            -248.00     1400.00
03303            -248.00     1400.00
03304            -232.00     1360.00
03305            -232.00     1360.00
03306            -232.00     1320.00
03307            -232.00     1280.00
03308            -224.00     1240.00
03309            -216.00     1240.00
03310            -216.00     1160.00
03311            -200.00     1120.00
03312            -200.00     1120.00
03313            -200.00     1080.00
03314            -192.00     1040.00
03315            -184.00     1000.00
03316            -184.00     1000.00
03317            -176.00      920.00
03318            -168.00      920.00
03319            -168.00      880.00
03320            -168.00      840.00
03321            -160.00      800.00
03322            -160.00      760.00
03323            -136.00      720.00
03324            -136.00      680.00
03325            -128.00      640.00
03326            -128.00      600.00
03327            -128.00      560.00
03328            -120.00      520.00
03329            -120.00      480.00
03330            -128.00      440.00
03331            -120.00      400.00
03332            -104.00      360.00
03333             -96.00      360.00
03334             -96.00      320.00
03335             -96.00      240.00
03336             -88.00      200.00
03337             -72.00      200.00
03338             -72.00      200.00
03339             -64.00       80.00
03340             -56.00       80.00
03341             -56.00       40.00
03342             -40.00      -40.00
03343             -32.00      -40.00
03344             -24.00      -80.00
03345              -8.00     -120.00
03346               0.00     -160.00
03347               0.00     -200.00
03348               0.00     -240.00
03349              64.00     -280.00
03350             264.00     -360.00
03351              24.00     -440.00
03352            -328.00     -280.00
03353            -168.00     -440.00
03354             288.00     -480.00
03355             256.00     -560.00
03356            -312.00     -560.00
03357            -280.00     -600.00
03358             216.00     -680.00
03359             256.00     -600.00
03360            -200.00     -720.00
03361            -168.00     -760.00
03362             256.00     -800.00
03363             216.00     -760.00
03364            -120.00     -880.00
03365             -40.00     -960.00
03366             192.00     -920.00
03367              88.00     -920.00
03368             -24.00    -1040.00
03369              96.00    -1120.00
03370             128.00    -1040.00
03371              24.00    -1080.00
03372              88.00    -1200.00
03373             184.00    -1200.00
03374              64.00    -1200.00
03375               0.00    -1240.00
03376             152.00    -1320.00
03377             192.00    -1280.00
03378              32.00    -1320.00
03379              40.00    -1400.00
03380             184.00    -1400.00
03381             160.00    -1400.00
03382              64.00    -1480.00
03383              96.00    -1520.00
03384             176.00    -1480.00
03385             136.00    -1520.00
03386             120.00    -1600.00
03387             136.00    -1600.00
03388             152.00    -1600.00
03389             144.00    -1680.00
03390             152.00    -1680.00
03391             160.00    -1720.00
03392             160.00    -1760.00
03393             160.00    -1800.00
03394             168.00    -1800.00
03395             184.00    -1800.00
03396             184.00    -1800.00
03397             168.00    -1840.00
03398             192.00    -1880.00
03399             200.00    -1840.00
03400             176.00    -1880.00
03401             192.00    -1960.00
03402             216.00    -1920.00
03403             216.00    -1960.00
03404             192.00    -1960.00
03405             216.00    -1960.00
03406             224.00    -1960.00
03407             216.00    -2000.00
03408             216.00    -2040.00
03409             232.00    -2000.00
03410             232.00    -2000.00
03411             224.00    -2040.00
03412             248.00    -2040.00
03413             248.00    -2040.00
03414             248.00    -2040.00
03415             256.00    -2080.00
03416             256.00    -2080.00
03417             256.00    -2080.00
03418             256.00    -2120.00
03419             264.00    -2120.00
03420             264.00    -2120.00
03421             264.00    -2120.00
03422             264.00    -2120.00
03423             280.00    -2120.00
03424             288.00    -2120.00
03425             288.00    -2080.00
03426             280.00    -2120.00
03427             288.00    -2120.00
03428             280.00    -2120.00
03429             288.00    -2080.00
03430             296.00    -2120.00
03431             312.00    -2120.00
03432             296.00    -2040.00
03433             288.00    -2080.00
03434             312.00    -2080.00
03435             312.00    -2080.00
03436             312.00    -2080.00
03437             312.00    -2040.00
03438             312.00    -2040.00
03439             304.00    -2000.00
03440             312.00    -2000.00
03441             312.00    -2000.00
03442             312.00    -1960.00
03443             320.00    -1960.00
03444             312.00    -1960.00
03445             312.00    -1960.00
03446             312.00    -1960.00
03447             304.00    -1880.00
03448             312.00    -1960.00
03449             312.00    -1880.00
03450             296.00    -1880.00
03451             296.00    -1840.00
03452             296.00    -1840.00
03453             296.00    -1840.00
03454             296.00    -1800.00
03455             296.00    -1760.00
03456             296.00    -1760.00
03457             288.00    -1720.00
03458             288.00    -1680.00
03459             288.00    -1680.00
03460             280.00    -1680.00
03461             280.00    -1600.00
03462             280.00    -1640.00
03463             272.00    -1600.00
03464             264.00    -1560.00
03465             256.00    -1520.00
03466             256.00    -1480.00
03467             256.00    -1440.00
03468             256.00    -1440.00
03469             248.00    -1400.00
03470             248.00    -1400.00
03471             240.00    -1360.00
03472             232.00    -1320.00
03473             224.00    -1280.00
03474             216.00    -1240.00
03475             216.00    -1200.00
03476             216.00    -1200.00
03477             216.00    -1160.00
03478             200.00    -1120.00
03479             192.00    -1080.00
03480             192.00    -1080.00
03481             192.00    -1040.00
03482             192.00    -1000.00
03483             184.00     -920.00
03484             168.00     -920.00
03485             168.00     -880.00
03486             160.00     -840.00
03487             152.00     -760.00
03488             152.00     -760.00
03489             152.00     -720.00
03490             152.00     -680.00
03491             136.00     -640.00
03492             136.00     -600.00
03493             128.00     -600.00
03494             120.00     -560.00
03495             120.00     -520.00
03496             120.00     -480.00
03497             112.00     -440.00
03498              96.00     -400.00
03499              96.00     -360.00
03500              88.00     -280.00
03501              88.00     -280.00
03502              88.00     -240.00
03503              64.00     -160.00
03504              80.00     -120.00
03505              72.00      -80.00
03506              72.00      -40.00
03507              64.00      -40.00
03508              56.00        0.00
03509              64.00       40.00
03510              72.00       80.00
03511              56.00      120.00
03512              56.00      160.00
03513              56.00      200.00
03514              48.00      200.00
03515             104.00      280.00
03516             280.00      360.00
03517              64.00      360.00
03518            -288.00      360.00
03519            -128.00      360.00
03520             296.00      560.00
03521             120.00      600.00
03522            -384.00      440.00
03523            -232.00      560.00
03524             256.00      680.00
03525             112.00      720.00
03526            -320.00      600.00
03527            -136.00      720.00
03528             264.00      840.00
03529              40.00      840.00
03530            -304.00      800.00
03531             -96.00      880.00
03532             208.00     1000.00
03533             -72.00      960.00
03534            -264.00      920.00
03535              24.00     1040.00
03536             112.00     1160.00
03537            -200.00     1040.00
03538            -168.00     1080.00
03539              72.00     1240.00
03540             -56.00     1240.00
03541            -232.00     1200.00
03542             -56.00     1240.00
03543              24.00     1360.00
03544            -184.00     1320.00
03545            -184.00     1320.00
03546             -32.00     1400.00
03547             -88.00     1400.00
03548            -200.00     1400.00
03549            -128.00     1480.00
03550             -88.00     1560.00
03551            -136.00     1520.00
03552            -160.00     1560.00
03553            -128.00     1640.00
03554            -128.00     1640.00
03555            -152.00     1640.00
03556            -168.00     1680.00
03557            -144.00     1680.00
03558            -136.00     1680.00
03559            -168.00     1720.00
03560            -192.00     1720.00
03561            -160.00     1800.00
03562            -160.00     1800.00
03563            -192.00     1800.00
03564            -184.00     1840.00
03565            -168.00     1880.00
03566            -224.00     1880.00
03567            -216.00     1880.00
03568            -168.00     1920.00
03569            -200.00     1960.00
03570            -224.00     1960.00
03571            -200.00     1960.00
03572            -200.00     2000.00
03573            -232.00     2000.00
03574            -224.00     1960.00
03575            -224.00     2040.00
03576            -224.00     2000.00
03577            -232.00     2040.00
03578            -232.00     2040.00
03579            -248.00     2080.00
03580            -248.00     2040.00
03581            -248.00     2080.00
03582            -248.00     2080.00
03583            -248.00     2120.00
03584            -264.00     2120.00
03585            -264.00     2120.00
03586            -256.00     2080.00
03587            -264.00     2120.00
03588            -280.00     2120.00
03589            -264.00     2080.00
03590            -280.00     2120.00
03591            -288.00     2120.00
03592            -288.00     2120.00
03593            -280.00     2120.00
03594            -296.00     2120.00
03595            -296.00     2120.00
03596            -288.00     2120.00
03597            -296.00     2120.00
03598            -304.00     2120.00
03599            -296.00     2080.00
03600            -296.00     2080.00
03601            -296.00     2120.00
03602            -312.00     2040.00
03603            -312.00     2040.00
03604            -304.00     2040.00
03605            -296.00     2040.00
03606            -320.00     2040.00
03607            -312.00     2000.00
03608            -312.00     2000.00
03609            -312.00     2000.00
03610            -312.00     2000.00
03611            -296.00     2000.00
03612            -312.00     1960.00
03613            -320.00     1960.00
03614            -296.00     1960.00
03615            -296.00     1960.00
03616            -312.00     1880.00
03617            -296.00     1880.00
03618            -296.00     1880.00
03619            -296.00     1840.00
03620            -296.00     1800.00
03621            -296.00     1800.00
03622            -296.00     1720.00
03623            -288.00     1720.00
03624            -288.00     1720.00
03625            -288.00     1720.00
03626            -288.00     1640.00
03627            -288.00     1640.00
03628            -280.00     1640.00
03629            -264.00     1600.00
03630            -264.00     1560.00
03631            -264.00     1520.00
03632            -256.00     1480.00
03633            -256.00     1480.00
03634            -256.00     1480.00
03635            -248.00     1400.00
03636            -248.00     1400.00
03637            -232.00     1360.00
03638            -232.00     1320.00
03639            -232.00     1320.00
03640            -224.00     1280.00
03641            -232.00     1240.00
03642            -216.00     1240.00
03643            -216.00     1200.00
03644            -200.00     1160.00
03645            -200.00     1120.00
03646            -200.00     1080.00
03647            -192.00     1040.00
03648            -184.00     1000.00
03649            -184.00     1000.00
03650            -176.00      920.00
03651            -176.00      880.00
03652            -168.00      840.00
03653            -184.00      840.00
03654            -160.00      800.00
03655            -152.00      760.00
03656            -136.00      720.00
03657            -128.00      720.00
03658            -128.00      680.00
03659            -128.00      600.00
03660            -128.00      560.00
03661            -120.00      520.00
03662            -120.00      480.00
03663            -120.00      440.00
03664            -112.00      400.00
03665             -96.00      360.00
03666             -96.00      360.00
03667             -88.00      280.00
03668             -88.00      240.00
03669             -88.00      240.00
03670             -72.00      200.00
03671             -72.00      160.00
03672             -56.00      120.00
03673             -56.00       40.00
03674             -56.00       40.00
03675             -48.00      -40.00
03676             -32.00      -40.00
03677             -24.00      -80.00
03678              -8.00     -120.00
03679               0.00     -160.00
03680              -8.00     -200.00
03681              -8.00     -240.00
03682              32.00     -280.00
03683             248.00     -360.00
03684              96.00     -480.00
03685            -304.00     -280.00
03686            -224.00     -400.00
03687             216.00     -520.00
03688             328.00     -520.00
03689            -232.00     -560.00
03690            -328.00     -560.00
03691             144.00     -680.00
03692             312.00     -600.00
03693            -152.00     -720.00
03694            -224.00     -800.00
03695             216.00     -840.00
03696             256.00     -760.00
03697             -88.00     -840.00
03698             -88.00    -1000.00
03699             176.00     -880.00
03700             120.00     -920.00
03701              -8.00    -1000.00
03702              72.00    -1080.00
03703             152.00    -1040.00
03704              24.00    -1040.00
03705              56.00    -1160.00
03706             184.00    -1200.00
03707              96.00    -1160.00
03708              -8.00    -1240.00
03709             128.00    -1360.00
03710             200.00    -1280.00
03711              56.00    -1320.00
03712              24.00    -1400.00
03713             160.00    -1400.00
03714             168.00    -1360.00
03715              72.00    -1440.00
03716              96.00    -1520.00
03717             168.00    -1480.00
03718             152.00    -1520.00
03719             120.00    -1560.00
03720             136.00    -1560.00
03721             160.00    -1640.00
03722             152.00    -1640.00
03723             152.00    -1680.00
03724             160.00    -1680.00
03725             160.00    -1720.00
03726             160.00    -1720.00
03727             160.00    -1760.00
03728             184.00    -1760.00
03729             184.00    -1800.00
03730             168.00    -1840.00
03731             192.00    -1880.00
03732             200.00    -1840.00
03733             184.00    -1880.00
03734             192.00    -1880.00
03735             216.00    -1880.00
03736             216.00    -1920.00
03737             200.00    -1960.00
03738             216.00    -1960.00
03739             232.00    -1960.00
03740             224.00    -2000.00
03741             216.00    -2040.00
03742             232.00    -2000.00
03743             232.00    -2040.00
03744             232.00    -2080.00
03745             248.00    -2040.00
03746             248.00    -2040.00
03747             232.00    -2040.00
03748             248.00    -2040.00
03749             256.00    -2120.00
03750             256.00    -2120.00
03751             256.00    -2120.00
03752             256.00    -2120.00
03753             280.00    -2120.00
03754             264.00    -2120.00
03755             264.00    -2120.00
03756             280.00    -2120.00
03757             280.00    -2120.00
03758             280.00    -2120.00
03759             280.00    -2120.00
03760             288.00    -2120.00
03761             280.00    -2080.00
03762             288.00    -2120.00
03763             296.00    -2120.00
03764             304.00    -2080.00
03765             296.00    -2080.00
03766             296.00    -2120.00
03767             312.00    -2040.00
03768             312.00    -2120.00
03769             312.00    -2040.00
03770             312.00    -2040.00
03771             312.00    -2040.00
03772             312.00    -2040.00
03773             312.00    -2000.00
03774             312.00    -2000.00
03775             312.00    -1960.00
03776             312.00    -1960.00
03777             312.00    -1960.00
03778             312.00    -1960.00
03779             312.00    -1960.00
03780             312.00    -1920.00
03781             312.00    -1920.00
03782             312.00    -1880.00
03783             312.00    -1880.00
03784             304.00    -1840.00
03785             296.00    -1840.00
03786             312.00    -1840.00
03787             296.00    -1800.00
03788             296.00    -1760.00
03789             296.00    -1720.00
03790             288.00    -1720.00
03791             288.00    -1720.00
03792             280.00    -1680.00
03793             280.00    -1640.00
03794             280.00    -1640.00
03795             272.00    -1640.00
03796             280.00    -1560.00
03797             264.00    -1560.00
03798             256.00    -1520.00
03799             256.00    -1480.00
03800             256.00    -1480.00
03801             248.00    -1440.00
03802             256.00    -1400.00
03803             248.00    -1400.00
03804             240.00    -1320.00
03805             232.00    -1320.00
03806             224.00    -1320.00
03807             216.00    -1240.00
03808             224.00    -1200.00
03809             216.00    -1200.00
03810             216.00    -1200.00
03811             208.00    -1120.00
03812             192.00    -1080.00
03813             192.00    -1080.00
03814             192.00    -1000.00
03815             192.00    -1000.00
03816             168.00     -960.00
03817             184.00     -920.00
03818             168.00     -880.00
03819             152.00     -840.00
03820             160.00     -840.00
03821             152.00     -760.00
03822             152.00     -680.00
03823             136.00     -720.00
03824             128.00     -680.00
03825             136.00     -600.00
03826             128.00     -600.00
03827             120.00     -560.00
03828             120.00     -520.00
03829             120.00     -480.00
03830             112.00     -440.00
03831              96.00     -360.00
03832              88.00     -360.00
03833              88.00     -320.00
03834              96.00     -280.00
03835              80.00     -240.00
03836              64.00     -200.00
03837              88.00     -160.00
03838              72.00     -120.00
03839              72.00      -80.00
03840              64.00      -40.00
03841              56.00       40.00
03842              64.00       40.00
03843              64.00       80.00
03844              56.00      120.00
03845              64.00      160.00
03846              56.00      200.00
03847              56.00      200.00
03848              88.00      280.00
03849             264.00      360.00
03850             128.00      360.00
03851            -264.00      360.00
03852            -184.00      360.00
03853             248.00      520.00
03854             200.00      600.00
03855            -344.00      400.00
03856            -296.00      560.00
03857             200.00      680.00
03858             192.00      760.00
03859            -280.00      640.00
03860            -192.00      720.00
03861             232.00      840.00
03862             120.00      840.00
03863            -288.00      800.00
03864            -152.00      840.00
03865             200.00     1000.00
03866             -16.00     1000.00
03867            -264.00      920.00
03868             -32.00     1040.00
03869             136.00     1160.00
03870            -160.00     1080.00
03871            -200.00     1080.00
03872              40.00     1240.00
03873              -8.00     1240.00
03874            -240.00     1200.00
03875             -96.00     1240.00
03876              32.00     1360.00
03877            -152.00     1320.00
03878            -200.00     1320.00
03879             -40.00     1400.00
03880             -64.00     1440.00
03881            -184.00     1400.00
03882            -152.00     1480.00
03883             -88.00     1520.00
03884            -136.00     1560.00
03885            -160.00     1520.00
03886            -136.00     1560.00
03887            -120.00     1640.00
03888            -152.00     1640.00
03889            -168.00     1680.00
03890            -160.00     1680.00
03891            -136.00     1720.00
03892            -168.00     1720.00
03893            -200.00     1720.00
03894            -152.00     1760.00
03895            -136.00     1800.00
03896            -192.00     1800.00
03897            -200.00     1840.00
03898            -192.00     1880.00
03899            -216.00     1880.00
03900            -200.00     1880.00
03901            -168.00     1960.00
03902            -192.00     1960.00
03903            -232.00     1960.00
03904            -216.00     1960.00
03905            -200.00     2000.00
03906            -216.00     2000.00
03907            -224.00     2000.00
03908            -216.00     2040.00
03909            -232.00     2040.00
03910            -232.00     2000.00
03911            -248.00     2040.00
03912            -256.00     2080.00
03913            -248.00     2040.00
03914            -232.00     2080.00
03915            -224.00     2120.00
03916            -256.00     2080.00
03917            -280.00     2080.00
03918            -272.00     2120.00
03919            -256.00     2120.00
03920            -256.00     2120.00
03921            -264.00     2120.00
03922            -288.00     2120.00
03923            -280.00     2120.00
03924            -288.00     2120.00
03925            -288.00     2120.00
03926            -280.00     2120.00
03927            -288.00     2120.00
03928            -296.00     2120.00
03929            -296.00     2120.00
03930            -288.00     2120.00
03931            -312.00     2120.00
03932            -304.00     2120.00
03933            -296.00     2080.00
03934            -296.00     2040.00
03935            -312.00     2080.00
03936            -312.00     2040.00
03937            -304.00     2040.00
03938            -304.00     2040.00
03939            -312.00     2040.00
03940            -320.00     2000.00
03941            -312.00     2000.00
03942            -312.00     2000.00
03943            -312.00     1960.00
03944            -312.00     1960.00
03945            -312.00     1960.00
03946            -312.00     1960.00
03947            -312.00     1960.00
03948            -296.00     1960.00
03949            -312.00     1880.00
03950            -312.00     1880.00
03951            -296.00     1840.00
03952            -312.00     1840.00
03953            -296.00     1800.00
03954            -296.00     1760.00
03955            -296.00     1720.00
03956            -296.00     1720.00
03957            -288.00     1720.00
03958            -288.00     1680.00
03959            -296.00     1680.00
03960            -288.00     1640.00
03961            -280.00     1640.00
03962            -264.00     1600.00
03963            -264.00     1560.00
03964            -272.00     1560.00
03965            -256.00     1480.00
03966            -256.00     1480.00
03967            -256.00     1480.00
03968            -256.00     1400.00
03969            -248.00     1400.00
03970            -232.00     1360.00
03971            -240.00     1320.00
03972            -232.00     1320.00
03973            -224.00     1280.00
03974            -224.00     1240.00
03975            -224.00     1240.00
03976            -208.00     1200.00
03977            -200.00     1160.00
03978            -200.00     1120.00
03979            -192.00     1120.00
03980            -184.00     1080.00
03981            -184.00     1000.00
03982            -184.00     1000.00
03983            -184.00      960.00
03984            -168.00      880.00
03985            -176.00      840.00
03986            -168.00      840.00
03987            -168.00      760.00
03988            -152.00      760.00
03989            -136.00      760.00
03990            -136.00      720.00
03991            -128.00      680.00
03992            -128.00      600.00
03993            -128.00      600.00
03994            -112.00      560.00
03995            -112.00      520.00
03996            -120.00      440.00
03997            -104.00      400.00
03998            -104.00      360.00
03999             -96.00      360.00
04000             -88.00      280.00
04001             -88.00      240.00
04002             -96.00      240.00
04003             -72.00      200.00
04004             -64.00      160.00
04005             -64.00      120.00
04006             -56.00       80.00
04007             -48.00       40.00
04008             -56.00       40.00
04009             -40.00      -40.00
04010             -24.00      -80.00
04011              -8.00     -120.00
04012              -8.00     -120.00
04013               0.00     -200.00
04014              -8.00     -200.00
04015              24.00     -280.00
04016             216.00     -320.00
04017             160.00     -480.00
04018            -280.00     -360.00
04019            -264.00     -400.00
04020             136.00     -520.00
04021             360.00     -520.00
04022            -160.00     -560.00
04023            -376.00     -520.00
04024              64.00     -680.00
04025             344.00     -600.00
04026             -88.00     -680.00
04027            -256.00     -760.00
04028             152.00     -800.00
04029             288.00     -800.00
04030             -40.00     -840.00
04031            -120.00     -960.00
04032             152.00     -920.00
04033             152.00     -920.00
04034               0.00    -1000.00
04035              48.00    -1080.00
04036             152.00    -1040.00
04037              40.00    -1080.00
04038              40.00    -1160.00
04039             168.00    -1200.00
04040             128.00    -1160.00
04041               0.00    -1240.00
04042              96.00    -1320.00
04043             200.00    -1320.00
04044              72.00    -1320.00
04045              24.00    -1400.00
04046             152.00    -1400.00
04047             192.00    -1400.00
04048              88.00    -1440.00
04049              88.00    -1520.00
04050             168.00    -1480.00
04051             160.00    -1480.00
04052             120.00    -1600.00
04053             128.00    -1600.00
04054             160.00    -1640.00
04055             152.00    -1640.00
04056             152.00    -1680.00
04057             160.00    -1680.00
04058             168.00    -1720.00
04059             152.00    -1720.00
04060             160.00    -1760.00
04061             184.00    -1800.00
04062             184.00    -1800.00
04063             176.00    -1840.00
04064             192.00    -1840.00
04065             200.00    -1880.00
04066             192.00    -1880.00
04067             184.00    -1880.00
04068             216.00    -1880.00
04069             224.00    -1960.00
04070             192.00    -1960.00
04071             208.00    -1960.00
04072             224.00    -1960.00
04073             216.00    -2000.00
04074             216.00    -2000.00
04075             232.00    -2000.00
04076             240.00    -2040.00
04077             224.00    -2040.00
04078             248.00    -2040.00
04079             248.00    -2080.00
04080             232.00    -2040.00
04081             248.00    -2120.00
04082             256.00    -2080.00
04083             256.00    -2080.00
04084             256.00    -2120.00
04085             248.00    -2080.00
04086             264.00    -2120.00
04087             280.00    -2120.00
04088             264.00    -2120.00
04089             264.00    -2120.00
04090             288.00    -2120.00
04091             288.00    -2120.00
04092             280.00    -2120.00
04093             288.00    -2120.00
04094             288.00    -2120.00
04095             288.00    -2120.00
04096             288.00    -2120.00
04097             312.00    -2080.00
04098             288.00    -2040.00
04099             296.00    -2120.00
04100             312.00    -2080.00
04101             312.00    -2040.00
04102             312.00    -2040.00
04103             312.00    -2040.00
04104             312.00    -2040.00
04105             312.00    -2000.00
04106             312.00    -2000.00
04107             312.00    -2000.00
04108             312.00    -2000.00
04109             320.00    -1960.00
04110             320.00    -1960.00
04111             312.00    -1960.00
04112             312.00    -1920.00
04113             312.00    -1880.00
04114             312.00    -1880.00
04115             312.00    -1880.00
04116             312.00    -1880.00
04117             296.00    -1840.00
04118             312.00    -1840.00
04119             312.00    -1800.00
04120             296.00    -1800.00
04121             288.00    -1800.00
04122             288.00    -1760.00
04123             296.00    -1720.00
04124             296.00    -1720.00
04125             280.00    -1720.00
04126             280.00    -1640.00
04127             280.00    -1640.00
04128             272.00    -1600.00
04129             280.00    -1560.00
04130             272.00    -1560.00
04131             256.00    -1520.00
04132             256.00    -1480.00
04133             256.00    -1440.00
04134             256.00    -1440.00
04135             248.00    -1400.00
04136             248.00    -1360.00
04137             248.00    -1360.00
04138             232.00    -1320.00
04139             224.00    -1320.00
04140             224.00    -1280.00
04141             216.00    -1240.00
04142             216.00    -1200.00
04143             216.00    -1200.00
04144             200.00    -1160.00
04145             200.00    -1080.00
04146             192.00    -1080.00
04147             192.00    -1000.00
04148             192.00    -1000.00
04149             184.00     -960.00
04150             168.00     -920.00
04151             168.00     -920.00
04152             160.00     -840.00
04153             152.00     -840.00
04154             152.00     -840.00
04155             152.00     -760.00
04156             144.00     -720.00
04157             144.00     -680.00
04158             136.00     -640.00
04159             128.00     -600.00
04160             120.00     -600.00
04161             120.00     -520.00
04162             120.00     -480.00
04163             120.00     -440.00
04164              96.00     -400.00
04165              88.00     -360.00
04166              88.00     -360.00
04167              88.00     -280.00
04168              88.00     -240.00
04169              72.00     -200.00
04170              64.00     -160.00
04171              72.00     -120.00
04172              64.00      -80.00
04173              72.00      -40.00
04174              64.00      -40.00
04175              64.00       40.00
04176              64.00       80.00
04177              64.00      120.00
04178              64.00      160.00
04179              56.00      200.00
04180              56.00      240.00
04181              64.00      240.00
04182             232.00      360.00
04183             192.00      360.00
04184            -232.00      360.00
04185            -224.00      360.00
04186             184.00      440.00
04187             272.00      600.00
04188            -288.00      440.00
04189            -352.00      520.00
04190             128.00      680.00
04191             256.00      760.00
04192            -224.00      600.00
04193            -256.00      680.00
04194             184.00      840.00
04195             184.00      840.00
04196            -248.00      800.00
04197            -200.00      840.00
04198             176.00     1000.00
04199              56.00      920.00
04200            -256.00      920.00
04201             -88.00     1000.00
04202             152.00     1160.00
04203            -112.00     1120.00
04204            -232.00     1040.00
04205              24.00     1160.00
04206              24.00     1240.00
04207            -224.00     1160.00
04208            -136.00     1240.00
04209              32.00     1320.00
04210            -120.00     1320.00
04211            -224.00     1320.00
04212             -64.00     1360.00
04213             -40.00     1440.00
04214            -184.00     1440.00
04215            -160.00     1480.00
04216             -80.00     1520.00
04217            -120.00     1560.00
04218            -168.00     1520.00
04219            -136.00     1560.00
04220            -128.00     1640.00
04221            -152.00     1640.00
04222            -168.00     1640.00
04223            -160.00     1680.00
04224            -136.00     1720.00
04225            -152.00     1720.00
04226            -200.00     1720.00
04227            -168.00     1760.00
04228            -152.00     1800.00
04229            -192.00     1800.00
04230            -192.00     1840.00
04231            -168.00     1840.00
04232            -192.00     1880.00
04233            -224.00     1880.00
04234            -184.00     1880.00
04235            -184.00     1960.00
04236            -232.00     1960.00
04237            -216.00     1960.00
04238            -200.00     2000.00
04239            -216.00     1960.00
04240            -232.00     2000.00
04241            -216.00     2040.00
04242            -216.00     2000.00
04243            -232.00     2040.00
04244            -232.00     2040.00
04245            -232.00     2040.00
04246            -256.00     2040.00
04247            -256.00     2040.00
04248            -248.00     2040.00
04249            -248.00     2080.00
04250            -264.00     2080.00
04251            -264.00     2080.00
04252            -256.00     2120.00
04253            -256.00     2120.00
04254            -272.00     2120.00
04255            -280.00     2120.00
04256            -264.00     2120.00
04257            -280.00     2120.00
04258            -288.00     2080.00
04259            -288.00     2120.00
04260            -288.00     2120.00
04261            -296.00     2120.00
04262            -288.00     2120.00
04263            -288.00     2120.00
04264            -296.00     2080.00
04265            -312.00     2120.00
04266            -296.00     2120.00
04267            -296.00     2080.00
04268            -304.00     2040.00
04269            -312.00     2040.00
04270            -312.00     2080.00
04271            -312.00     2040.00
04272            -312.00     2040.00
04273            -312.00     2040.00
04274            -312.00     2000.00
04275            -312.00     2000.00
04276            -312.00     1960.00
04277            -312.00     1960.00
04278            -320.00     1960.00
04279            -320.00     1960.00
04280            -312.00     1920.00
04281            -296.00     1880.00
04282            -312.00     1880.00
04283            -320.00     1880.00
04284            -296.00     1880.00
04285            -296.00     1840.00
04286            -312.00     1800.00
04287            -296.00     1800.00
04288            -296.00     1760.00
04289            -296.00     1720.00
04290            -288.00     1680.00
04291            -288.00     1680.00
04292            -288.00     1640.00
04293            -288.00     1640.00
04294            -280.00     1640.00
04295            -280.00     1640.00
04296            -264.00     1560.00
04297            -280.00     1560.00
04298            -264.00     1520.00
04299            -256.00     1480.00
04300            -256.00     1480.00
04301            -256.00     1400.00
04302            -248.00     1400.00
04303            -232.00     1360.00
04304            -240.00     1320.00
04305            -232.00     1320.00
04306            -224.00     1320.00
04307            -224.00     1240.00
04308            -216.00     1200.00
04309            -216.00     1200.00
04310            -208.00     1160.00
04311            -208.00     1160.00
04312            -200.00     1080.00
04313            -192.00     1040.00
04314            -184.00     1040.00
04315            -184.00     1000.00
04316            -168.00      960.00
04317            -168.00      920.00
04318            -168.00      880.00
04319            -168.00      880.00
04320            -160.00      800.00
04321            -152.00      760.00
04322            -136.00      720.00
04323            -136.00      680.00
04324            -136.00      680.00
04325            -128.00      600.00
04326            -128.00      600.00
04327            -120.00      560.00
04328            -120.00      520.00
04329            -104.00      480.00
04330            -120.00      440.00
04331            -104.00      360.00
04332             -96.00      360.00
04333             -88.00      280.00
04334             -88.00      280.00
04335             -88.00      240.00
04336             -80.00      200.00
04337             -72.00      120.00
04338             -64.00      120.00
04339             -56.00       80.00
04340             -56.00       40.00
04341             -48.00       40.00
04342             -40.00      -40.00
04343             -32.00      -80.00
04344              -8.00     -120.00
04345              -8.00     -120.00
04346               0.00     -200.00
04347              -8.00     -240.00
04348               0.00     -280.00
04349             176.00     -280.00
04350             216.00     -440.00
04351            -224.00     -360.00
04352            -296.00     -360.00
04353              64.00     -520.00
04354             384.00     -520.00
04355             -64.00     -600.00
04356            -392.00     -520.00
04357             -32.00     -680.00
04358             352.00     -600.00
04359              -8.00     -680.00
04360            -280.00     -760.00
04361              80.00     -800.00
04362             320.00     -760.00
04363               8.00     -760.00
04364            -136.00     -920.00
04365             120.00     -920.00
04366             168.00     -920.00
04367              16.00     -960.00
04368              24.00    -1080.00
04369             160.00    -1080.00
04370              64.00    -1040.00
04371              32.00    -1160.00
04372             160.00    -1200.00
04373             152.00    -1200.00
04374               0.00    -1240.00
04375              64.00    -1320.00
04376             216.00    -1280.00
04377             104.00    -1280.00
04378               8.00    -1400.00
04379             120.00    -1400.00
04380             200.00    -1400.00
04381              96.00    -1400.00
04382              72.00    -1520.00
04383             152.00    -1520.00
04384             168.00    -1520.00
04385             128.00    -1640.00
04386             128.00    -1600.00
04387             160.00    -1640.00
04388             152.00    -1640.00
04389             152.00    -1680.00
04390             160.00    -1680.00
04391             168.00    -1680.00
04392             160.00    -1720.00
04393             160.00    -1800.00
04394             168.00    -1800.00
04395             192.00    -1800.00
04396             176.00    -1840.00
04397             192.00    -1880.00
04398             216.00    -1840.00
04399             192.00    -1880.00
04400             184.00    -1880.00
04401             208.00    -1920.00
04402             224.00    -1920.00
04403             216.00    -1920.00
04404             200.00    -1960.00
04405             224.00    -1960.00
04406             224.00    -1960.00
04407             216.00    -2000.00
04408             224.00    -2000.00
04409             240.00    -2000.00
04410             224.00    -2040.00
04411             232.00    -2080.00
04412             248.00    -2040.00
04413             248.00    -2080.00
04414             240.00    -2080.00
04415             256.00    -2120.00
04416             256.00    -2120.00
04417             256.00    -2040.00
04418             256.00    -2120.00
04419             256.00    -2080.00
04420             264.00    -2120.00
04421             264.00    -2080.00
04422             280.00    -2120.00
04423             280.00    -2120.00
04424             288.00    -2080.00
04425             280.00    -2120.00
04426             280.00    -2120.00
04427             288.00    -2120.00
04428             288.00    -2120.00
04429             296.00    -2120.00
04430             312.00    -2120.00
04431             296.00    -2120.00
04432             296.00    -2040.00
04433             296.00    -2080.00
04434             312.00    -2040.00
04435             312.00    -2040.00
04436             312.00    -2040.00
04437             312.00    -2040.00
04438             312.00    -2040.00
04439             312.00    -2000.00
04440             312.00    -2000.00
04441             320.00    -2000.00
04442             320.00    -1960.00
04443             312.00    -1960.00
04444             312.00    -1960.00
04445             312.00    -1960.00
04446             312.00    -1960.00
04447             312.00    -1960.00
04448             320.00    -1880.00
04449             312.00    -1880.00
04450             312.00    -1840.00
04451             304.00    -1840.00
04452             312.00    -1840.00
04453             296.00    -1800.00
04454             296.00    -1760.00
04455             296.00    -1760.00
04456             296.00    -1720.00
04457             288.00    -1720.00
04458             288.00    -1720.00
04459             280.00    -1680.00
04460             280.00    -1640.00
04461             280.00    -1640.00
04462             280.00    -1560.00
04463             272.00    -1560.00
04464             264.00    -1520.00
04465             256.00    -1520.00
04466             256.00    -1480.00
04467             256.00    -1440.00
04468             248.00    -1400.00
04469             248.00    -1360.00
04470             248.00    -1360.00
04471             232.00    -1320.00
04472             224.00    -1280.00
04473             216.00    -1240.00
04474             216.00    -1240.00
04475             216.00    -1200.00
04476             216.00    -1160.00
04477             200.00    -1160.00
04478             192.00    -1120.00
04479             192.00    -1040.00
04480             192.00    -1040.00
04481             184.00    -1000.00
04482             184.00    -1000.00
04483             168.00     -920.00
04484             168.00     -880.00
04485             160.00     -840.00
04486             152.00     -840.00
04487             152.00     -760.00
04488             144.00     -760.00
04489             144.00     -720.00
04490             144.00     -680.00
04491             128.00     -640.00
04492             128.00     -600.00
04493             120.00     -560.00
04494             120.00     -520.00
04495             120.00     -520.00
04496             120.00     -440.00
04497              96.00     -400.00
04498              96.00     -360.00
04499              96.00     -320.00
04500              96.00     -280.00
04501              88.00     -240.00
04502              88.00     -200.00
04503              80.00     -200.00
04504              72.00     -120.00
04505              72.00      -80.00
04506              72.00      -40.00
04507              64.00      -40.00
04508              64.00        0.00
04509              64.00       80.00
04510              64.00      120.00
04511              64.00      160.00
04512              64.00      160.00
04513              56.00      200.00
04514              64.00      280.00
04515             200.00      360.00
04516             248.00      360.00
04517            -184.00      360.00
04518            -248.00      400.00
04519             104.00      400.00
04520             320.00      640.00
04521            -200.00      440.00
04522            -384.00      520.00
04523              56.00      600.00
04524             288.00      760.00
04525            -160.00      640.00
04526            -296.00      680.00
04527             120.00      800.00
04528             232.00      840.00
04529            -192.00      840.00
04530            -256.00      840.00
04531             128.00     1000.00
04532             104.00     1000.00
04533            -240.00      920.00
04534            -136.00     1000.00
04535             136.00     1160.00
04536             -56.00     1120.00
04537            -256.00     1040.00
04538             -24.00     1160.00
04539              56.00     1240.00
04540            -200.00     1200.00
04541            -168.00     1200.00
04542              24.00     1320.00
04543             -88.00     1360.00
04544            -224.00     1320.00
04545             -96.00     1400.00
04546             -24.00     1440.00
04547            -168.00     1440.00
04548            -184.00     1440.00
04549             -72.00     1520.00
04550            -104.00     1520.00
04551            -160.00     1520.00
04552            -144.00     1560.00
04553            -128.00     1640.00
04554            -152.00     1640.00
04555            -168.00     1640.00
04556            -168.00     1680.00
04557            -136.00     1720.00
04558            -152.00     1720.00
04559            -192.00     1720.00
04560            -176.00     1760.00
04561            -136.00     1800.00
04562            -184.00     1840.00
04563            -192.00     1840.00
04564            -168.00     1880.00
04565            -192.00     1880.00
04566            -224.00     1880.00
04567            -184.00     1880.00
04568            -168.00     1960.00
04569            -224.00     1920.00
04570            -216.00     1960.00
04571            -192.00     1960.00
04572            -216.00     2000.00
04573            -232.00     2000.00
04574            -224.00     2000.00
04575            -224.00     2040.00
04576            -232.00     2040.00
04577            -224.00     2040.00
04578            -232.00     2040.00
04579            -248.00     2080.00
04580            -248.00     2080.00
04581            -248.00     2080.00
04582            -248.00     2080.00
04583            -256.00     2080.00
04584            -264.00     2080.00
04585            -256.00     2080.00
04586            -256.00     2120.00
04587            -280.00     2120.00
04588            -280.00     2120.00
04589            -264.00     2120.00
04590            -280.00     2120.00
04591            -288.00     2120.00
04592            -280.00     2120.00
04593            -280.00     2120.00
04594            -296.00     2120.00
04595            -288.00     2080.00
04596            -288.00     2080.00
04597            -296.00     2080.00
04598            -312.00     2080.00
04599            -296.00     2120.00
04600            -296.00     2080.00
04601            -296.00     2040.00
04602            -320.00     2040.00
04603            -312.00     2040.00
04604            -312.00     2040.00
04605            -312.00     2040.00
04606            -320.00     2000.00
04607            -320.00     2000.00
04608            -312.00     2000.00
04609            -312.00     2000.00
04610            -312.00     1960.00
04611            -312.00     1960.00
04612            -320.00     1960.00
04613            -312.00     1960.00
04614            -296.00     1880.00
04615            -312.00     1880.00
04616            -312.00     1880.00
04617            -296.00     1840.00
04618            -296.00     1840.00
04619            -304.00     1840.00
04620            -296.00     1840.00
04621            -296.00     1760.00
04622            -296.00     1720.00
04623            -296.00     1720.00
04624            -288.00     1680.00
04625            -288.00     1720.00
04626            -288.00     1640.00
04627            -288.00     1640.00
04628            -264.00     1640.00
04629            -264.00     1600.00
04630            -264.00     1560.00
04631            -264.00     1520.00
04632            -256.00     1520.00
04633            -248.00     1480.00
04634            -256.00     1400.00
04635            -248.00     1400.00
04636            -248.00     1400.00
04637            -232.00     1360.00
04638            -232.00     1320.00
04639            -224.00     1320.00
04640            -232.00     1240.00
04641            -224.00     1240.00
04642            -208.00     1200.00
04643            -200.00     1160.00
04644            -200.00     1120.00
04645            -192.00     1080.00
04646            -192.00     1080.00
04647            -184.00     1040.00
04648            -192.00     1000.00
04649            -168.00      960.00
04650            -176.00      920.00
04651            -168.00      920.00
04652            -168.00      840.00
04653            -168.00      840.00
04654            -160.00      800.00
04655            -144.00      760.00
04656            -136.00      720.00
04657            -128.00      680.00
04658            -128.00      640.00
04659            -128.00      600.00
04660            -128.00      520.00
04661            -120.00      520.00
04662            -104.00      440.00
04663            -120.00      440.00
04664            -104.00      400.00
04665             -96.00      360.00
04666             -96.00      320.00
04667             -88.00      280.00
04668             -80.00      240.00
04669             -88.00      200.00
04670             -72.00      200.00
04671             -64.00      120.00
04672             -56.00       80.00
04673             -64.00       40.00
04674             -56.00       40.00
04675             -40.00      -40.00
04676             -32.00      -80.00
04677             -24.00     -120.00
04678              -8.00     -120.00
04679               0.00     -120.00
04680              -8.00     -200.00
04681               0.00     -240.00
04682             136.00     -280.00
04683             248.00     -400.00
04684            -160.00     -360.00
04685            -320.00     -360.00
04686              -8.00     -520.00
04687             384.00     -480.00
04688              32.00     -560.00
04689            -392.00     -520.00
04690            -112.00     -680.00
04691             344.00     -640.00
04692              72.00     -680.00
04693            -280.00     -800.00
04694               0.00     -800.00
04695             320.00     -760.00
04696              64.00     -800.00
04697            -160.00     -920.00
04698              72.00     -960.00
04699             192.00     -920.00
04700              32.00     -920.00
04701               0.00    -1080.00
04702             152.00    -1080.00
04703              88.00    -1040.00
04704              24.00    -1120.00
04705             136.00    -1200.00
04706             168.00    -1160.00
04707              24.00    -1200.00
04708              48.00    -1280.00
04709             200.00    -1320.00
04710             136.00    -1240.00
04711               8.00    -1360.00
04712             104.00    -1400.00
04713             216.00    -1360.00
04714             120.00    -1400.00
04715              64.00    -1480.00
04716             144.00    -1520.00
04717             184.00    -1440.00
04718             128.00    -1560.00
04719             128.00    -1640.00
04720             152.00    -1600.00
04721             160.00    -1640.00
04722             136.00    -1680.00
04723             160.00    -1680.00
04724             168.00    -1720.00
04725             160.00    -1760.00
04726             160.00    -1800.00
04727             168.00    -1800.00
04728             184.00    -1800.00
04729             176.00    -1800.00
04730             192.00    -1840.00
04731             200.00    -1840.00
04732             192.00    -1880.00
04733             168.00    -1880.00
04734             200.00    -1880.00
04735             216.00    -1880.00
04736             208.00    -1960.00
04737             192.00    -1960.00
04738             224.00    -2000.00
04739             216.00    -2000.00
04740             216.00    -2000.00
04741             224.00    -2000.00
04742             240.00    -2000.00
04743             232.00    -2040.00
04744             232.00    -2040.00
04745             248.00    -2040.00
04746             232.00    -2040.00
04747             232.00    -2080.00
04748             256.00    -2080.00
04749             264.00    -2120.00
04750             256.00    -2120.00
04751             256.00    -2120.00
04752             264.00    -2120.00
04753             264.00    -2120.00
04754             256.00    -2120.00
04755             280.00    -2120.00
04756             288.00    -2120.00
04757             280.00    -2120.00
04758             280.00    -2120.00
04759             280.00    -2120.00
04760             288.00    -2120.00
04761             296.00    -2120.00
04762             296.00    -2080.00
04763             296.00    -2120.00
04764             312.00    -2080.00
04765             296.00    -2040.00
04766             296.00    -2080.00
04767             312.00    -2120.00
04768             312.00    -2080.00
04769             304.00    -2040.00
04770             312.00    -2040.00
04771             312.00    -2000.00
04772             312.00    -2000.00
04773             312.00    -2000.00
04774             312.00    -1960.00
04775             320.00    -1960.00
04776             320.00    -1960.00
04777             320.00    -1960.00
04778             312.00    -1920.00
04779             312.00    -1880.00
04780             312.00    -1880.00
04781             312.00    -1880.00
04782             312.00    -1880.00
04783             312.00    -1880.00
04784             304.00    -1840.00
04785             312.00    -1880.00
04786             296.00    -1800.00
04787             288.00    -1800.00
04788             296.00    -1720.00
04789             296.00    -1720.00
04790             288.00    -1720.00
04791             296.00    -1680.00
04792             280.00    -1680.00
04793             280.00    -1640.00
04794             280.00    -1640.00
04795             280.00    -1600.00
04796             272.00    -1560.00
04797             264.00    -1560.00
04798             256.00    -1520.00
04799             256.00    -1480.00
04800             256.00    -1440.00
04801             248.00    -1400.00
04802             248.00    -1400.00
04803             232.00    -1360.00
04804             224.00    -1360.00
04805             232.00    -1320.00
04806             224.00    -1240.00
04807             216.00    -1240.00
04808             216.00    -1200.00
04809             216.00    -1200.00
04810             208.00    -1160.00
04811             192.00    -1120.00
04812             192.00    -1080.00
04813             192.00    -1040.00
04814             184.00    -1040.00
04815             168.00    -1000.00
04816             168.00     -960.00
04817             168.00     -920.00
04818             160.00     -880.00
04819             152.00     -840.00
04820             152.00     -760.00
04821             152.00     -720.00
04822             152.00     -720.00
04823             152.00     -680.00
04824             128.00     -640.00
04825             128.00     -600.00
04826             120.00     -560.00
04827             120.00     -560.00
04828             120.00     -520.00
04829             120.00     -440.00
04830              96.00     -400.00
04831              88.00     -400.00
04832             104.00     -360.00
04833              96.00     -280.00
04834              96.00     -240.00
04835              80.00     -200.00
04836              64.00     -160.00
04837              64.00     -120.00
04838              72.00      -80.00
04839              72.00      -80.00
04840              72.00      -40.00
04841              64.00       40.00
04842              64.00       40.00
04843              64.00       80.00
04844              64.00      120.00
04845              64.00      160.00
04846              56.00      200.00
04847              56.00      200.00
04848             160.00      280.00
04849             280.00      360.00
04850            -120.00      360.00
04851            -280.00      360.00
04852              32.00      400.00
04853             344.00      600.00
04854            -120.00      480.00
04855            -408.00      440.00
04856             -32.00      600.00
04857             312.00      720.00
04858             -88.00      680.00
04859            -328.00      640.00
04860              40.00      760.00
04861             264.00      840.00
04862            -128.00      800.00
04863            -288.00      840.00
04864              88.00      920.00
04865             152.00     1000.00
04866            -200.00      920.00
04867            -184.00      960.00
04868             120.00     1120.00
04869               0.00     1160.00
04870            -256.00     1040.00
04871             -64.00     1160.00
04872              72.00     1240.00
04873            -168.00     1200.00
04874            -200.00     1200.00
04875              16.00     1320.00
04876             -40.00     1320.00
04877            -224.00     1320.00
04878            -120.00     1400.00
04879             -24.00     1480.00
04880            -144.00     1400.00
04881            -184.00     1440.00
04882             -96.00     1520.00
04883             -96.00     1520.00
04884            -160.00     1520.00
04885            -160.00     1560.00
04886            -128.00     1640.00
04887            -152.00     1640.00
04888            -168.00     1640.00
04889            -168.00     1640.00
04890            -136.00     1720.00
04891            -136.00     1720.00
04892            -192.00     1720.00
04893            -184.00     1760.00
04894            -144.00     1800.00
04895            -168.00     1800.00
04896            -192.00     1840.00
04897            -168.00     1880.00
04898            -184.00     1880.00
04899            -224.00     1880.00
04900            -192.00     1920.00
04901            -168.00     1960.00
04902            -216.00     1960.00
04903            -224.00     1960.00
04904            -192.00     2000.00
04905            -208.00     2000.00
04906            -224.00     1960.00
04907            -224.00     2000.00
04908            -224.00     2040.00
04909            -232.00     2000.00
04910            -224.00     2040.00
04911            -224.00     2040.00
04912            -248.00     2040.00
04913            -256.00     2040.00
04914            -248.00     2080.00
04915            -248.00     2120.00
04916            -256.00     2080.00
04917            -256.00     2080.00
04918            -256.00     2080.00
04919            -256.00     2120.00
04920            -272.00     2120.00
04921            -280.00     2120.00
04922            -264.00     2120.00
04923            -264.00     2120.00
04924            -288.00     2120.00
04925            -288.00     2080.00
04926            -280.00     2120.00
04927            -296.00     2120.00
04928            -288.00     2120.00
04929            -288.00     2120.00
04930            -296.00     2080.00
04931            -312.00     2120.00
04932            -312.00     2080.00
04933            -296.00     2040.00
04934            -312.00     2080.00
04935            -312.00     2040.00
04936            -296.00     2040.00
04937            -312.00     2040.00
04938            -312.00     2040.00
04939            -320.00     2040.00
04940            -320.00     2000.00
04941            -312.00     2000.00
04942            -312.00     2000.00
04943            -312.00     1960.00
04944            -312.00     1960.00
04945            -320.00     1960.00
04946            -312.00     1920.00
04947            -296.00     1960.00
04948            -312.00     1920.00
04949            -312.00     1880.00
04950            -304.00     1840.00
04951            -296.00     1800.00
04952            -304.00     1840.00
04953            -296.00     1760.00
04954            -296.00     1720.00
04955            -296.00     1720.00
04956            -296.00     1720.00
04957            -288.00     1680.00
04958            -288.00     1680.00
04959            -288.00     1680.00
04960            -280.00     1640.00
04961            -264.00     1600.00
04962            -264.00     1600.00
04963            -264.00     1560.00
04964            -264.00     1520.00
04965            -256.00     1480.00
04966            -256.00     1480.00
04967            -256.00     1440.00
04968            -248.00     1400.00
04969            -248.00     1360.00
04970            -232.00     1360.00
04971            -232.00     1320.00
04972            -224.00     1320.00
04973            -224.00     1240.00
04974            -224.00     1240.00
04975            -208.00     1200.00
04976            -200.00     1160.00
04977            -200.00     1120.00
04978            -200.00     1080.00
04979            -192.00     1080.00
04980            -184.00     1040.00
04981            -176.00     1000.00
04982            -184.00      920.00
04983            -168.00      920.00
04984            -168.00      880.00
04985            -168.00      840.00
04986            -168.00      760.00
04987            -160.00      800.00
04988            -152.00      760.00
04989            -136.00      720.00
04990            -136.00      680.00
04991            -128.00      640.00
04992            -128.00      600.00
04993            -128.00      560.00
04994            -120.00      560.00
04995            -120.00      440.00
04996            -120.00      400.00
04997            -104.00      360.00
04998            -104.00      360.00
04999             -96.00      280.00
05000             -96.00      280.00
