Unit:(mV)
                     CH1         CH2
Frequency              ? 298.978 kHz
00001             100.00    -1400.00
00002             460.00    -1600.00
00003             860.00    -2200.00
00004             400.00    -2200.00
00005            -420.00    -2400.00
00006            -700.00    -2600.00
00007            -740.00    -2600.00
00008            -320.00    -2400.00
00009             560.00    -3000.00
00010              80.00    -3200.00
00011             -60.00    -3000.00
00012             340.00    -4000.00
00013               0.00    -3400.00
00014             140.00    -3600.00
00015             100.00    -4400.00
00016              20.00    -4000.00
00017             380.00    -4600.00
00018              60.00    -4600.00
00019             -60.00    -4600.00
00020              80.00    -5000.00
00021               0.00    -5000.00
00022             160.00    -5400.00
00023             160.00    -5200.00
00024              80.00    -5800.00
00025              60.00    -5800.00
00026             180.00    -5800.00
00027             180.00    -6000.00
00028              20.00    -6000.00
00029             180.00    -6200.00
00030             160.00    -6400.00
00031             100.00    -6600.00
00032             160.00    -6800.00
00033             100.00    -6600.00
00034             140.00    -7000.00
00035             220.00    -7000.00
00036             180.00    -7200.00
00037             140.00    -7400.00
00038             180.00    -7200.00
00039             220.00    -7600.00
00040             160.00    -7600.00
00041             180.00    -7800.00
00042             180.00    -7800.00
00043             160.00    -8200.00
00044             180.00    -8200.00
00045             220.00    -8200.00
00046             180.00    -8400.00
00047             220.00    -8600.00
00048             220.00    -8600.00
00049             180.00    -8600.00
00050             220.00    -8800.00
00051             220.00    -8800.00
00052             220.00    -9000.00
00053             220.00    -9000.00
00054             220.00    -9200.00
00055             220.00    -9200.00
00056             220.00    -9200.00
00057             280.00    -9200.00
00058             260.00    -9400.00
00059             240.00    -9400.00
00060             240.00    -9400.00
00061             220.00    -9400.00
00062             240.00    -9800.00
00063             260.00    -9600.00
00064             260.00    -9400.00
00065             280.00    -9800.00
00066             280.00    -9800.00
00067             240.00    -9800.00
00068             240.00    -9800.00
00069             260.00    -9800.00
00070             280.00   -10000.00
00071             300.00    -9800.00
00072             260.00    -9800.00
00073             280.00   -10000.00
00074             260.00    -9800.00
00075             260.00    -9800.00
00076             260.00    -9800.00
00077             260.00   -10000.00
00078             300.00    -9800.00
00079             280.00    -9800.00
00080             240.00    -9800.00
00081             260.00    -9800.00
00082             260.00    -9800.00
00083             260.00    -9800.00
00084             280.00    -9800.00
00085             300.00    -9800.00
00086             280.00    -9800.00
00087             260.00    -9800.00
00088             260.00    -9400.00
00089             300.00    -9400.00
00090             300.00    -9400.00
00091             300.00    -9400.00
00092             260.00    -9400.00
00093             260.00    -9400.00
00094             240.00    -9200.00
00095             260.00    -9200.00
00096             260.00    -9200.00
00097             280.00    -9200.00
00098             300.00    -9000.00
00099             260.00    -9000.00
00100             260.00    -9000.00
00101             240.00    -8800.00
00102             240.00    -8800.00
00103             260.00    -8600.00
00104             260.00    -8400.00
00105             260.00    -8400.00
00106             240.00    -8400.00
00107             260.00    -8200.00
00108             240.00    -8200.00
00109             260.00    -8000.00
00110             240.00    -7800.00
00111             240.00    -7800.00
00112             240.00    -7600.00
00113             240.00    -7400.00
00114             240.00    -7200.00
00115             240.00    -7200.00
00116             220.00    -7000.00
00117             240.00    -7000.00
00118             240.00    -7000.00
00119             220.00    -6800.00
00120             220.00    -6600.00
00121             220.00    -6600.00
00122             220.00    -6200.00
00123             220.00    -6200.00
00124             220.00    -6000.00
00125             220.00    -5800.00
00126             220.00    -5800.00
00127             200.00    -5400.00
00128             180.00    -5400.00
00129             200.00    -5400.00
00130             180.00    -5000.00
00131             220.00    -5000.00
00132             180.00    -4600.00
00133             160.00    -4600.00
00134             160.00    -4400.00
00135             160.00    -4200.00
00136             160.00    -4200.00
00137             160.00    -4200.00
00138             160.00    -3800.00
00139             140.00    -3600.00
00140             140.00    -3400.00
00141             140.00    -3400.00
00142             140.00    -3000.00
00143             140.00    -2800.00
00144             140.00    -2600.00
00145             140.00    -2600.00
00146             100.00    -2400.00
00147             100.00    -2200.00
00148             100.00    -1800.00
00149             100.00    -2000.00
00150             100.00    -1800.00
00151             100.00    -1400.00
00152              80.00    -1200.00
00153              80.00    -1200.00
00154              60.00     -800.00
00155              80.00     -800.00
00156              60.00     -600.00
00157              80.00     -400.00
00158              80.00     -200.00
00159              60.00      200.00
00160              60.00      200.00
00161              80.00      400.00
00162             140.00      600.00
00163             160.00      800.00
00164             140.00      600.00
00165             100.00      800.00
00166              80.00     1200.00
00167              80.00     1400.00
00168             180.00     1400.00
00169             720.00     1800.00
00170             960.00     2000.00
00171             140.00     2200.00
00172            -800.00     2200.00
00173           -1060.00     2200.00
00174            -780.00     2800.00
00175             620.00     3000.00
00176             340.00     2800.00
00177            -460.00     3200.00
00178             300.00     3200.00
00179              20.00     3600.00
00180            -300.00     4200.00
00181             140.00     3600.00
00182             -80.00     4200.00
00183             220.00     4400.00
00184               0.00     3800.00
00185            -260.00     5000.00
00186              20.00     4600.00
00187            -240.00     4800.00
00188               0.00     5400.00
00189               0.00     4800.00
00190            -140.00     5600.00
00191               0.00     5600.00
00192            -220.00     5600.00
00193             -20.00     6000.00
00194            -100.00     5800.00
00195            -140.00     6200.00
00196             -80.00     6200.00
00197            -100.00     6400.00
00198            -100.00     6600.00
00199            -240.00     6600.00
00200            -100.00     7000.00
00201             -80.00     6800.00
00202            -100.00     7200.00
00203            -120.00     7400.00
00204            -160.00     7400.00
00205            -180.00     7600.00
00206            -160.00     7400.00
00207            -100.00     7800.00
00208            -220.00     7800.00
00209            -180.00     7800.00
00210            -200.00     8000.00
00211            -180.00     8200.00
00212            -160.00     8400.00
00213            -160.00     8400.00
00214            -200.00     8600.00
00215            -240.00     8600.00
00216            -180.00     8600.00
00217            -220.00     8600.00
00218            -180.00     9000.00
00219            -200.00     9000.00
00220            -260.00     9000.00
00221            -240.00     9000.00
00222            -220.00     9200.00
00223            -220.00     9200.00
00224            -220.00     9200.00
00225            -220.00     9400.00
00226            -240.00     9400.00
00227            -260.00     9400.00
00228            -240.00     9600.00
00229            -240.00     9600.00
00230            -260.00     9600.00
00231            -220.00     9800.00
00232            -240.00     9800.00
00233            -260.00     9800.00
00234            -260.00     9800.00
00235            -260.00     9800.00
00236            -260.00    10000.00
00237            -240.00    10000.00
00238            -260.00    10000.00
00239            -260.00     9800.00
00240            -260.00     9800.00
00241            -260.00    10000.00
00242            -280.00    10200.00
00243            -260.00     9800.00
00244            -260.00    10000.00
00245            -260.00     9800.00
00246            -260.00    10000.00
00247            -260.00    10000.00
00248            -280.00    10000.00
00249            -260.00    10000.00
00250            -260.00    10000.00
00251            -260.00     9800.00
00252            -260.00     9800.00
00253            -260.00     9800.00
00254            -260.00     9800.00
00255            -260.00     9600.00
00256            -260.00     9800.00
00257            -260.00     9400.00
00258            -260.00     9600.00
00259            -260.00     9400.00
00260            -260.00     9400.00
00261            -260.00     9400.00
00262            -260.00     9200.00
00263            -260.00     9200.00
00264            -260.00     9200.00
00265            -260.00     9200.00
00266            -260.00     9000.00
00267            -260.00     9000.00
00268            -260.00     8800.00
00269            -260.00     8800.00
00270            -260.00     8600.00
00271            -240.00     8400.00
00272            -260.00     8600.00
00273            -260.00     8400.00
00274            -260.00     8200.00
00275            -260.00     8200.00
00276            -260.00     8200.00
00277            -240.00     7800.00
00278            -260.00     7800.00
00279            -240.00     7600.00
00280            -260.00     7400.00
00281            -260.00     7600.00
00282            -260.00     7400.00
00283            -240.00     7400.00
00284            -240.00     7000.00
00285            -240.00     7000.00
00286            -240.00     6800.00
00287            -240.00     6600.00
00288            -220.00     6400.00
00289            -220.00     6200.00
00290            -220.00     6200.00
00291            -220.00     6200.00
00292            -220.00     6000.00
00293            -220.00     5800.00
00294            -220.00     5600.00
00295            -220.00     5400.00
00296            -180.00     5400.00
00297            -180.00     5400.00
00298            -180.00     5000.00
00299            -160.00     5000.00
00300            -180.00     4600.00
00301            -180.00     4600.00
00302            -160.00     4400.00
00303            -160.00     4200.00
00304            -160.00     4000.00
00305            -160.00     3800.00
00306            -160.00     3800.00
00307            -160.00     3600.00
00308            -160.00     3400.00
00309            -140.00     3000.00
00310            -140.00     3000.00
00311            -100.00     2800.00
00312            -120.00     2600.00
00313            -120.00     2600.00
00314            -140.00     2200.00
00315            -100.00     2200.00
00316            -100.00     2000.00
00317            -100.00     1800.00
00318             -80.00     1400.00
00319             -80.00     1400.00
00320             -80.00     1200.00
00321             -80.00     1000.00
00322             -80.00      800.00
00323             -80.00      600.00
00324             -60.00      400.00
00325             -60.00      400.00
00326             -60.00      200.00
00327             -60.00     -200.00
00328             -20.00     -400.00
00329              60.00     -400.00
00330             100.00     -600.00
00331              60.00     -600.00
00332              20.00     -800.00
00333              40.00    -1000.00
00334              20.00    -1200.00
00335              60.00    -1400.00
00336             220.00    -1600.00
00337             720.00    -1800.00
00338             720.00    -2200.00
00339             -40.00    -2200.00
00340            -640.00    -2600.00
00341            -740.00    -2600.00
00342            -660.00    -2400.00
00343             220.00    -2800.00
00344             460.00    -3200.00
00345            -160.00    -3000.00
00346             220.00    -3600.00
00347             200.00    -3800.00
00348               0.00    -3400.00
00349             220.00    -4200.00
00350             -20.00    -4200.00
00351             240.00    -4200.00
00352             260.00    -4600.00
00353            -100.00    -4600.00
00354              60.00    -5000.00
00355              20.00    -4800.00
00356              80.00    -5200.00
00357             160.00    -5200.00
00358             140.00    -5200.00
00359              60.00    -5800.00
00360             100.00    -5600.00
00361             240.00    -5800.00
00362              80.00    -6200.00
00363             100.00    -6200.00
00364             220.00    -6600.00
00365             100.00    -6600.00
00366             160.00    -6800.00
00367             140.00    -6600.00
00368             100.00    -6800.00
00369             200.00    -7000.00
00370             220.00    -7000.00
00371             160.00    -7400.00
00372             160.00    -7400.00
00373             220.00    -7400.00
00374             180.00    -7600.00
00375             180.00    -7800.00
00376             220.00    -7800.00
00377             160.00    -8000.00
00378             180.00    -8200.00
00379             220.00    -8200.00
00380             220.00    -8200.00
00381             180.00    -8400.00
00382             240.00    -8600.00
00383             220.00    -8600.00
00384             200.00    -8600.00
00385             220.00    -8800.00
00386             240.00    -9000.00
00387             220.00    -9000.00
00388             220.00    -9000.00
00389             220.00    -9200.00
00390             220.00    -9200.00
00391             260.00    -9200.00
00392             260.00    -9200.00
00393             240.00    -9400.00
00394             240.00    -9400.00
00395             240.00    -9400.00
00396             220.00    -9400.00
00397             240.00    -9400.00
00398             260.00    -9600.00
00399             260.00    -9600.00
00400             260.00    -9800.00
00401             260.00    -9800.00
00402             240.00    -9800.00
00403             240.00    -9800.00
00404             260.00    -9800.00
00405             260.00    -9800.00
00406             300.00   -10000.00
00407             260.00    -9800.00
00408             240.00    -9800.00
00409             240.00   -10000.00
00410             260.00    -9800.00
00411             260.00    -9800.00
00412             300.00    -9800.00
00413             300.00   -10000.00
00414             280.00    -9800.00
00415             260.00    -9800.00
00416             240.00    -9800.00
00417             260.00    -9800.00
00418             260.00    -9800.00
00419             300.00    -9800.00
00420             300.00    -9600.00
00421             260.00    -9800.00
00422             260.00    -9600.00
00423             260.00    -9800.00
00424             300.00    -9400.00
00425             300.00    -9400.00
00426             280.00    -9400.00
00427             260.00    -9400.00
00428             260.00    -9200.00
00429             260.00    -9200.00
00430             260.00    -9200.00
00431             300.00    -9200.00
00432             300.00    -9000.00
00433             280.00    -9000.00
00434             260.00    -9000.00
00435             260.00    -8800.00
00436             240.00    -8800.00
00437             260.00    -8600.00
00438             260.00    -8600.00
00439             260.00    -8600.00
00440             260.00    -8400.00
00441             260.00    -8200.00
00442             240.00    -8200.00
00443             240.00    -8200.00
00444             260.00    -7800.00
00445             240.00    -7800.00
00446             240.00    -7800.00
00447             240.00    -7600.00
00448             240.00    -7400.00
00449             240.00    -7200.00
00450             240.00    -7200.00
00451             240.00    -7000.00
00452             240.00    -7000.00
00453             240.00    -6800.00
00454             220.00    -6800.00
00455             220.00    -6600.00
00456             220.00    -6200.00
00457             220.00    -6200.00
00458             220.00    -6200.00
00459             220.00    -6000.00
00460             220.00    -6000.00
00461             180.00    -5800.00
00462             180.00    -5400.00
00463             180.00    -5400.00
00464             220.00    -5000.00
00465             220.00    -5000.00
00466             180.00    -5000.00
00467             160.00    -4600.00
00468             160.00    -4600.00
00469             160.00    -4400.00
00470             160.00    -4200.00
00471             160.00    -4200.00
00472             160.00    -3800.00
00473             140.00    -3800.00
00474             140.00    -3400.00
00475             140.00    -3400.00
00476             120.00    -3200.00
00477             140.00    -3000.00
00478             140.00    -3000.00
00479             140.00    -2600.00
00480             100.00    -2600.00
00481             120.00    -2200.00
00482             100.00    -2200.00
00483             100.00    -2000.00
00484             100.00    -1800.00
00485             100.00    -1400.00
00486             100.00    -1400.00
00487              80.00    -1200.00
00488              60.00     -800.00
00489              80.00     -800.00
00490              80.00     -600.00
00491              60.00     -400.00
00492              60.00     -400.00
00493              80.00     -200.00
00494              60.00        0.00
00495              60.00      400.00
00496             120.00      400.00
00497             160.00      600.00
00498             160.00     1000.00
00499             140.00     1000.00
00500             100.00     1000.00
00501             100.00     1400.00
00502             100.00     1400.00
00503             400.00     1800.00
00504             980.00     2000.00
00505             620.00     2000.00
00506            -420.00     2000.00
00507            -980.00     2200.00
00508           -1080.00     2600.00
00509             -40.00     3000.00
00510             800.00     3000.00
00511            -260.00     3000.00
00512            -100.00     3400.00
00513             340.00     3200.00
00514            -320.00     3800.00
00515             -20.00     3800.00
00516              20.00     3600.00
00517              20.00     4600.00
00518             240.00     3800.00
00519            -260.00     4400.00
00520             -80.00     5000.00
00521            -100.00     4400.00
00522            -160.00     5200.00
00523             100.00     5200.00
00524            -140.00     5200.00
00525             -20.00     5800.00
00526            -100.00     5400.00
00527            -140.00     5800.00
00528               0.00     6000.00
00529            -160.00     6200.00
00530             -80.00     6200.00
00531            -100.00     6200.00
00532             -80.00     6600.00
00533            -180.00     6400.00
00534            -180.00     6800.00
00535             -60.00     7000.00
00536            -100.00     7000.00
00537            -140.00     7400.00
00538            -160.00     7000.00
00539            -160.00     7600.00
00540            -180.00     7600.00
00541            -100.00     7600.00
00542            -160.00     7800.00
00543            -200.00     7800.00
00544            -160.00     8200.00
00545            -220.00     8200.00
00546            -160.00     8200.00
00547            -160.00     8400.00
00548            -180.00     8400.00
00549            -240.00     8400.00
00550            -180.00     8600.00
00551            -220.00     8600.00
00552            -220.00     8600.00
00553            -180.00     9000.00
00554            -240.00     9000.00
00555            -240.00     9000.00
00556            -240.00     9200.00
00557            -180.00     9200.00
00558            -220.00     9400.00
00559            -220.00     9400.00
00560            -240.00     9400.00
00561            -260.00     9600.00
00562            -240.00     9400.00
00563            -240.00     9800.00
00564            -260.00     9800.00
00565            -240.00     9800.00
00566            -220.00     9800.00
00567            -240.00     9800.00
00568            -260.00     9800.00
00569            -260.00     9800.00
00570            -260.00    10000.00
00571            -240.00     9800.00
00572            -240.00    10000.00
00573            -260.00     9800.00
00574            -260.00    10000.00
00575            -260.00    10000.00
00576            -260.00    10000.00
00577            -260.00     9800.00
00578            -260.00    10000.00
00579            -260.00    10000.00
00580            -260.00    10000.00
00581            -260.00    10000.00
00582            -280.00     9800.00
00583            -260.00     9800.00
00584            -260.00     9800.00
00585            -240.00     9800.00
00586            -260.00     9800.00
00587            -260.00     9800.00
00588            -260.00     9800.00
00589            -260.00     9800.00
00590            -260.00     9800.00
00591            -260.00     9600.00
00592            -260.00     9600.00
00593            -240.00     9600.00
00594            -260.00     9400.00
00595            -260.00     9400.00
00596            -260.00     9400.00
00597            -260.00     9200.00
00598            -260.00     9200.00
00599            -260.00     9200.00
00600            -260.00     9000.00
00601            -260.00     9000.00
00602            -260.00     8800.00
00603            -260.00     8800.00
00604            -260.00     8600.00
00605            -260.00     8600.00
00606            -260.00     8400.00
00607            -260.00     8400.00
00608            -260.00     8200.00
00609            -260.00     8200.00
00610            -260.00     8000.00
00611            -260.00     8000.00
00612            -240.00     7800.00
00613            -260.00     7800.00
00614            -260.00     7600.00
00615            -260.00     7400.00
00616            -240.00     7400.00
00617            -240.00     7000.00
00618            -240.00     7200.00
00619            -240.00     6800.00
00620            -240.00     6800.00
00621            -240.00     6600.00
00622            -220.00     6600.00
00623            -220.00     6400.00
00624            -220.00     6200.00
00625            -220.00     6200.00
00626            -220.00     6000.00
00627            -180.00     5800.00
00628            -200.00     5800.00
00629            -220.00     5400.00
00630            -180.00     5600.00
00631            -160.00     5400.00
00632            -160.00     5200.00
00633            -180.00     5000.00
00634            -180.00     5000.00
00635            -180.00     4600.00
00636            -160.00     4400.00
00637            -160.00     4400.00
00638            -160.00     4000.00
00639            -160.00     3800.00
00640            -160.00     3800.00
00641            -160.00     3600.00
00642            -140.00     3400.00
00643            -160.00     3400.00
00644            -120.00     3000.00
00645            -100.00     2800.00
00646            -120.00     2800.00
00647            -100.00     2600.00
00648            -140.00     2200.00
00649            -100.00     2200.00
00650            -100.00     2000.00
00651            -100.00     1800.00
00652            -100.00     1800.00
00653             -80.00     1400.00
00654             -80.00     1400.00
00655            -100.00     1200.00
00656             -60.00     1000.00
00657             -80.00      600.00
00658             -80.00      600.00
00659             -60.00      400.00
00660             -60.00      200.00
00661             -60.00      200.00
00662             -40.00     -200.00
00663               0.00     -400.00
00664              60.00     -400.00
00665              80.00     -600.00
00666              40.00     -800.00
00667              20.00    -1000.00
00668              20.00    -1200.00
00669              20.00    -1400.00
00670             100.00    -1400.00
00671             460.00    -1800.00
00672             860.00    -2000.00
00673             380.00    -2400.00
00674            -420.00    -2400.00
00675            -720.00    -2600.00
00676            -740.00    -2600.00
00677            -280.00    -2400.00
00678             560.00    -3200.00
00679              40.00    -3200.00
00680             -20.00    -3000.00
00681             340.00    -4200.00
00682               0.00    -3400.00
00683             160.00    -3600.00
00684              80.00    -4200.00
00685              60.00    -4200.00
00686             380.00    -4600.00
00687              20.00    -4600.00
00688             -60.00    -4800.00
00689              80.00    -5000.00
00690               0.00    -5000.00
00691             160.00    -5400.00
00692             160.00    -5200.00
00693              80.00    -5600.00
00694              60.00    -5800.00
00695             180.00    -5400.00
00696             180.00    -6000.00
00697              60.00    -6000.00
00698             220.00    -6200.00
00699             160.00    -6400.00
00700              80.00    -6600.00
00701             160.00    -6800.00
00702             100.00    -6800.00
00703             140.00    -7000.00
00704             220.00    -7000.00
00705             220.00    -7400.00
00706             180.00    -7400.00
00707             240.00    -7600.00
00708             220.00    -7600.00
00709             160.00    -7600.00
00710             140.00    -7800.00
00711             120.00    -7800.00
00712              80.00    -8000.00
00713             140.00    -8200.00
00714             220.00    -8400.00
00715             240.00    -8400.00
00716             300.00    -8400.00
00717             320.00    -8600.00
00718             260.00    -8600.00
00719             220.00    -8600.00
00720             180.00    -9000.00
00721             160.00    -9000.00
00722             140.00    -9000.00
00723             180.00    -9200.00
00724             240.00    -9200.00
00725             300.00    -9200.00
00726             320.00    -9200.00
00727             300.00    -9400.00
00728             240.00    -9400.00
00729             220.00    -9400.00
00730             180.00    -9400.00
00731             220.00    -9400.00
00732             240.00    -9600.00
00733             260.00    -9600.00
00734             260.00    -9800.00
00735             300.00    -9800.00
00736             300.00    -9800.00
00737             240.00    -9800.00
00738             240.00    -9800.00
00739             260.00    -9800.00
00740             240.00    -9800.00
00741             260.00    -9800.00
00742             260.00   -10000.00
00743             240.00    -9800.00
00744             260.00    -9800.00
00745             240.00    -9800.00
00746             300.00   -10000.00
00747             300.00   -10000.00
00748             300.00   -10000.00
00749             260.00    -9800.00
00750             260.00    -9800.00
00751             240.00    -9800.00
00752             240.00    -9800.00
00753             260.00    -9800.00
00754             300.00    -9800.00
00755             260.00    -9800.00
00756             280.00    -9800.00
00757             260.00    -9600.00
00758             280.00    -9600.00
00759             260.00    -9400.00
00760             300.00    -9400.00
00761             260.00    -9400.00
00762             260.00    -9400.00
00763             260.00    -9200.00
00764             300.00    -9200.00
00765             300.00    -9200.00
00766             300.00    -9200.00
00767             300.00    -9000.00
00768             260.00    -9000.00
00769             240.00    -8800.00
00770             240.00    -8800.00
00771             260.00    -8600.00
00772             300.00    -8600.00
00773             300.00    -8400.00
00774             260.00    -8400.00
00775             260.00    -8400.00
00776             240.00    -8200.00
00777             240.00    -8200.00
00778             240.00    -8200.00
00779             240.00    -7800.00
00780             260.00    -7800.00
00781             260.00    -7600.00
00782             240.00    -7600.00
00783             240.00    -7200.00
00784             220.00    -7200.00
00785             220.00    -7200.00
00786             240.00    -7000.00
00787             240.00    -7000.00
00788             220.00    -6800.00
00789             220.00    -6600.00
00790             220.00    -6400.00
00791             220.00    -6400.00
00792             220.00    -6200.00
00793             220.00    -6000.00
00794             220.00    -6000.00
00795             200.00    -5800.00
00796             180.00    -5600.00
00797             180.00    -5400.00
00798             180.00    -5400.00
00799             180.00    -5200.00
00800             180.00    -5000.00
00801             160.00    -4800.00
00802             160.00    -4600.00
00803             160.00    -4600.00
00804             160.00    -4400.00
00805             160.00    -4200.00
00806             160.00    -4000.00
00807             160.00    -3800.00
00808             160.00    -3600.00
00809             140.00    -3600.00
00810             140.00    -3400.00
00811             140.00    -3200.00
00812             160.00    -3000.00
00813             140.00    -2800.00
00814             140.00    -2600.00
00815             100.00    -2400.00
00816             100.00    -2200.00
00817             100.00    -2200.00
00818             100.00    -1800.00
00819             100.00    -1800.00
00820             100.00    -1400.00
00821             100.00    -1200.00
00822              80.00    -1200.00
00823              80.00     -800.00
00824              60.00     -600.00
00825              60.00     -600.00
00826              80.00     -400.00
00827              80.00     -200.00
00828              60.00        0.00
00829              60.00      200.00
00830              80.00      400.00
00831             160.00      400.00
00832             160.00      600.00
00833             140.00     1000.00
00834             100.00     1000.00
00835             100.00     1200.00
00836             120.00     1200.00
00837             180.00     1400.00
00838             760.00     2000.00
00839             960.00     2000.00
00840              80.00     2200.00
00841            -820.00     2200.00
00842           -1100.00     2200.00
00843            -720.00     2800.00
00844             660.00     3000.00
00845             300.00     2800.00
00846            -420.00     3400.00
00847             320.00     3200.00
00848               0.00     3600.00
00849            -300.00     4200.00
00850             100.00     3600.00
00851             -80.00     4400.00
00852             220.00     4400.00
00853             -20.00     4000.00
00854            -260.00     5200.00
00855              20.00     4600.00
00856            -240.00     4600.00
00857              20.00     5400.00
00858               0.00     4800.00
00859            -140.00     5600.00
00860               0.00     5400.00
00861            -180.00     5600.00
00862             -40.00     6000.00
00863            -100.00     5800.00
00864            -140.00     6200.00
00865            -100.00     6000.00
00866            -100.00     6600.00
00867            -100.00     6600.00
00868            -260.00     6600.00
00869            -100.00     7000.00
00870             -80.00     6800.00
00871            -140.00     7200.00
00872            -140.00     7200.00
00873            -140.00     7400.00
00874            -180.00     7400.00
00875            -160.00     7600.00
00876            -120.00     7800.00
00877            -220.00     7800.00
00878            -160.00     8000.00
00879            -220.00     8200.00
00880            -180.00     8200.00
00881            -160.00     8400.00
00882            -160.00     8400.00
00883            -220.00     8400.00
00884            -240.00     8600.00
00885            -180.00     8600.00
00886            -240.00     8600.00
00887            -180.00     8800.00
00888            -220.00     9000.00
00889            -240.00     9000.00
00890            -240.00     9200.00
00891            -180.00     9200.00
00892            -200.00     9200.00
00893            -240.00     9200.00
00894            -220.00     9400.00
00895            -240.00     9600.00
00896            -240.00     9400.00
00897            -260.00     9600.00
00898            -240.00     9600.00
00899            -260.00     9800.00
00900            -220.00     9800.00
00901            -240.00     9800.00
00902            -240.00     9800.00
00903            -260.00     9800.00
00904            -260.00     9800.00
00905            -240.00    10000.00
00906            -240.00    10000.00
00907            -260.00    10000.00
00908            -260.00    10000.00
00909            -240.00    10000.00
00910            -260.00     9800.00
00911            -260.00    10000.00
00912            -260.00    10000.00
00913            -260.00    10000.00
00914            -260.00     9800.00
00915            -260.00     9800.00
00916            -260.00    10000.00
00917            -300.00     9800.00
00918            -260.00     9800.00
00919            -260.00     9800.00
00920            -260.00    10000.00
00921            -260.00     9800.00
00922            -260.00     9800.00
00923            -260.00     9800.00
00924            -280.00     9600.00
00925            -260.00     9800.00
00926            -260.00     9600.00
00927            -260.00     9400.00
00928            -260.00     9400.00
00929            -260.00     9400.00
00930            -300.00     9400.00
00931            -260.00     9200.00
00932            -260.00     9400.00
00933            -260.00     9200.00
00934            -260.00     9200.00
00935            -260.00     9000.00
00936            -300.00     8800.00
00937            -260.00     8800.00
00938            -260.00     8600.00
00939            -260.00     8600.00
00940            -260.00     8600.00
00941            -260.00     8400.00
00942            -260.00     8400.00
00943            -260.00     8200.00
00944            -260.00     8200.00
00945            -260.00     8000.00
00946            -240.00     7800.00
00947            -240.00     7800.00
00948            -260.00     7800.00
00949            -260.00     7400.00
00950            -260.00     7400.00
00951            -240.00     7400.00
00952            -240.00     7000.00
00953            -240.00     7000.00
00954            -240.00     6800.00
00955            -240.00     6800.00
00956            -240.00     6600.00
00957            -220.00     6600.00
00958            -180.00     6200.00
00959            -220.00     6200.00
00960            -180.00     6000.00
00961            -220.00     6000.00
00962            -220.00     5800.00
00963            -220.00     5800.00
00964            -220.00     5400.00
00965            -180.00     5400.00
00966            -180.00     5200.00
00967            -180.00     5000.00
00968            -180.00     5000.00
00969            -180.00     4600.00
00970            -180.00     4600.00
00971            -160.00     4400.00
00972            -160.00     4200.00
00973            -160.00     4200.00
00974            -160.00     3800.00
00975            -140.00     3600.00
00976            -160.00     3400.00
00977            -160.00     3400.00
00978            -140.00     3200.00
00979            -140.00     3000.00
00980            -100.00     2800.00
00981            -120.00     2600.00
00982            -100.00     2600.00
00983            -140.00     2200.00
00984            -100.00     2000.00
00985            -100.00     1800.00
00986            -100.00     1800.00
00987            -100.00     1400.00
00988            -100.00     1400.00
00989             -80.00     1200.00
00990            -100.00     1000.00
00991            -100.00      800.00
00992             -80.00      600.00
00993             -80.00      400.00
00994             -80.00      200.00
00995             -80.00      200.00
00996             -60.00     -200.00
00997             -20.00     -200.00
00998              40.00     -400.00
00999              80.00     -600.00
01000              60.00     -800.00
01001              40.00    -1000.00
01002              20.00    -1200.00
01003              20.00    -1200.00
01004              60.00    -1400.00
01005             240.00    -1600.00
01006             720.00    -2000.00
01007             700.00    -2200.00
01008             -80.00    -2200.00
01009            -640.00    -2600.00
01010            -740.00    -2600.00
01011            -660.00    -2600.00
01012             260.00    -2800.00
01013             420.00    -3400.00
01014            -180.00    -3000.00
01015             240.00    -3600.00
01016             160.00    -3800.00
01017               0.00    -3400.00
01018             220.00    -4200.00
01019             -40.00    -4200.00
01020             260.00    -4200.00
01021             240.00    -4600.00
01022            -100.00    -4600.00
01023              80.00    -4800.00
01024              20.00    -4800.00
01025              80.00    -5200.00
01026             180.00    -5400.00
01027             140.00    -5200.00
01028              80.00    -5800.00
01029             100.00    -5600.00
01030             240.00    -6000.00
01031              80.00    -6000.00
01032             120.00    -6000.00
01033             220.00    -6200.00
01034              80.00    -6400.00
01035             160.00    -6600.00
01036             140.00    -6600.00
01037             100.00    -7000.00
01038             200.00    -7000.00
01039             220.00    -7000.00
01040             160.00    -7200.00
01041             160.00    -7400.00
01042             220.00    -7600.00
01043             180.00    -7600.00
01044             180.00    -7800.00
01045             180.00    -8000.00
01046             180.00    -8000.00
01047             180.00    -8200.00
01048             240.00    -8200.00
01049             220.00    -8400.00
01050             180.00    -8600.00
01051             240.00    -8400.00
01052             220.00    -8600.00
01053             180.00    -8600.00
01054             220.00    -8800.00
01055             220.00    -9000.00
01056             220.00    -9000.00
01057             220.00    -9000.00
01058             220.00    -9000.00
01059             220.00    -9200.00
01060             240.00    -9200.00
01061             260.00    -9200.00
01062             220.00    -9400.00
01063             240.00    -9400.00
01064             240.00    -9400.00
01065             220.00    -9400.00
01066             240.00    -9600.00
01067             240.00    -9800.00
01068             260.00    -9600.00
01069             240.00    -9800.00
01070             260.00    -9800.00
01071             240.00    -9800.00
01072             240.00    -9800.00
01073             260.00    -9800.00
01074             260.00    -9800.00
01075             260.00   -10000.00
01076             260.00    -9800.00
01077             240.00    -9800.00
01078             240.00   -10000.00
01079             260.00    -9800.00
01080             260.00    -9800.00
01081             300.00   -10000.00
01082             260.00    -9800.00
01083             260.00    -9800.00
01084             260.00    -9800.00
01085             240.00    -9800.00
01086             300.00    -9800.00
01087             260.00    -9800.00
01088             300.00    -9800.00
01089             260.00    -9800.00
01090             260.00    -9800.00
01091             260.00    -9600.00
01092             300.00    -9600.00
01093             280.00    -9400.00
01094             300.00    -9400.00
01095             300.00    -9400.00
01096             300.00    -9400.00
01097             260.00    -9400.00
01098             260.00    -9200.00
01099             260.00    -9200.00
01100             300.00    -9000.00
01101             300.00    -9000.00
01102             300.00    -9000.00
01103             260.00    -8800.00
01104             260.00    -8800.00
01105             260.00    -8600.00
01106             260.00    -8600.00
01107             300.00    -8600.00
01108             260.00    -8400.00
01109             260.00    -8400.00
01110             260.00    -8400.00
01111             240.00    -8200.00
01112             260.00    -8200.00
01113             240.00    -7800.00
01114             240.00    -7800.00
01115             240.00    -7600.00
01116             240.00    -7600.00
01117             240.00    -7200.00
01118             240.00    -7400.00
01119             220.00    -7200.00
01120             240.00    -7000.00
01121             220.00    -7000.00
01122             240.00    -6800.00
01123             220.00    -6600.00
01124             220.00    -6600.00
01125             220.00    -6400.00
01126             220.00    -6200.00
01127             220.00    -6200.00
01128             220.00    -6000.00
01129             220.00    -5800.00
01130             200.00    -5800.00
01131             200.00    -5600.00
01132             180.00    -5400.00
01133             180.00    -5200.00
01134             180.00    -5000.00
01135             180.00    -4800.00
01136             160.00    -4600.00
01137             160.00    -4600.00
01138             160.00    -4400.00
01139             160.00    -4400.00
01140             180.00    -4000.00
01141             160.00    -3800.00
01142             160.00    -3600.00
01143             140.00    -3600.00
01144             140.00    -3400.00
01145             140.00    -3200.00
01146             140.00    -3000.00
01147             140.00    -2800.00
01148             140.00    -2600.00
01149             140.00    -2400.00
01150             120.00    -2200.00
01151             100.00    -2000.00
01152             100.00    -2000.00
01153             100.00    -1800.00
01154             100.00    -1400.00
01155             100.00    -1400.00
01156              80.00    -1000.00
01157              80.00    -1000.00
01158              80.00     -800.00
01159              80.00     -600.00
01160              80.00     -400.00
01161              80.00     -200.00
01162              60.00        0.00
01163              80.00      200.00
01164              80.00      400.00
01165             100.00      400.00
01166             160.00      800.00
01167             160.00      800.00
01168             120.00     1000.00
01169             100.00     1200.00
01170             100.00     1400.00
01171             140.00     1400.00
01172             420.00     1800.00
01173            1000.00     2000.00
01174             580.00     2200.00
01175            -480.00     2200.00
01176            -980.00     2000.00
01177           -1060.00     2600.00
01178              40.00     3000.00
01179             780.00     3000.00
01180            -320.00     3000.00
01181             -60.00     3400.00
01182             320.00     3200.00
01183            -340.00     4000.00
01184               0.00     3800.00
01185               0.00     3800.00
01186               0.00     4600.00
01187             220.00     3800.00
01188            -260.00     4600.00
01189             -60.00     5200.00
01190            -100.00     4400.00
01191            -180.00     5400.00
01192              80.00     5000.00
01193            -160.00     5200.00
01194             -20.00     5800.00
01195            -100.00     5400.00
01196            -140.00     6000.00
01197             -20.00     5800.00
01198            -160.00     6200.00
01199             -80.00     6200.00
01200            -140.00     6200.00
01201             -80.00     6800.00
01202            -180.00     6600.00
01203            -180.00     6800.00
01204             -60.00     6800.00
01205            -140.00     6800.00
01206            -140.00     7400.00
01207            -160.00     7200.00
01208            -160.00     7600.00
01209            -220.00     7400.00
01210            -120.00     7800.00
01211            -160.00     7800.00
01212            -180.00     7800.00
01213            -160.00     8200.00
01214            -200.00     8200.00
01215            -160.00     8200.00
01216            -160.00     8200.00
01217            -180.00     8600.00
01218            -240.00     8400.00
01219            -220.00     8600.00
01220            -220.00     8600.00
01221            -220.00     8800.00
01222            -180.00     9000.00
01223            -240.00     9000.00
01224            -260.00     9200.00
01225            -220.00     9200.00
01226            -180.00     9200.00
01227            -240.00     9200.00
01228            -220.00     9400.00
01229            -220.00     9600.00
01230            -260.00     9400.00
01231            -240.00     9600.00
01232            -240.00     9800.00
01233            -240.00     9400.00
01234            -240.00     9800.00
01235            -240.00     9800.00
01236            -240.00     9800.00
01237            -260.00     9800.00
01238            -260.00     9800.00
01239            -260.00     9800.00
01240            -240.00    10000.00
01241            -240.00     9800.00
01242            -260.00    10000.00
01243            -260.00     9800.00
01244            -260.00    10000.00
01245            -260.00    10000.00
01246            -260.00    10000.00
01247            -260.00    10000.00
01248            -260.00    10000.00
01249            -260.00    10000.00
01250            -260.00     9800.00
01251            -300.00     9800.00
01252            -300.00     9800.00
01253            -260.00     9800.00
01254            -260.00    10000.00
01255            -260.00     9800.00
01256            -260.00     9800.00
01257            -260.00     9800.00
01258            -280.00     9600.00
01259            -280.00     9600.00
01260            -260.00     9600.00
01261            -280.00     9600.00
01262            -260.00     9400.00
01263            -260.00     9400.00
01264            -300.00     9400.00
01265            -280.00     9200.00
01266            -260.00     9200.00
01267            -260.00     9200.00
01268            -260.00     9000.00
01269            -260.00     9000.00
01270            -260.00     8800.00
01271            -260.00     8800.00
01272            -260.00     8800.00
01273            -240.00     8600.00
01274            -260.00     8600.00
01275            -260.00     8400.00
01276            -260.00     8400.00
01277            -260.00     8200.00
01278            -260.00     8200.00
01279            -260.00     8200.00
01280            -240.00     8000.00
01281            -240.00     7800.00
01282            -240.00     7800.00
01283            -240.00     7600.00
01284            -240.00     7400.00
01285            -260.00     7400.00
01286            -240.00     7200.00
01287            -240.00     7000.00
01288            -240.00     7000.00
01289            -240.00     6800.00
01290            -240.00     6800.00
01291            -220.00     6600.00
01292            -220.00     6600.00
01293            -220.00     6200.00
01294            -220.00     6200.00
01295            -180.00     6000.00
01296            -200.00     5800.00
01297            -220.00     5800.00
01298            -220.00     5600.00
01299            -200.00     5400.00
01300            -180.00     5400.00
01301            -180.00     5000.00
01302            -180.00     5000.00
01303            -180.00     4800.00
01304            -160.00     4600.00
01305            -180.00     4400.00
01306            -160.00     4200.00
01307            -160.00     4200.00
01308            -160.00     4000.00
01309            -160.00     3800.00
01310            -140.00     3600.00
01311            -140.00     3400.00
01312            -140.00     3400.00
01313            -140.00     3000.00
01314            -140.00     3000.00
01315            -140.00     2600.00
01316            -120.00     2400.00
01317            -140.00     2200.00
01318            -140.00     2200.00
01319            -140.00     2000.00
01320            -100.00     1800.00
01321            -100.00     1600.00
01322            -100.00     1400.00
01323            -100.00     1200.00
01324            -100.00     1000.00
01325             -80.00     1000.00
01326             -80.00      600.00
01327             -80.00      600.00
01328             -60.00      400.00
01329             -60.00      200.00
01330             -60.00      200.00
01331             -20.00     -400.00
01332               0.00     -400.00
01333              60.00     -600.00
01334              60.00     -800.00
01335              60.00     -800.00
01336              20.00    -1000.00
01337              20.00    -1200.00
01338              20.00    -1400.00
01339             120.00    -1400.00
01340             480.00    -1800.00
01341             860.00    -2200.00
01342             320.00    -2200.00
01343            -440.00    -2400.00
01344            -720.00    -2600.00
01345            -740.00    -2600.00
01346            -240.00    -2400.00
01347             580.00    -3200.00
01348               0.00    -3000.00
01349             -20.00    -3200.00
01350             320.00    -4000.00
01351             -20.00    -3400.00
01352             160.00    -4000.00
01353              80.00    -4400.00
01354              60.00    -4000.00
01355             380.00    -4600.00
01356              20.00    -4600.00
01357             -20.00    -5000.00
01358              80.00    -4800.00
01359              20.00    -5000.00
01360             180.00    -5400.00
01361             160.00    -5000.00
01362             100.00    -5400.00
01363              60.00    -5800.00
01364             220.00    -5800.00
01365             180.00    -6200.00
01366              60.00    -6000.00
01367             220.00    -6200.00
01368             140.00    -6400.00
01369             140.00    -6600.00
01370             160.00    -6600.00
01371             100.00    -6600.00
01372             140.00    -7000.00
01373             240.00    -7000.00
01374             180.00    -7000.00
01375             140.00    -7400.00
01376             220.00    -7400.00
01377             200.00    -7600.00
01378             160.00    -7600.00
01379             180.00    -7800.00
01380             180.00    -8000.00
01381             160.00    -8200.00
01382             220.00    -8200.00
01383             220.00    -8200.00
01384             180.00    -8400.00
01385             220.00    -8600.00
01386             220.00    -8400.00
01387             180.00    -8600.00
01388             220.00    -8800.00
01389             220.00    -8800.00
01390             220.00    -9000.00
01391             220.00    -9000.00
01392             220.00    -9000.00
01393             220.00    -9200.00
01394             240.00    -9400.00
01395             260.00    -9200.00
01396             240.00    -9400.00
01397             240.00    -9400.00
01398             240.00    -9400.00
01399             220.00    -9400.00
01400             240.00    -9600.00
01401             240.00    -9600.00
01402             260.00    -9800.00
01403             240.00    -9600.00
01404             260.00    -9800.00
01405             240.00    -9800.00
01406             240.00    -9800.00
01407             260.00    -9800.00
01408             260.00    -9800.00
01409             260.00    -9800.00
01410             260.00    -9800.00
01411             260.00    -9800.00
01412             260.00    -9800.00
01413             260.00   -10000.00
01414             260.00    -9800.00
01415             260.00    -9800.00
01416             300.00    -9800.00
01417             260.00   -10000.00
01418             260.00    -9800.00
01419             260.00    -9800.00
01420             280.00    -9800.00
01421             260.00    -9800.00
01422             300.00    -9800.00
01423             300.00    -9600.00
01424             280.00    -9600.00
01425             280.00    -9600.00
01426             260.00    -9400.00
01427             300.00    -9600.00
01428             300.00    -9400.00
01429             300.00    -9400.00
01430             300.00    -9400.00
01431             280.00    -9400.00
01432             260.00    -9200.00
01433             260.00    -9400.00
01434             280.00    -9000.00
01435             300.00    -9000.00
01436             300.00    -9000.00
01437             260.00    -8800.00
01438             260.00    -9000.00
01439             260.00    -8800.00
01440             240.00    -8600.00
01441             260.00    -8600.00
01442             260.00    -8600.00
01443             260.00    -8400.00
01444             260.00    -8200.00
01445             240.00    -8200.00
01446             240.00    -8000.00
01447             240.00    -8000.00
01448             240.00    -7800.00
01449             240.00    -7800.00
01450             240.00    -7600.00
01451             240.00    -7400.00
01452             220.00    -7200.00
01453             220.00    -7200.00
01454             220.00    -7000.00
01455             240.00    -7000.00
01456             240.00    -7000.00
01457             220.00    -6600.00
01458             220.00    -6600.00
01459             220.00    -6600.00
01460             200.00    -6200.00
01461             220.00    -6200.00
01462             220.00    -6000.00
01463             220.00    -6200.00
01464             200.00    -5800.00
01465             200.00    -5600.00
01466             180.00    -5400.00
01467             180.00    -5200.00
01468             220.00    -5400.00
01469             180.00    -5000.00
01470             180.00    -4800.00
01471             160.00    -4600.00
01472             160.00    -4400.00
01473             160.00    -4200.00
01474             160.00    -4200.00
01475             160.00    -4000.00
01476             160.00    -3800.00
01477             160.00    -3600.00
01478             140.00    -3400.00
01479             140.00    -3000.00
01480             140.00    -3000.00
01481             140.00    -3000.00
01482             140.00    -2800.00
01483             140.00    -2600.00
01484             140.00    -2400.00
01485             120.00    -2200.00
01486             100.00    -2000.00
01487             100.00    -1800.00
01488             120.00    -1600.00
01489             100.00    -1400.00
01490             100.00    -1400.00
01491             100.00    -1000.00
01492              80.00     -800.00
01493              80.00     -600.00
01494              80.00     -600.00
01495              80.00     -200.00
01496              80.00     -200.00
01497              80.00      200.00
01498              60.00      200.00
01499             100.00      400.00
01500             160.00      600.00
01501             160.00      600.00
01502             140.00     1000.00
01503             100.00     1000.00
01504              80.00     1200.00
01505             100.00     1400.00
01506             220.00     1800.00
01507             780.00     1800.00
01508             940.00     2000.00
01509              20.00     2200.00
01510            -820.00     2200.00
01511           -1100.00     2200.00
01512            -660.00     2800.00
01513             700.00     3000.00
01514             240.00     2800.00
01515            -420.00     3400.00
01516             320.00     3200.00
01517             -80.00     3600.00
01518            -260.00     4200.00
01519             100.00     3600.00
01520             -80.00     4200.00
01521             240.00     4200.00
01522             -60.00     4000.00
01523            -260.00     5000.00
01524               0.00     4600.00
01525            -260.00     4600.00
01526              40.00     5200.00
01527             -20.00     5000.00
01528            -100.00     5600.00
01529               0.00     5400.00
01530            -200.00     5800.00
01531             -20.00     6000.00
01532            -100.00     5800.00
01533            -140.00     6200.00
01534            -100.00     6000.00
01535            -100.00     6600.00
01536            -100.00     6600.00
01537            -240.00     6600.00
01538            -100.00     7000.00
01539             -80.00     6800.00
01540            -100.00     7200.00
01541            -140.00     7400.00
01542            -160.00     7400.00
01543            -180.00     7600.00
01544            -160.00     7600.00
01545            -100.00     7800.00
01546            -220.00     7800.00
01547            -160.00     8200.00
01548            -200.00     8200.00
01549            -180.00     8200.00
01550            -160.00     8400.00
01551            -160.00     8600.00
01552            -220.00     8600.00
01553            -240.00     8600.00
01554            -200.00     8600.00
01555            -220.00     8800.00
01556            -180.00     9000.00
01557            -200.00     9000.00
01558            -240.00     9000.00
01559            -240.00     9200.00
01560            -220.00     9200.00
01561            -220.00     9400.00
01562            -220.00     9200.00
01563            -180.00     9400.00
01564            -240.00     9400.00
01565            -240.00     9400.00
01566            -260.00     9800.00
01567            -260.00     9600.00
01568            -240.00     9600.00
01569            -240.00     9800.00
01570            -240.00     9800.00
01571            -260.00     9800.00
01572            -260.00     9800.00
01573            -240.00    10000.00
01574            -240.00    10000.00
01575            -240.00     9800.00
01576            -260.00     9800.00
01577            -260.00    10000.00
01578            -260.00     9800.00
01579            -260.00    10000.00
01580            -260.00    10000.00
01581            -260.00    10000.00
01582            -260.00    10000.00
01583            -260.00     9800.00
01584            -260.00     9800.00
01585            -260.00     9800.00
01586            -300.00     9800.00
01587            -260.00    10000.00
01588            -260.00     9800.00
01589            -260.00     9800.00
01590            -300.00     9800.00
01591            -260.00     9800.00
01592            -280.00     9600.00
01593            -260.00     9800.00
01594            -260.00     9600.00
01595            -260.00     9600.00
01596            -260.00     9600.00
01597            -260.00     9400.00
01598            -260.00     9400.00
01599            -300.00     9400.00
01600            -260.00     9400.00
01601            -260.00     9200.00
01602            -260.00     9200.00
01603            -260.00     9000.00
01604            -260.00     9000.00
01605            -260.00     8800.00
01606            -260.00     8800.00
01607            -240.00     8800.00
01608            -260.00     8600.00
01609            -260.00     8600.00
01610            -260.00     8400.00
01611            -260.00     8200.00
01612            -260.00     8200.00
01613            -260.00     8200.00
01614            -260.00     8000.00
01615            -240.00     7800.00
01616            -240.00     7800.00
01617            -240.00     7800.00
01618            -240.00     7600.00
01619            -260.00     7400.00
01620            -240.00     7400.00
01621            -220.00     7200.00
01622            -220.00     7000.00
01623            -220.00     7000.00
01624            -240.00     6800.00
01625            -220.00     6600.00
01626            -220.00     6600.00
01627            -220.00     6600.00
01628            -220.00     6200.00
01629            -200.00     6000.00
01630            -220.00     6000.00
01631            -180.00     5800.00
01632            -220.00     5800.00
01633            -220.00     5400.00
01634            -180.00     5600.00
01635            -160.00     5200.00
01636            -160.00     5000.00
01637            -180.00     5000.00
01638            -160.00     4600.00
01639            -180.00     4600.00
01640            -160.00     4400.00
01641            -160.00     4200.00
01642            -160.00     4200.00
01643            -160.00     3800.00
01644            -160.00     3800.00
01645            -160.00     3600.00
01646            -160.00     3400.00
01647            -140.00     3200.00
01648            -140.00     3000.00
01649            -140.00     2800.00
01650            -140.00     2800.00
01651            -140.00     2200.00
01652            -140.00     2200.00
01653            -100.00     2000.00
01654            -100.00     2000.00
01655            -100.00     1800.00
01656            -100.00     1400.00
01657            -100.00     1400.00
01658            -100.00     1200.00
01659             -80.00     1000.00
01660             -80.00     1000.00
01661             -80.00      600.00
01662             -80.00      400.00
01663             -60.00      400.00
01664             -60.00      200.00
01665             -60.00     -200.00
01666             -20.00     -400.00
01667              60.00     -400.00
01668              80.00     -600.00
01669              60.00     -600.00
01670              20.00     -800.00
01671              20.00    -1000.00
01672              40.00    -1200.00
01673              60.00    -1400.00
01674             260.00    -1400.00
01675             760.00    -2000.00
01676             660.00    -2200.00
01677            -100.00    -2400.00
01678            -660.00    -2600.00
01679            -740.00    -2600.00
01680            -600.00    -2600.00
01681             300.00    -2800.00
01682             400.00    -3400.00
01683            -160.00    -3000.00
01684             300.00    -3600.00
01685             160.00    -3600.00
01686               0.00    -3400.00
01687             220.00    -4200.00
01688             -20.00    -4200.00
01689             300.00    -4400.00
01690             240.00    -4400.00
01691            -100.00    -4600.00
01692              80.00    -4800.00
01693              20.00    -4800.00
01694              80.00    -5200.00
01695             180.00    -5200.00
01696             140.00    -5400.00
01697              60.00    -5800.00
01698             120.00    -5600.00
01699             240.00    -5800.00
01700              80.00    -6200.00
01701             140.00    -6200.00
01702             220.00    -6400.00
01703             100.00    -6200.00
01704             160.00    -6800.00
01705             140.00    -6600.00
01706             100.00    -6800.00
01707             180.00    -7200.00
01708             220.00    -7000.00
01709             140.00    -7400.00
01710             160.00    -7400.00
01711             220.00    -7400.00
01712             160.00    -7800.00
01713             180.00    -7800.00
01714             180.00    -7800.00
01715             160.00    -8000.00
01716             160.00    -8200.00
01717             220.00    -8200.00
01718             220.00    -8400.00
01719             200.00    -8400.00
01720             220.00    -8600.00
01721             180.00    -8600.00
01722             180.00    -8800.00
01723             220.00    -8800.00
01724             220.00    -9000.00
01725             220.00    -9000.00
01726             220.00    -9000.00
01727             220.00    -9000.00
01728             220.00    -9200.00
01729             260.00    -9200.00
01730             260.00    -9400.00
01731             240.00    -9200.00
01732             240.00    -9400.00
01733             240.00    -9400.00
01734             220.00    -9400.00
01735             260.00    -9600.00
01736             260.00    -9600.00
01737             240.00    -9600.00
01738             280.00    -9600.00
01739             240.00    -9800.00
01740             240.00    -9800.00
01741             260.00    -9800.00
01742             260.00    -9800.00
01743             260.00    -9800.00
01744             260.00    -9800.00
01745             260.00    -9800.00
01746             260.00    -9800.00
01747             260.00   -10000.00
01748             260.00    -9800.00
01749             300.00    -9800.00
01750             280.00    -9800.00
01751             300.00    -9800.00
01752             280.00    -9800.00
01753             260.00    -9800.00
01754             260.00    -9800.00
01755             300.00    -9800.00
01756             300.00    -9800.00
01757             300.00    -9800.00
01758             300.00    -9800.00
01759             260.00    -9600.00
01760             260.00    -9600.00
01761             280.00    -9400.00
01762             300.00    -9400.00
01763             300.00    -9400.00
01764             280.00    -9400.00
01765             300.00    -9400.00
01766             280.00    -9200.00
01767             260.00    -9200.00
01768             280.00    -9200.00
01769             280.00    -9200.00
01770             300.00    -9000.00
01771             260.00    -9000.00
01772             260.00    -8800.00
01773             240.00    -8800.00
01774             240.00    -8600.00
01775             260.00    -8600.00
01776             260.00    -8600.00
01777             260.00    -8600.00
01778             260.00    -8600.00
01779             240.00    -8200.00
01780             240.00    -8200.00
01781             240.00    -8200.00
01782             240.00    -8200.00
01783             240.00    -7800.00
01784             240.00    -7600.00
01785             240.00    -7600.00
01786             220.00    -7400.00
01787             220.00    -7200.00
01788             240.00    -7200.00
01789             240.00    -7000.00
01790             220.00    -7000.00
01791             220.00    -6800.00
01792             220.00    -6800.00
01793             220.00    -6600.00
01794             220.00    -6600.00
01795             220.00    -6200.00
01796             220.00    -6200.00
01797             220.00    -6000.00
01798             200.00    -5800.00
01799             180.00    -5800.00
01800             200.00    -5400.00
01801             180.00    -5400.00
01802             200.00    -5200.00
01803             180.00    -5000.00
01804             180.00    -5000.00
01805             160.00    -4600.00
01806             180.00    -4600.00
01807             160.00    -4400.00
01808             160.00    -4200.00
01809             160.00    -4000.00
01810             160.00    -3800.00
01811             160.00    -3600.00
01812             140.00    -3600.00
01813             140.00    -3400.00
01814             140.00    -3000.00
01815             140.00    -3000.00
01816             140.00    -2800.00
01817             140.00    -2600.00
01818             140.00    -2600.00
01819             140.00    -2200.00
01820             100.00    -2000.00
01821             100.00    -2000.00
01822             100.00    -1800.00
01823             120.00    -1600.00
01824             100.00    -1400.00
01825             100.00    -1000.00
01826              80.00     -800.00
01827              80.00     -800.00
01828              80.00     -600.00
01829              80.00     -400.00
01830              80.00     -200.00
01831              60.00        0.00
01832              80.00      200.00
01833              60.00      200.00
01834             100.00      600.00
01835             160.00      600.00
01836             140.00      800.00
01837             100.00     1000.00
01838             100.00     1000.00
01839              80.00     1200.00
01840             100.00     1400.00
01841             460.00     1800.00
01842            1000.00     2000.00
01843             540.00     2200.00
01844            -500.00     2200.00
01845           -1020.00     2200.00
01846           -1060.00     2400.00
01847             100.00     3000.00
01848             740.00     3000.00
01849            -360.00     3000.00
01850             -20.00     3200.00
01851             320.00     3200.00
01852            -340.00     3800.00
01853               0.00     3600.00
01854               0.00     3800.00
01855              40.00     4600.00
01856             220.00     3800.00
01857            -280.00     4400.00
01858             -60.00     5000.00
01859            -120.00     4200.00
01860            -140.00     5400.00
01861              80.00     5000.00
01862            -160.00     5200.00
01863             -20.00     5800.00
01864            -120.00     5400.00
01865            -100.00     5800.00
01866             -20.00     5800.00
01867            -160.00     6200.00
01868            -100.00     6200.00
01869            -100.00     6200.00
01870             -80.00     6800.00
01871            -220.00     6200.00
01872            -160.00     6800.00
01873             -60.00     7000.00
01874            -100.00     6800.00
01875            -100.00     7400.00
01876            -140.00     7400.00
01877            -160.00     7600.00
01878            -180.00     7400.00
01879            -100.00     7800.00
01880            -160.00     7800.00
01881            -180.00     7800.00
01882            -180.00     8000.00
01883            -220.00     8200.00
01884            -160.00     8400.00
01885            -160.00     8400.00
01886            -180.00     8400.00
01887            -240.00     8400.00
01888            -180.00     8600.00
01889            -200.00     8600.00
01890            -220.00     8600.00
01891            -180.00     9000.00
01892            -240.00     9000.00
01893            -240.00     9000.00
01894            -220.00     9200.00
01895            -180.00     9200.00
01896            -240.00     9200.00
01897            -220.00     9200.00
01898            -220.00     9400.00
01899            -260.00     9400.00
01900            -240.00     9400.00
01901            -260.00     9400.00
01902            -240.00     9600.00
01903            -240.00     9600.00
01904            -220.00     9800.00
01905            -260.00     9800.00
01906            -260.00     9800.00
01907            -280.00     9800.00
01908            -260.00     9800.00
01909            -240.00    10000.00
01910            -240.00     9800.00
01911            -260.00     9800.00
01912            -260.00     9800.00
01913            -260.00    10000.00
01914            -260.00    10000.00
01915            -260.00    10000.00
01916            -260.00    10000.00
01917            -260.00     9800.00
01918            -260.00    10000.00
01919            -260.00     9800.00
01920            -300.00     9800.00
01921            -300.00     9800.00
01922            -260.00     9800.00
01923            -260.00     9800.00
01924            -260.00     9800.00
01925            -260.00     9800.00
01926            -280.00     9800.00
01927            -300.00     9800.00
01928            -260.00     9800.00
01929            -260.00     9800.00
01930            -260.00     9600.00
01931            -260.00     9400.00
01932            -260.00     9400.00
01933            -280.00     9400.00
01934            -260.00     9400.00
01935            -260.00     9400.00
01936            -260.00     9200.00
01937            -260.00     9200.00
01938            -260.00     9200.00
01939            -260.00     9000.00
01940            -260.00     8800.00
01941            -260.00     8600.00
01942            -260.00     8600.00
01943            -240.00     8600.00
01944            -240.00     8400.00
01945            -260.00     8400.00
01946            -260.00     8200.00
01947            -240.00     8200.00
01948            -260.00     8200.00
01949            -240.00     8200.00
01950            -240.00     7800.00
01951            -240.00     7800.00
01952            -240.00     7600.00
01953            -260.00     7600.00
01954            -260.00     7400.00
01955            -220.00     7200.00
01956            -220.00     7000.00
01957            -240.00     7000.00
01958            -240.00     6800.00
01959            -240.00     6600.00
01960            -240.00     6600.00
01961            -220.00     6400.00
01962            -220.00     6200.00
01963            -220.00     6200.00
01964            -180.00     6000.00
01965            -220.00     6000.00
01966            -200.00     5800.00
01967            -220.00     5600.00
01968            -180.00     5400.00
01969            -180.00     5200.00
01970            -200.00     5200.00
01971            -180.00     5000.00
01972            -220.00     5000.00
01973            -180.00     4600.00
01974            -160.00     4400.00
01975            -180.00     4200.00
01976            -160.00     4200.00
01977            -160.00     3800.00
01978            -160.00     3800.00
01979            -160.00     3600.00
01980            -160.00     3400.00
01981            -160.00     3400.00
01982            -140.00     3000.00
01983            -140.00     3000.00
01984            -120.00     2800.00
01985            -140.00     2600.00
01986            -140.00     2400.00
01987            -140.00     2200.00
01988            -100.00     2000.00
01989            -100.00     1800.00
01990            -100.00     1800.00
01991            -100.00     1400.00
01992            -100.00     1200.00
01993            -100.00     1200.00
01994             -80.00      800.00
01995             -80.00      600.00
01996             -60.00      600.00
01997             -60.00      400.00
01998             -60.00      200.00
01999             -60.00      200.00
02000             -40.00     -200.00
02001              20.00     -400.00
02002              80.00     -600.00
02003              80.00     -600.00
02004              20.00     -800.00
02005              20.00    -1000.00
02006              40.00    -1200.00
02007              20.00    -1400.00
02008             140.00    -1400.00
02009             500.00    -1800.00
02010             860.00    -2200.00
02011             300.00    -2400.00
02012            -480.00    -2400.00
02013            -700.00    -2600.00
02014            -740.00    -2600.00
02015            -160.00    -2600.00
02016             580.00    -3000.00
02017               0.00    -3200.00
02018               0.00    -3200.00
02019             340.00    -4000.00
02020             -20.00    -3200.00
02021             180.00    -4000.00
02022              80.00    -4200.00
02023              80.00    -4000.00
02024             380.00    -4400.00
02025               0.00    -4400.00
02026             -20.00    -5000.00
02027              80.00    -4800.00
02028              20.00    -5000.00
02029             160.00    -5400.00
02030             160.00    -5200.00
02031              80.00    -5800.00
02032              60.00    -5800.00
02033             220.00    -5800.00
02034             160.00    -6200.00
02035              60.00    -6000.00
02036             220.00    -6200.00
02037             140.00    -6400.00
02038             120.00    -6600.00
02039             160.00    -6800.00
02040             100.00    -6600.00
02041             160.00    -7000.00
02042             220.00    -7000.00
02043             180.00    -7400.00
02044             140.00    -7200.00
02045             180.00    -7400.00
02046             220.00    -7600.00
02047             160.00    -7800.00
02048             180.00    -7800.00
02049             160.00    -7800.00
02050             160.00    -8200.00
02051             200.00    -8200.00
02052             220.00    -8400.00
02053             180.00    -8400.00
02054             220.00    -8600.00
02055             200.00    -8600.00
02056             220.00    -8600.00
02057             220.00    -8800.00
02058             240.00    -8800.00
02059             220.00    -9000.00
02060             220.00    -9000.00
02061             220.00    -9000.00
02062             220.00    -9200.00
02063             240.00    -9200.00
02064             260.00    -9200.00
02065             240.00    -9400.00
02066             240.00    -9400.00
02067             240.00    -9400.00
02068             220.00    -9400.00
02069             240.00    -9600.00
02070             260.00    -9600.00
02071             260.00    -9600.00
02072             260.00    -9800.00
02073             280.00    -9800.00
02074             240.00    -9800.00
02075             240.00    -9800.00
02076             260.00    -9800.00
02077             300.00    -9800.00
02078             260.00    -9800.00
02079             260.00   -10000.00
02080             260.00    -9800.00
02081             260.00    -9800.00
02082             260.00   -10000.00
02083             260.00   -10000.00
02084             280.00    -9800.00
02085             280.00    -9800.00
02086             300.00   -10000.00
02087             260.00    -9800.00
02088             280.00    -9800.00
02089             280.00    -9800.00
02090             280.00    -9800.00
02091             260.00    -9600.00
02092             300.00    -9800.00
02093             300.00    -9800.00
02094             260.00    -9800.00
02095             260.00    -9800.00
02096             260.00    -9600.00
02097             260.00    -9400.00
02098             300.00    -9400.00
02099             300.00    -9400.00
02100             260.00    -9400.00
02101             260.00    -9200.00
02102             260.00    -9200.00
02103             260.00    -9200.00
02104             300.00    -9000.00
02105             260.00    -9000.00
02106             260.00    -9000.00
02107             240.00    -8800.00
02108             240.00    -8800.00
02109             240.00    -8600.00
02110             260.00    -8600.00
02111             240.00    -8400.00
02112             260.00    -8600.00
02113             260.00    -8200.00
02114             240.00    -8200.00
02115             240.00    -8200.00
02116             240.00    -7800.00
02117             260.00    -7800.00
02118             240.00    -7800.00
02119             240.00    -7600.00
02120             220.00    -7600.00
02121             220.00    -7200.00
02122             220.00    -7400.00
02123             240.00    -7000.00
02124             220.00    -7000.00
02125             220.00    -6800.00
02126             220.00    -6800.00
02127             220.00    -6600.00
02128             220.00    -6600.00
02129             220.00    -6400.00
02130             220.00    -6200.00
02131             220.00    -6000.00
02132             220.00    -6000.00
02133             180.00    -5800.00
02134             200.00    -5600.00
02135             180.00    -5400.00
02136             180.00    -5200.00
02137             180.00    -5000.00
02138             180.00    -5000.00
02139             180.00    -4800.00
02140             160.00    -4600.00
02141             180.00    -4400.00
02142             160.00    -4400.00
02143             160.00    -4200.00
02144             160.00    -3800.00
02145             160.00    -3800.00
02146             160.00    -3600.00
02147             160.00    -3400.00
02148             140.00    -3200.00
02149             140.00    -3000.00
02150             140.00    -2800.00
02151             140.00    -2800.00
02152             140.00    -2600.00
02153             120.00    -2200.00
02154             120.00    -2200.00
02155             120.00    -2000.00
02156             100.00    -1800.00
02157             100.00    -1800.00
02158             100.00    -1400.00
02159             100.00    -1200.00
02160              80.00     -800.00
02161              80.00     -800.00
02162              80.00     -800.00
02163              80.00     -600.00
02164              60.00     -400.00
02165              80.00     -200.00
02166              60.00        0.00
02167              60.00      200.00
02168              80.00      400.00
02169             140.00      600.00
02170             160.00      600.00
02171             140.00      800.00
02172             100.00     1000.00
02173              80.00     1200.00
02174              80.00     1200.00
02175             220.00     1600.00
02176             780.00     2000.00
02177             900.00     2000.00
02178               0.00     2200.00
02179            -880.00     2200.00
02180           -1120.00     2200.00
02181            -620.00     2800.00
02182             720.00     3000.00
02183             180.00     2800.00
02184            -420.00     3400.00
02185             340.00     3000.00
02186             -80.00     3600.00
02187            -260.00     4200.00
02188             100.00     3400.00
02189             -80.00     4400.00
02190             240.00     4200.00
02191             -80.00     3800.00
02192            -240.00     5000.00
02193               0.00     4600.00
02194            -240.00     4800.00
02195              60.00     5400.00
02196             -20.00     5000.00
02197            -100.00     5800.00
02198               0.00     5600.00
02199            -180.00     5600.00
02200             -20.00     6000.00
02201            -100.00     6000.00
02202            -120.00     6400.00
02203             -80.00     6000.00
02204            -100.00     6600.00
02205            -100.00     6600.00
02206            -240.00     6600.00
02207             -80.00     7000.00
02208             -80.00     6800.00
02209            -100.00     7000.00
02210            -140.00     7400.00
02211            -140.00     7400.00
02212            -180.00     7600.00
02213            -140.00     7600.00
02214            -120.00     7800.00
02215            -220.00     7800.00
02216            -140.00     8000.00
02217            -180.00     8200.00
02218            -180.00     8200.00
02219            -160.00     8400.00
02220            -160.00     8400.00
02221            -220.00     8400.00
02222            -220.00     8600.00
02223            -180.00     8600.00
02224            -220.00     8600.00
02225            -180.00     8800.00
02226            -220.00     9000.00
02227            -240.00     9000.00
02228            -240.00     9200.00
02229            -180.00     9200.00
02230            -220.00     9400.00
02231            -240.00     9200.00
02232            -240.00     9400.00
02233            -260.00     9400.00
02234            -240.00     9400.00
02235            -240.00     9400.00
02236            -260.00     9600.00
02237            -260.00     9600.00
02238            -220.00     9600.00
02239            -220.00     9800.00
02240            -260.00     9800.00
02241            -280.00     9800.00
02242            -260.00     9800.00
02243            -260.00     9800.00
02244            -260.00    10000.00
02245            -260.00     9800.00
02246            -280.00     9800.00
02247            -260.00     9800.00
02248            -260.00    10000.00
02249            -260.00    10000.00
02250            -260.00    10000.00
02251            -260.00    10000.00
02252            -260.00     9800.00
02253            -260.00    10000.00
02254            -260.00     9800.00
02255            -300.00     9800.00
02256            -280.00     9800.00
02257            -260.00     9800.00
02258            -260.00     9800.00
02259            -260.00    10000.00
02260            -260.00     9800.00
02261            -260.00     9800.00
02262            -260.00     9600.00
02263            -260.00     9800.00
02264            -260.00     9600.00
02265            -260.00     9400.00
02266            -260.00     9400.00
02267            -300.00     9400.00
02268            -260.00     9400.00
02269            -260.00     9200.00
02270            -260.00     9200.00
02271            -240.00     9200.00
02272            -260.00     9200.00
02273            -260.00     9000.00
02274            -280.00     8800.00
02275            -260.00     8800.00
02276            -260.00     8600.00
02277            -240.00     8600.00
02278            -260.00     8600.00
02279            -260.00     8400.00
02280            -240.00     8200.00
02281            -260.00     8200.00
02282            -260.00     8200.00
02283            -240.00     8000.00
02284            -240.00     7800.00
02285            -240.00     7800.00
02286            -240.00     7800.00
02287            -260.00     7400.00
02288            -260.00     7400.00
02289            -240.00     7400.00
02290            -240.00     7400.00
02291            -220.00     7000.00
02292            -240.00     7000.00
02293            -220.00     6800.00
02294            -240.00     6600.00
02295            -220.00     6600.00
02296            -220.00     6200.00
02297            -220.00     6200.00
02298            -220.00     6000.00
02299            -220.00     6000.00
02300            -220.00     5800.00
02301            -200.00     5600.00
02302            -220.00     5600.00
02303            -180.00     5400.00
02304            -180.00     5200.00
02305            -180.00     5000.00
02306            -180.00     4600.00
02307            -180.00     4600.00
02308            -180.00     4600.00
02309            -160.00     4200.00
02310            -160.00     4200.00
02311            -160.00     4200.00
02312            -160.00     3800.00
02313            -160.00     3600.00
02314            -160.00     3400.00
02315            -140.00     3400.00
02316            -140.00     3200.00
02317            -140.00     3000.00
02318            -140.00     2600.00
02319            -120.00     2600.00
02320            -140.00     2400.00
02321            -140.00     2200.00
02322            -120.00     2000.00
02323            -100.00     1800.00
02324            -100.00     1800.00
02325             -80.00     1400.00
02326            -100.00     1400.00
02327             -80.00     1200.00
02328            -100.00     1000.00
02329            -100.00      800.00
02330             -80.00      600.00
02331             -80.00      400.00
02332             -60.00      400.00
02333             -60.00        0.00
02334             -40.00     -200.00
02335             -20.00     -400.00
02336              60.00     -400.00
02337              80.00     -600.00
02338              60.00     -800.00
02339              20.00     -800.00
02340              20.00    -1000.00
02341              60.00    -1200.00
02342              60.00    -1400.00
02343             260.00    -1400.00
02344             780.00    -2000.00
02345             660.00    -2200.00
02346            -160.00    -2400.00
02347            -660.00    -2600.00
02348            -740.00    -2600.00
02349            -600.00    -2400.00
02350             340.00    -2800.00
02351             380.00    -3400.00
02352            -160.00    -3000.00
02353             280.00    -3600.00
02354             140.00    -3600.00
02355              20.00    -3400.00
02356             200.00    -4400.00
02357             -20.00    -4000.00
02358             300.00    -4200.00
02359             220.00    -4600.00
02360            -100.00    -4600.00
02361              80.00    -5000.00
02362               0.00    -5000.00
02363             100.00    -5200.00
02364             180.00    -5200.00
02365             120.00    -5400.00
02366              60.00    -5800.00
02367             140.00    -5600.00
02368             240.00    -6000.00
02369              60.00    -6200.00
02370             140.00    -6200.00
02371             200.00    -6600.00
02372              80.00    -6200.00
02373             160.00    -6600.00
02374             120.00    -6800.00
02375             100.00    -7000.00
02376             180.00    -7000.00
02377             200.00    -7000.00
02378             140.00    -7400.00
02379             160.00    -7400.00
02380             220.00    -7600.00
02381             160.00    -7800.00
02382             160.00    -7800.00
02383             160.00    -8000.00
02384             180.00    -7800.00
02385             180.00    -8200.00
02386             220.00    -8000.00
02387             220.00    -8400.00
02388             200.00    -8600.00
02389             220.00    -8400.00
02390             220.00    -8600.00
02391             180.00    -8600.00
02392             220.00    -8800.00
02393             220.00    -8800.00
02394             220.00    -9000.00
02395             220.00    -9000.00
02396             220.00    -9000.00
02397             220.00    -9200.00
02398             240.00    -9200.00
02399             260.00    -9400.00
02400             240.00    -9200.00
02401             240.00    -9400.00
02402             240.00    -9400.00
02403             220.00    -9400.00
02404             240.00    -9600.00
02405             260.00    -9400.00
02406             260.00    -9800.00
02407             260.00    -9600.00
02408             260.00    -9800.00
02409             240.00    -9800.00
02410             260.00    -9800.00
02411             260.00    -9800.00
02412             260.00    -9800.00
02413             260.00    -9800.00
02414             300.00    -9800.00
02415             240.00    -9800.00
02416             260.00    -9800.00
02417             260.00    -9800.00
02418             260.00    -9800.00
02419             300.00    -9800.00
02420             300.00    -9800.00
02421             260.00    -9800.00
02422             240.00    -9800.00
02423             260.00    -9800.00
02424             280.00    -9800.00
02425             300.00    -9800.00
02426             260.00    -9800.00
02427             300.00    -9800.00
02428             260.00    -9600.00
02429             260.00    -9600.00
02430             260.00    -9400.00
02431             260.00    -9400.00
02432             300.00    -9400.00
02433             300.00    -9400.00
02434             260.00    -9400.00
02435             260.00    -9200.00
02436             260.00    -9200.00
02437             260.00    -9200.00
02438             300.00    -9200.00
02439             260.00    -9000.00
02440             300.00    -9000.00
02441             260.00    -9000.00
02442             240.00    -8800.00
02443             260.00    -8800.00
02444             240.00    -8600.00
02445             260.00    -8600.00
02446             260.00    -8400.00
02447             240.00    -8400.00
02448             240.00    -8400.00
02449             260.00    -8200.00
02450             240.00    -8200.00
02451             240.00    -8000.00
02452             260.00    -7800.00
02453             240.00    -7800.00
02454             240.00    -7600.00
02455             220.00    -7400.00
02456             240.00    -7200.00
02457             220.00    -7200.00
02458             220.00    -7000.00
02459             240.00    -6800.00
02460             220.00    -6800.00
02461             240.00    -6800.00
02462             220.00    -6600.00
02463             220.00    -6400.00
02464             220.00    -6200.00
02465             220.00    -6000.00
02466             220.00    -6000.00
02467             180.00    -5800.00
02468             200.00    -5400.00
02469             200.00    -5400.00
02470             180.00    -5400.00
02471             200.00    -5200.00
02472             180.00    -5000.00
02473             180.00    -5000.00
02474             180.00    -4600.00
02475             160.00    -4600.00
02476             160.00    -4400.00
02477             160.00    -4200.00
02478             160.00    -3800.00
02479             160.00    -3800.00
02480             160.00    -3600.00
02481             140.00    -3400.00
02482             140.00    -3400.00
02483             160.00    -3000.00
02484             140.00    -3000.00
02485             140.00    -3000.00
02486             140.00    -2600.00
02487             140.00    -2600.00
02488             100.00    -2200.00
02489             100.00    -2000.00
02490             100.00    -1800.00
02491              80.00    -1800.00
02492             100.00    -1400.00
02493             100.00    -1400.00
02494              80.00    -1200.00
02495              60.00     -800.00
02496              60.00     -600.00
02497              80.00     -600.00
02498              80.00     -400.00
02499              60.00     -200.00
02500              60.00     -200.00
02501              80.00      200.00
02502              60.00      400.00
02503             120.00      600.00
02504             160.00      600.00
02505             160.00      600.00
02506             100.00     1000.00
02507             100.00     1200.00
02508              80.00     1200.00
02509             140.00     1400.00
02510             480.00     1800.00
02511            1020.00     2000.00
02512             480.00     2000.00
02513            -560.00     2200.00
02514           -1040.00     2200.00
02515           -1040.00     2600.00
02516             140.00     3000.00
02517             720.00     2800.00
02518            -400.00     3000.00
02519              20.00     3400.00
02520             280.00     3400.00
02521            -340.00     4000.00
02522              20.00     3600.00
02523             -20.00     3600.00
02524              60.00     4600.00
02525             180.00     3800.00
02526            -260.00     4600.00
02527             -40.00     5000.00
02528            -140.00     4400.00
02529            -140.00     5200.00
02530             100.00     5000.00
02531            -160.00     5400.00
02532               0.00     5600.00
02533            -140.00     5400.00
02534            -100.00     6000.00
02535             -20.00     5800.00
02536            -160.00     6200.00
02537             -80.00     6200.00
02538            -100.00     6200.00
02539             -80.00     6800.00
02540            -220.00     6400.00
02541            -160.00     7000.00
02542             -40.00     7000.00
02543            -100.00     6800.00
02544            -120.00     7200.00
02545            -140.00     7200.00
02546            -160.00     7600.00
02547            -180.00     7400.00
02548            -100.00     7800.00
02549            -160.00     7800.00
02550            -180.00     7800.00
02551            -160.00     8000.00
02552            -180.00     8200.00
02553            -160.00     8200.00
02554            -160.00     8200.00
02555            -180.00     8600.00
02556            -240.00     8600.00
02557            -220.00     8400.00
02558            -220.00     8600.00
02559            -220.00     8800.00
02560            -180.00     9000.00
02561            -240.00     9000.00
02562            -260.00     9000.00
02563            -220.00     9200.00
02564            -200.00     9400.00
02565            -240.00     9200.00
02566            -220.00     9200.00
02567            -220.00     9400.00
02568            -260.00     9400.00
02569            -240.00     9400.00
02570            -240.00     9600.00
02571            -240.00     9400.00
02572            -240.00     9800.00
02573            -220.00     9800.00
02574            -260.00     9800.00
02575            -260.00     9800.00
02576            -260.00     9800.00
02577            -260.00     9800.00
02578            -240.00     9800.00
02579            -240.00     9800.00
02580            -280.00    10000.00
02581            -260.00     9800.00
02582            -260.00    10000.00
02583            -260.00    10000.00
02584            -260.00     9800.00
02585            -260.00    10000.00
02586            -260.00     9800.00
02587            -260.00    10000.00
02588            -240.00    10000.00
02589            -320.00     9800.00
02590            -300.00     9800.00
02591            -260.00     9800.00
02592            -260.00     9800.00
02593            -260.00     9800.00
02594            -260.00     9800.00
02595            -260.00     9800.00
02596            -260.00     9800.00
02597            -260.00     9800.00
02598            -260.00     9600.00
02599            -260.00     9600.00
02600            -260.00     9400.00
02601            -260.00     9400.00
02602            -260.00     9400.00
02603            -260.00     9400.00
02604            -260.00     9200.00
02605            -260.00     9200.00
02606            -260.00     9200.00
02607            -260.00     9000.00
02608            -260.00     9000.00
02609            -260.00     8800.00
02610            -260.00     8600.00
02611            -260.00     8600.00
02612            -260.00     8600.00
02613            -260.00     8600.00
02614            -260.00     8400.00
02615            -260.00     8200.00
02616            -260.00     8200.00
02617            -260.00     8200.00
02618            -240.00     8200.00
02619            -240.00     7800.00
02620            -240.00     7600.00
02621            -260.00     7600.00
02622            -240.00     7400.00
02623            -240.00     7400.00
02624            -240.00     7200.00
02625            -240.00     7000.00
02626            -220.00     6800.00
02627            -240.00     6800.00
02628            -240.00     6600.00
02629            -240.00     6600.00
02630            -220.00     6400.00
02631            -220.00     6200.00
02632            -220.00     6200.00
02633            -180.00     6000.00
02634            -220.00     6000.00
02635            -220.00     5800.00
02636            -240.00     5600.00
02637            -200.00     5400.00
02638            -180.00     5200.00
02639            -180.00     5200.00
02640            -180.00     5000.00
02641            -180.00     4800.00
02642            -180.00     4600.00
02643            -180.00     4400.00
02644            -180.00     4400.00
02645            -160.00     4200.00
02646            -160.00     4000.00
02647            -160.00     3800.00
02648            -160.00     3600.00
02649            -160.00     3400.00
02650            -140.00     3400.00
02651            -140.00     3200.00
02652            -140.00     2800.00
02653            -120.00     2800.00
02654            -140.00     2600.00
02655            -140.00     2400.00
02656            -140.00     2000.00
02657            -100.00     2000.00
02658            -100.00     1800.00
02659            -100.00     1800.00
02660             -80.00     1400.00
02661            -100.00     1200.00
02662             -80.00     1200.00
02663             -80.00     1000.00
02664             -80.00      600.00
02665             -80.00      400.00
02666             -60.00      400.00
02667             -60.00      200.00
02668             -20.00     -200.00
02669             -20.00     -200.00
02670               0.00     -200.00
02671              80.00     -400.00
02672              60.00     -600.00
02673              60.00     -800.00
02674              20.00    -1000.00
02675              40.00    -1200.00
02676              60.00    -1200.00
02677             140.00    -1600.00
02678             540.00    -1600.00
02679             820.00    -2200.00
02680             260.00    -2200.00
02681            -500.00    -2600.00
02682            -700.00    -2600.00
02683            -740.00    -2400.00
02684            -140.00    -2600.00
02685             580.00    -3200.00
02686             -20.00    -3000.00
02687              20.00    -3400.00
02688             320.00    -4000.00
02689             -60.00    -3400.00
02690             180.00    -3800.00
02691              60.00    -4200.00
02692              80.00    -4000.00
02693             380.00    -4600.00
02694             -20.00    -4400.00
02695             -20.00    -4800.00
02696              80.00    -4800.00
02697              20.00    -5000.00
02698             160.00    -5400.00
02699             160.00    -5000.00
02700              80.00    -5800.00
02701              60.00    -5800.00
02702             220.00    -5800.00
02703             160.00    -6200.00
02704              60.00    -6200.00
02705             220.00    -6400.00
02706             140.00    -6600.00
02707             140.00    -6800.00
02708             160.00    -6800.00
02709             100.00    -6800.00
02710             160.00    -7000.00
02711             220.00    -7000.00
02712             180.00    -7200.00
02713             140.00    -7400.00
02714             200.00    -7400.00
02715             200.00    -7600.00
02716             160.00    -7800.00
02717             180.00    -7800.00
02718             180.00    -8000.00
02719             160.00    -8200.00
02720             220.00    -8200.00
02721             220.00    -8200.00
02722             180.00    -8400.00
02723             220.00    -8400.00
02724             220.00    -8600.00
02725             220.00    -8800.00
02726             220.00    -8600.00
02727             220.00    -8800.00
02728             220.00    -9000.00
02729             220.00    -9000.00
02730             220.00    -9000.00
02731             220.00    -9200.00
02732             240.00    -9200.00
02733             260.00    -9200.00
02734             240.00    -9200.00
02735             240.00    -9400.00
02736             240.00    -9200.00
02737             220.00    -9400.00
02738             240.00    -9600.00
02739             260.00    -9600.00
02740             260.00    -9800.00
02741             260.00    -9800.00
02742             260.00    -9600.00
02743             240.00    -9800.00
02744             240.00    -9800.00
02745             260.00    -9800.00
02746             260.00    -9800.00
02747             260.00    -9800.00
02748             260.00    -9800.00
02749             240.00    -9800.00
02750             260.00   -10000.00
02751             240.00    -9800.00
02752             260.00   -10000.00
02753             300.00   -10000.00
02754             300.00   -10000.00
02755             260.00   -10000.00
02756             240.00    -9800.00
02757             260.00    -9800.00
02758             260.00    -9800.00
02759             260.00   -10000.00
02760             260.00    -9800.00
02761             300.00    -9800.00
02762             260.00    -9600.00
02763             260.00    -9600.00
02764             260.00    -9600.00
02765             280.00    -9800.00
02766             260.00    -9400.00
02767             300.00    -9400.00
02768             260.00    -9400.00
02769             260.00    -9400.00
02770             260.00    -9200.00
02771             260.00    -9200.00
02772             260.00    -9200.00
02773             280.00    -9200.00
02774             260.00    -9000.00
02775             260.00    -9000.00
02776             260.00    -8800.00
02777             240.00    -8600.00
02778             260.00    -8600.00
02779             260.00    -8600.00
02780             260.00    -8400.00
02781             240.00    -8400.00
02782             260.00    -8400.00
02783             240.00    -8200.00
02784             240.00    -8200.00
02785             240.00    -8000.00
02786             260.00    -7800.00
02787             260.00    -7800.00
02788             240.00    -7600.00
02789             240.00    -7600.00
02790             220.00    -7200.00
02791             240.00    -7200.00
02792             240.00    -7000.00
02793             220.00    -7000.00
02794             220.00    -6800.00
02795             220.00    -6600.00
02796             220.00    -6600.00
02797             220.00    -6400.00
02798             220.00    -6400.00
02799             220.00    -6200.00
02800             220.00    -6000.00
02801             220.00    -6000.00
02802             220.00    -5600.00
02803             180.00    -5600.00
02804             220.00    -5400.00
02805             180.00    -5200.00
02806             180.00    -5200.00
02807             180.00    -5000.00
02808             180.00    -4800.00
02809             180.00    -4600.00
02810             160.00    -4400.00
02811             160.00    -4400.00
02812             160.00    -4200.00
02813             160.00    -4000.00
02814             160.00    -3800.00
02815             160.00    -3400.00
02816             140.00    -3400.00
02817             120.00    -3200.00
02818             140.00    -3000.00
02819             140.00    -2800.00
02820             140.00    -2600.00
02821             140.00    -2600.00
02822             100.00    -2400.00
02823             100.00    -2200.00
02824              80.00    -2000.00
02825             100.00    -2000.00
02826             100.00    -1800.00
02827             100.00    -1400.00
02828              80.00    -1200.00
02829              80.00    -1200.00
02830              60.00     -800.00
02831              80.00     -600.00
02832              60.00     -600.00
02833              80.00     -400.00
02834              60.00     -200.00
02835              60.00      200.00
02836              60.00      200.00
02837              80.00      400.00
02838             160.00      600.00
02839             160.00      600.00
02840             140.00     1000.00
02841              80.00     1000.00
02842              80.00     1200.00
02843             100.00     1400.00
02844             220.00     1600.00
02845             820.00     1800.00
02846             880.00     2200.00
02847             -60.00     2200.00
02848            -860.00     2200.00
02849           -1120.00     2200.00
02850            -560.00     2800.00
02851             740.00     3000.00
02852             140.00     3000.00
02853            -380.00     3400.00
02854             380.00     3000.00
02855            -100.00     3600.00
02856            -240.00     4000.00
02857             100.00     3400.00
02858             -80.00     4600.00
02859             260.00     4200.00
02860            -100.00     4200.00
02861            -220.00     5000.00
02862               0.00     4600.00
02863            -240.00     5000.00
02864              80.00     5400.00
02865             -60.00     5000.00
02866            -100.00     5800.00
02867               0.00     5400.00
02868            -180.00     5800.00
02869             -20.00     5800.00
02870            -100.00     6000.00
02871            -100.00     6400.00
02872             -80.00     6000.00
02873            -100.00     6600.00
02874            -100.00     6600.00
02875            -240.00     6600.00
02876             -80.00     7000.00
02877            -100.00     6800.00
02878            -100.00     7000.00
02879            -140.00     7400.00
02880            -140.00     7400.00
02881            -220.00     7400.00
02882            -160.00     7600.00
02883            -120.00     7800.00
02884            -180.00     7600.00
02885            -160.00     8200.00
02886            -200.00     8000.00
02887            -180.00     8200.00
02888            -160.00     8200.00
02889            -160.00     8400.00
02890            -220.00     8400.00
02891            -240.00     8400.00
02892            -180.00     8800.00
02893            -220.00     8600.00
02894            -220.00     9000.00
02895            -220.00     9000.00
02896            -260.00     9000.00
02897            -240.00     9000.00
02898            -180.00     9200.00
02899            -220.00     9200.00
02900            -240.00     9200.00
02901            -220.00     9400.00
02902            -260.00     9400.00
02903            -260.00     9400.00
02904            -240.00     9600.00
02905            -260.00     9400.00
02906            -240.00     9800.00
02907            -220.00     9800.00
02908            -240.00     9800.00
02909            -260.00     9800.00
02910            -260.00     9800.00
02911            -260.00     9800.00
02912            -240.00     9800.00
02913            -240.00     9800.00
02914            -260.00    10000.00
02915            -260.00     9800.00
02916            -260.00     9800.00
02917            -260.00    10000.00
02918            -260.00    10000.00
02919            -260.00    10000.00
02920            -260.00    10000.00
02921            -260.00     9800.00
02922            -260.00    10000.00
02923            -260.00     9800.00
02924            -280.00    10000.00
02925            -260.00     9800.00
02926            -260.00     9800.00
02927            -260.00    10000.00
02928            -260.00     9800.00
02929            -260.00     9600.00
02930            -260.00     9800.00
02931            -260.00     9800.00
02932            -260.00     9400.00
02933            -240.00     9600.00
02934            -260.00     9400.00
02935            -260.00     9600.00
02936            -260.00     9400.00
02937            -280.00     9400.00
02938            -300.00     9200.00
02939            -260.00     9200.00
02940            -260.00     9200.00
02941            -260.00     9200.00
02942            -260.00     9200.00
02943            -260.00     9000.00
02944            -260.00     8800.00
02945            -260.00     8600.00
02946            -260.00     8600.00
02947            -240.00     8600.00
02948            -260.00     8400.00
02949            -300.00     8200.00
02950            -260.00     8200.00
02951            -260.00     8000.00
02952            -260.00     8000.00
02953            -240.00     7800.00
02954            -240.00     7800.00
02955            -240.00     7600.00
02956            -260.00     7600.00
02957            -260.00     7400.00
02958            -240.00     7400.00
02959            -240.00     7200.00
02960            -240.00     7000.00
02961            -220.00     6800.00
02962            -240.00     6800.00
02963            -240.00     6600.00
02964            -240.00     6600.00
02965            -220.00     6400.00
02966            -220.00     6200.00
02967            -220.00     6000.00
02968            -220.00     6000.00
02969            -220.00     5800.00
02970            -220.00     5800.00
02971            -220.00     5600.00
02972            -180.00     5400.00
02973            -160.00     5200.00
02974            -180.00     5000.00
02975            -180.00     4800.00
02976            -180.00     4800.00
02977            -180.00     4400.00
02978            -160.00     4400.00
02979            -160.00     4200.00
02980            -160.00     4000.00
02981            -160.00     3800.00
02982            -160.00     3600.00
02983            -160.00     3600.00
02984            -160.00     3400.00
02985            -140.00     3200.00
02986            -120.00     2800.00
02987            -140.00     2800.00
02988            -120.00     2600.00
02989            -140.00     2400.00
02990            -140.00     2200.00
02991            -100.00     2000.00
02992            -100.00     1800.00
02993            -100.00     1800.00
02994            -100.00     1600.00
02995            -100.00     1400.00
02996            -100.00     1200.00
02997             -80.00     1000.00
02998             -80.00      800.00
02999             -80.00      600.00
03000             -60.00      400.00
03001             -60.00      400.00
03002             -20.00      200.00
03003             -40.00     -200.00
03004               0.00     -400.00
03005              60.00     -400.00
03006              80.00     -600.00
03007              60.00     -800.00
03008              20.00    -1000.00
03009              20.00    -1200.00
03010              20.00    -1200.00
03011              80.00    -1400.00
03012             260.00    -1600.00
03013             780.00    -2000.00
03014             620.00    -2400.00
03015            -160.00    -2200.00
03016            -660.00    -2600.00
03017            -740.00    -2800.00
03018            -580.00    -2600.00
03019             380.00    -3000.00
03020             320.00    -3400.00
03021            -180.00    -3000.00
03022             300.00    -3600.00
03023             120.00    -3600.00
03024              20.00    -3600.00
03025             200.00    -4400.00
03026             -20.00    -4000.00
03027             300.00    -4400.00
03028             220.00    -4600.00
03029            -100.00    -4600.00
03030              80.00    -5000.00
03031               0.00    -4800.00
03032             100.00    -5400.00
03033             180.00    -5200.00
03034             140.00    -5400.00
03035              60.00    -5800.00
03036             140.00    -5400.00
03037             220.00    -6000.00
03038              60.00    -6000.00
03039             160.00    -6200.00
03040             200.00    -6400.00
03041             100.00    -6600.00
03042             160.00    -6800.00
03043             140.00    -6600.00
03044             100.00    -7000.00
03045             200.00    -7000.00
03046             220.00    -7200.00
03047             140.00    -7400.00
03048             160.00    -7200.00
03049             220.00    -7400.00
03050             180.00    -7600.00
03051             180.00    -7800.00
03052             180.00    -8000.00
03053             160.00    -8000.00
03054             180.00    -8200.00
03055             220.00    -8200.00
03056             220.00    -8600.00
03057             200.00    -8400.00
03058             220.00    -8600.00
03059             220.00    -8600.00
03060             180.00    -8800.00
03061             240.00    -8800.00
03062             220.00    -9000.00
03063             220.00    -9000.00
03064             220.00    -9000.00
03065             220.00    -9000.00
03066             220.00    -9200.00
03067             260.00    -9400.00
03068             260.00    -9200.00
03069             240.00    -9200.00
03070             240.00    -9400.00
03071             240.00    -9400.00
03072             220.00    -9400.00
03073             240.00    -9400.00
03074             260.00    -9800.00
03075             280.00    -9600.00
03076             260.00    -9800.00
03077             260.00    -9800.00
03078             240.00    -9800.00
03079             240.00    -9800.00
03080             280.00    -9800.00
03081             260.00    -9800.00
03082             260.00    -9800.00
03083             260.00   -10000.00
03084             260.00    -9800.00
03085             260.00    -9800.00
03086             260.00    -9800.00
03087             260.00   -10000.00
03088             280.00   -10000.00
03089             300.00    -9800.00
03090             280.00    -9800.00
03091             240.00    -9800.00
03092             260.00    -9800.00
03093             280.00    -9800.00
03094             260.00    -9800.00
03095             300.00    -9800.00
03096             300.00    -9800.00
03097             240.00    -9600.00
03098             260.00    -9600.00
03099             260.00    -9800.00
03100             260.00    -9600.00
03101             280.00    -9400.00
03102             300.00    -9400.00
03103             260.00    -9400.00
03104             260.00    -9400.00
03105             240.00    -9400.00
03106             260.00    -9200.00
03107             260.00    -9000.00
03108             300.00    -9000.00
03109             260.00    -9000.00
03110             260.00    -9000.00
03111             260.00    -8800.00
03112             240.00    -8600.00
03113             260.00    -8600.00
03114             260.00    -8400.00
03115             260.00    -8600.00
03116             260.00    -8400.00
03117             260.00    -8400.00
03118             240.00    -8200.00
03119             260.00    -8000.00
03120             260.00    -7800.00
03121             240.00    -7800.00
03122             240.00    -7800.00
03123             240.00    -7600.00
03124             220.00    -7200.00
03125             240.00    -7400.00
03126             240.00    -7200.00
03127             240.00    -7000.00
03128             240.00    -6800.00
03129             240.00    -6600.00
03130             220.00    -6800.00
03131             220.00    -6600.00
03132             220.00    -6200.00
03133             220.00    -6200.00
03134             220.00    -6200.00
03135             220.00    -6000.00
03136             220.00    -6000.00
03137             220.00    -5800.00
03138             180.00    -5600.00
03139             180.00    -5200.00
03140             180.00    -5000.00
03141             200.00    -5200.00
03142             180.00    -5000.00
03143             160.00    -4600.00
03144             160.00    -4400.00
03145             160.00    -4400.00
03146             160.00    -4200.00
03147             180.00    -4200.00
03148             160.00    -3800.00
03149             140.00    -3600.00
03150             160.00    -3600.00
03151             140.00    -3400.00
03152             140.00    -3200.00
03153             140.00    -3000.00
03154             140.00    -2800.00
03155             140.00    -2600.00
03156             140.00    -2400.00
03157             100.00    -2200.00
03158              80.00    -2000.00
03159             100.00    -1800.00
03160             100.00    -1800.00
03161             100.00    -1400.00
03162             100.00    -1400.00
03163              80.00    -1200.00
03164              80.00    -1000.00
03165              80.00     -600.00
03166              60.00     -600.00
03167              80.00     -400.00
03168              80.00     -200.00
03169              80.00        0.00
03170              60.00      200.00
03171              60.00      400.00
03172             100.00      600.00
03173             160.00      600.00
03174             140.00      600.00
03175             100.00     1000.00
03176             100.00     1000.00
03177              80.00     1400.00
03178             140.00     1400.00
03179             500.00     1800.00
03180            1020.00     2000.00
03181             480.00     2200.00
03182            -560.00     2200.00
03183           -1020.00     2200.00
03184           -1020.00     2600.00
03185             220.00     3000.00
03186             700.00     2800.00
03187            -400.00     3000.00
03188              60.00     3200.00
03189             260.00     3400.00
03190            -340.00     4200.00
03191              60.00     3600.00
03192             -20.00     3800.00
03193              80.00     4600.00
03194             160.00     3800.00
03195            -300.00     4600.00
03196             -20.00     5000.00
03197            -160.00     4400.00
03198            -100.00     5400.00
03199              80.00     5000.00
03200            -160.00     5400.00
03201               0.00     5800.00
03202            -140.00     5400.00
03203            -100.00     6000.00
03204             -20.00     5800.00
03205            -160.00     6200.00
03206             -80.00     6200.00
03207            -100.00     6200.00
03208             -80.00     6800.00
03209            -220.00     6400.00
03210            -160.00     6800.00
03211             -60.00     6800.00
03212            -140.00     7000.00
03213            -120.00     7200.00
03214            -160.00     7400.00
03215            -160.00     7600.00
03216            -180.00     7400.00
03217            -100.00     7800.00
03218            -180.00     7800.00
03219            -180.00     7800.00
03220            -160.00     8200.00
03221            -220.00     8200.00
03222            -160.00     8400.00
03223            -180.00     8200.00
03224            -180.00     8400.00
03225            -240.00     8400.00
03226            -180.00     8800.00
03227            -220.00     8600.00
03228            -220.00     8600.00
03229            -180.00     9000.00
03230            -240.00     9000.00
03231            -260.00     9000.00
03232            -220.00     9200.00
03233            -180.00     9200.00
03234            -240.00     9400.00
03235            -240.00     9400.00
03236            -240.00     9400.00
03237            -260.00     9400.00
03238            -240.00     9600.00
03239            -260.00     9600.00
03240            -260.00     9600.00
03241            -240.00     9800.00
03242            -220.00     9800.00
03243            -260.00     9800.00
03244            -260.00     9800.00
03245            -260.00     9800.00
03246            -260.00     9800.00
03247            -240.00     9800.00
03248            -240.00     9800.00
03249            -260.00     9800.00
03250            -260.00     9800.00
03251            -260.00    10000.00
03252            -260.00     9800.00
03253            -260.00    10000.00
03254            -260.00    10000.00
03255            -260.00    10000.00
03256            -260.00    10000.00
03257            -260.00    10000.00
03258            -300.00     9800.00
03259            -280.00    10000.00
03260            -260.00     9800.00
03261            -260.00     9800.00
03262            -260.00     9800.00
03263            -260.00     9800.00
03264            -260.00     9800.00
03265            -260.00     9600.00
03266            -260.00     9800.00
03267            -260.00     9600.00
03268            -260.00     9600.00
03269            -260.00     9400.00
03270            -260.00     9400.00
03271            -300.00     9400.00
03272            -260.00     9400.00
03273            -260.00     9200.00
03274            -260.00     9200.00
03275            -260.00     9200.00
03276            -260.00     9000.00
03277            -280.00     9000.00
03278            -260.00     8600.00
03279            -260.00     8800.00
03280            -260.00     8600.00
03281            -260.00     8600.00
03282            -260.00     8400.00
03283            -260.00     8400.00
03284            -260.00     8200.00
03285            -260.00     8200.00
03286            -240.00     8000.00
03287            -240.00     7800.00
03288            -260.00     7800.00
03289            -240.00     7600.00
03290            -260.00     7600.00
03291            -260.00     7400.00
03292            -260.00     7400.00
03293            -240.00     7400.00
03294            -240.00     7000.00
03295            -240.00     6800.00
03296            -240.00     6800.00
03297            -240.00     6800.00
03298            -240.00     6600.00
03299            -220.00     6400.00
03300            -180.00     6400.00
03301            -220.00     6200.00
03302            -220.00     6200.00
03303            -220.00     6000.00
03304            -220.00     5800.00
03305            -220.00     5600.00
03306            -220.00     5400.00
03307            -180.00     5200.00
03308            -180.00     5000.00
03309            -180.00     5000.00
03310            -180.00     4600.00
03311            -180.00     4600.00
03312            -160.00     4400.00
03313            -160.00     4200.00
03314            -160.00     4200.00
03315            -140.00     4000.00
03316            -140.00     3800.00
03317            -160.00     3600.00
03318            -140.00     3400.00
03319            -160.00     3200.00
03320            -140.00     3200.00
03321            -100.00     3000.00
03322            -120.00     2800.00
03323            -120.00     2400.00
03324            -140.00     2200.00
03325            -120.00     2000.00
03326            -100.00     1800.00
03327            -100.00     1800.00
03328             -80.00     1800.00
03329            -100.00     1400.00
03330            -100.00     1400.00
03331             -80.00     1200.00
03332            -100.00      800.00
03333             -80.00      800.00
03334             -60.00      400.00
03335             -60.00      400.00
03336             -60.00      200.00
03337             -60.00     -200.00
03338             -20.00     -200.00
03339               0.00     -400.00
03340              80.00     -400.00
03341              80.00     -600.00
03342              60.00     -800.00
03343               0.00    -1000.00
03344              20.00    -1200.00
03345              20.00    -1400.00
03346             140.00    -1600.00
03347             540.00    -1800.00
03348             820.00    -2200.00
03349             220.00    -2400.00
03350            -540.00    -2400.00
03351            -720.00    -2600.00
03352            -740.00    -2600.00
03353            -100.00    -2600.00
03354             580.00    -3000.00
03355             -60.00    -3000.00
03356              40.00    -3400.00
03357             320.00    -3800.00
03358             -20.00    -3400.00
03359             180.00    -3800.00
03360              60.00    -4200.00
03361              80.00    -4200.00
03362             380.00    -4600.00
03363             -20.00    -4400.00
03364               0.00    -4800.00
03365              80.00    -4800.00
03366              20.00    -5000.00
03367             180.00    -5400.00
03368             160.00    -5200.00
03369              80.00    -5800.00
03370              60.00    -5600.00
03371             220.00    -5800.00
03372             140.00    -6200.00
03373              60.00    -6000.00
03374             220.00    -6400.00
03375             140.00    -6400.00
03376             140.00    -6600.00
03377             160.00    -6600.00
03378             100.00    -6600.00
03379             180.00    -7000.00
03380             240.00    -7000.00
03381             140.00    -7000.00
03382             160.00    -7400.00
03383             160.00    -7400.00
03384             140.00    -7600.00
03385              80.00    -7800.00
03386             120.00    -7800.00
03387             200.00    -7800.00
03388             260.00    -8200.00
03389             360.00    -8200.00
03390             320.00    -8200.00
03391             240.00    -8400.00
03392             180.00    -8600.00
03393              60.00    -8600.00
03394              80.00    -8800.00
03395             160.00    -8600.00
03396             260.00    -8800.00
03397             260.00    -9000.00
03398             300.00    -9000.00
03399             260.00    -9000.00
03400             260.00    -9200.00
03401             240.00    -9200.00
03402             240.00    -9200.00
03403             220.00    -9400.00
03404             180.00    -9400.00
03405             180.00    -9400.00
03406             220.00    -9400.00
03407             260.00    -9600.00
03408             300.00    -9400.00
03409             300.00    -9600.00
03410             260.00    -9800.00
03411             260.00    -9800.00
03412             240.00    -9800.00
03413             240.00    -9800.00
03414             240.00    -9800.00
03415             220.00    -9800.00
03416             240.00    -9800.00
03417             260.00    -9800.00
03418             300.00    -9800.00
03419             300.00    -9800.00
03420             300.00   -10000.00
03421             260.00    -9800.00
03422             260.00    -9800.00
03423             240.00   -10000.00
03424             240.00   -10000.00
03425             220.00    -9800.00
03426             260.00    -9800.00
03427             260.00    -9800.00
03428             300.00    -9800.00
03429             320.00    -9600.00
03430             300.00    -9800.00
03431             260.00    -9800.00
03432             240.00    -9800.00
03433             240.00    -9600.00
03434             240.00    -9400.00
03435             300.00    -9400.00
03436             300.00    -9400.00
03437             300.00    -9400.00
03438             300.00    -9200.00
03439             260.00    -9200.00
03440             260.00    -9200.00
03441             260.00    -9000.00
03442             280.00    -9000.00
03443             260.00    -9200.00
03444             280.00    -9000.00
03445             280.00    -8800.00
03446             260.00    -9000.00
03447             260.00    -8600.00
03448             260.00    -8600.00
03449             260.00    -8600.00
03450             260.00    -8400.00
03451             240.00    -8200.00
03452             260.00    -8200.00
03453             240.00    -8200.00
03454             260.00    -7800.00
03455             260.00    -7800.00
03456             260.00    -7600.00
03457             240.00    -7600.00
03458             240.00    -7400.00
03459             240.00    -7400.00
03460             240.00    -7200.00
03461             220.00    -7000.00
03462             220.00    -6800.00
03463             220.00    -6800.00
03464             240.00    -6600.00
03465             240.00    -6600.00
03466             220.00    -6600.00
03467             220.00    -6400.00
03468             220.00    -6200.00
03469             200.00    -6200.00
03470             220.00    -5800.00
03471             200.00    -5800.00
03472             180.00    -5600.00
03473             180.00    -5400.00
03474             180.00    -5400.00
03475             180.00    -5200.00
03476             160.00    -5000.00
03477             160.00    -4800.00
03478             180.00    -4600.00
03479             160.00    -4600.00
03480             180.00    -4400.00
03481             140.00    -4200.00
03482             140.00    -3800.00
03483             160.00    -3800.00
03484             160.00    -3600.00
03485             140.00    -3400.00
03486             140.00    -3200.00
03487             140.00    -3000.00
03488             100.00    -2800.00
03489             140.00    -2600.00
03490             140.00    -2400.00
03491             100.00    -2600.00
03492             100.00    -2200.00
03493              80.00    -2000.00
03494             100.00    -2000.00
03495             100.00    -1400.00
03496             100.00    -1400.00
03497             100.00    -1200.00
03498              80.00    -1000.00
03499              80.00     -800.00
03500              80.00     -600.00
03501              80.00     -400.00
03502              80.00     -400.00
03503              80.00     -200.00
03504              80.00      200.00
03505              60.00      400.00
03506              80.00      400.00
03507             160.00      600.00
03508             160.00      600.00
03509             140.00     1000.00
03510             100.00     1000.00
03511             100.00     1200.00
03512             100.00     1400.00
03513             240.00     1800.00
03514             840.00     2000.00
03515             860.00     2000.00
03516            -100.00     2200.00
03517            -900.00     2200.00
03518           -1120.00     2200.00
03519            -500.00     3000.00
03520             780.00     3000.00
03521              80.00     2800.00
03522            -380.00     3400.00
03523             380.00     3000.00
03524            -140.00     3600.00
03525            -220.00     4200.00
03526             100.00     3400.00
03527             -80.00     4400.00
03528             260.00     4200.00
03529            -120.00     4000.00
03530            -220.00     5000.00
03531               0.00     4600.00
03532            -260.00     5000.00
03533              60.00     5400.00
03534             -80.00     5000.00
03535            -100.00     5800.00
03536             -20.00     5400.00
03537            -180.00     5800.00
03538             -20.00     6000.00
03539            -140.00     5800.00
03540            -120.00     6400.00
03541            -120.00     6000.00
03542            -100.00     6600.00
03543            -140.00     6600.00
03544            -260.00     6600.00
03545             -80.00     7000.00
03546            -100.00     6800.00
03547            -140.00     7000.00
03548            -140.00     7000.00
03549            -160.00     7600.00
03550            -220.00     7400.00
03551            -160.00     7600.00
03552            -140.00     7800.00
03553            -220.00     7600.00
03554            -160.00     8000.00
03555            -220.00     8200.00
03556            -180.00     8200.00
03557            -180.00     8200.00
03558            -160.00     8400.00
03559            -220.00     8600.00
03560            -220.00     8600.00
03561            -180.00     8600.00
03562            -240.00     8600.00
03563            -180.00     9000.00
03564            -220.00     9000.00
03565            -240.00     9000.00
03566            -240.00     9200.00
03567            -180.00     9200.00
03568            -240.00     9200.00
03569            -240.00     9200.00
03570            -220.00     9400.00
03571            -260.00     9400.00
03572            -240.00     9400.00
03573            -240.00     9800.00
03574            -260.00     9600.00
03575            -240.00     9600.00
03576            -220.00     9800.00
03577            -240.00     9800.00
03578            -260.00     9800.00
03579            -260.00     9800.00
03580            -260.00     9800.00
03581            -240.00     9800.00
03582            -240.00    10000.00
03583            -260.00    10000.00
03584            -260.00     9800.00
03585            -260.00    10000.00
03586            -260.00    10000.00
03587            -260.00     9800.00
03588            -260.00    10000.00
03589            -240.00    10000.00
03590            -260.00     9800.00
03591            -260.00    10000.00
03592            -260.00     9800.00
03593            -300.00     9800.00
03594            -260.00     9800.00
03595            -260.00     9800.00
03596            -260.00    10000.00
03597            -260.00     9800.00
03598            -280.00    10000.00
03599            -260.00     9800.00
03600            -260.00     9600.00
03601            -260.00     9600.00
03602            -260.00     9400.00
03603            -260.00     9400.00
03604            -260.00     9400.00
03605            -260.00     9400.00
03606            -280.00     9200.00
03607            -280.00     9200.00
03608            -260.00     9200.00
03609            -260.00     9200.00
03610            -260.00     9000.00
03611            -260.00     9000.00
03612            -260.00     8800.00
03613            -260.00     8600.00
03614            -260.00     8600.00
03615            -260.00     8600.00
03616            -260.00     8400.00
03617            -260.00     8600.00
03618            -260.00     8200.00
03619            -260.00     8200.00
03620            -260.00     8200.00
03621            -240.00     8000.00
03622            -240.00     7800.00
03623            -240.00     7800.00
03624            -240.00     7600.00
03625            -260.00     7600.00
03626            -240.00     7400.00
03627            -240.00     7200.00
03628            -240.00     7400.00
03629            -220.00     7000.00
03630            -240.00     6800.00
03631            -240.00     6800.00
03632            -220.00     6600.00
03633            -240.00     6600.00
03634            -220.00     6200.00
03635            -220.00     6200.00
03636            -220.00     6200.00
03637            -220.00     5800.00
03638            -220.00     5800.00
03639            -220.00     5800.00
03640            -220.00     5400.00
03641            -180.00     5600.00
03642            -160.00     5200.00
03643            -180.00     5000.00
03644            -180.00     4800.00
03645            -180.00     4600.00
03646            -160.00     4400.00
03647            -160.00     4400.00
03648            -160.00     4200.00
03649            -160.00     4000.00
03650            -160.00     3800.00
03651            -160.00     3800.00
03652            -160.00     3600.00
03653            -140.00     3200.00
03654            -140.00     3000.00
03655            -120.00     3000.00
03656            -140.00     2800.00
03657            -140.00     2600.00
03658            -140.00     2400.00
03659            -120.00     2200.00
03660            -100.00     2000.00
03661            -100.00     2000.00
03662            -100.00     1600.00
03663            -100.00     1400.00
03664            -100.00     1200.00
03665            -100.00     1000.00
03666            -100.00     1000.00
03667             -80.00      800.00
03668             -80.00      600.00
03669             -80.00      400.00
03670             -60.00      200.00
03671             -60.00      200.00
03672             -40.00     -200.00
03673               0.00     -200.00
03674              60.00     -400.00
03675              80.00     -600.00
03676              60.00     -800.00
03677              40.00    -1000.00
03678              20.00    -1000.00
03679              40.00    -1200.00
03680              80.00    -1400.00
03681             300.00    -1600.00
03682             780.00    -2000.00
03683             620.00    -2400.00
03684            -220.00    -2200.00
03685            -700.00    -2600.00
03686            -740.00    -2600.00
03687            -560.00    -2400.00
03688             400.00    -3000.00
03689             300.00    -3400.00
03690            -160.00    -3000.00
03691             300.00    -3600.00
03692             100.00    -3400.00
03693              40.00    -3400.00
03694             180.00    -4200.00
03695             -20.00    -4000.00
03696             320.00    -4400.00
03697             180.00    -4600.00
03698            -100.00    -4600.00
03699              80.00    -5000.00
03700               0.00    -4800.00
03701             140.00    -5400.00
03702             180.00    -5200.00
03703             120.00    -5400.00
03704              60.00    -5800.00
03705             140.00    -5400.00
03706             220.00    -6000.00
03707              60.00    -6200.00
03708             160.00    -6200.00
03709             200.00    -6200.00
03710             100.00    -6200.00
03711             160.00    -6600.00
03712             140.00    -6600.00
03713             140.00    -6800.00
03714             220.00    -7000.00
03715             220.00    -7000.00
03716             160.00    -7400.00
03717             160.00    -7400.00
03718             220.00    -7600.00
03719             180.00    -7600.00
03720             180.00    -7800.00
03721             220.00    -7800.00
03722             160.00    -8000.00
03723             180.00    -8200.00
03724             220.00    -8200.00
03725             220.00    -8600.00
03726             180.00    -8400.00
03727             220.00    -8600.00
03728             220.00    -8600.00
03729             200.00    -8800.00
03730             220.00    -8800.00
03731             220.00    -9000.00
03732             220.00    -9000.00
03733             220.00    -9000.00
03734             220.00    -9200.00
03735             220.00    -9200.00
03736             260.00    -9200.00
03737             260.00    -9200.00
03738             220.00    -9400.00
03739             220.00    -9400.00
03740             220.00    -9400.00
03741             220.00    -9400.00
03742             260.00    -9600.00
03743             260.00    -9600.00
03744             260.00    -9800.00
03745             260.00    -9600.00
03746             260.00    -9800.00
03747             240.00    -9800.00
03748             240.00    -9800.00
03749             260.00    -9800.00
03750             260.00    -9800.00
03751             260.00   -10000.00
03752             260.00    -9800.00
03753             240.00    -9800.00
03754             260.00    -9800.00
03755             260.00    -9800.00
03756             260.00   -10000.00
03757             280.00    -9800.00
03758             300.00    -9800.00
03759             280.00    -9800.00
03760             260.00    -9800.00
03761             260.00    -9800.00
03762             300.00    -9800.00
03763             300.00    -9800.00
03764             280.00    -9800.00
03765             260.00    -9600.00
03766             260.00    -9800.00
03767             260.00    -9600.00
03768             260.00    -9600.00
03769             280.00    -9400.00
03770             300.00    -9400.00
03771             300.00    -9400.00
03772             300.00    -9400.00
03773             260.00    -9400.00
03774             260.00    -9200.00
03775             260.00    -9200.00
03776             280.00    -9000.00
03777             300.00    -9000.00
03778             260.00    -9000.00
03779             260.00    -8800.00
03780             260.00    -8800.00
03781             240.00    -8600.00
03782             260.00    -8600.00
03783             300.00    -8600.00
03784             260.00    -8600.00
03785             260.00    -8400.00
03786             240.00    -8200.00
03787             240.00    -8200.00
03788             240.00    -8200.00
03789             260.00    -7800.00
03790             240.00    -7800.00
03791             260.00    -7600.00
03792             240.00    -7600.00
03793             220.00    -7400.00
03794             240.00    -7400.00
03795             220.00    -7000.00
03796             240.00    -6800.00
03797             220.00    -7000.00
03798             220.00    -6800.00
03799             220.00    -6800.00
03800             220.00    -6600.00
03801             220.00    -6400.00
03802             220.00    -6200.00
03803             220.00    -6000.00
03804             220.00    -6000.00
03805             200.00    -5600.00
03806             180.00    -5800.00
03807             180.00    -5400.00
03808             180.00    -5400.00
03809             180.00    -5200.00
03810             180.00    -5000.00
03811             180.00    -5000.00
03812             180.00    -4600.00
03813             160.00    -4600.00
03814             160.00    -4400.00
03815             180.00    -4200.00
03816             160.00    -4200.00
03817             160.00    -3800.00
03818             140.00    -3600.00
03819             140.00    -3600.00
03820             140.00    -3400.00
03821             140.00    -3000.00
03822             140.00    -3000.00
03823             140.00    -2600.00
03824             140.00    -2600.00
03825             100.00    -2400.00
03826             100.00    -2200.00
03827             100.00    -2000.00
03828             100.00    -2000.00
03829             100.00    -1800.00
03830             100.00    -1400.00
03831              80.00    -1400.00
03832             100.00    -1200.00
03833              80.00     -800.00
03834              80.00     -800.00
03835              80.00     -600.00
03836              80.00     -400.00
03837              60.00     -200.00
03838              60.00      200.00
03839              60.00      200.00
03840              80.00      400.00
03841             120.00      600.00
03842             160.00      600.00
03843             140.00      800.00
03844             140.00     1000.00
03845             100.00     1200.00
03846             100.00     1400.00
03847             140.00     1400.00
03848             540.00     1800.00
03849            1020.00     2000.00
03850             420.00     2000.00
03851            -620.00     2200.00
03852           -1040.00     2200.00
03853           -1000.00     2600.00
03854             240.00     3000.00
03855             660.00     3000.00
03856            -420.00     3000.00
03857              80.00     3200.00
03858             240.00     3200.00
03859            -380.00     4000.00
03860              60.00     3600.00
03861             -20.00     3800.00
03862             100.00     4600.00
03863             160.00     3800.00
03864            -320.00     4600.00
03865             -20.00     5000.00
03866            -160.00     4600.00
03867            -100.00     5400.00
03868              80.00     5000.00
03869            -160.00     5400.00
03870               0.00     5800.00
03871            -160.00     5400.00
03872            -100.00     5800.00
03873             -40.00     5800.00
03874            -160.00     6200.00
03875             -80.00     6200.00
03876            -120.00     6200.00
03877             -80.00     6800.00
03878            -240.00     6200.00
03879            -160.00     7000.00
03880             -60.00     7000.00
03881            -120.00     7000.00
03882            -140.00     7200.00
03883            -160.00     7400.00
03884            -160.00     7600.00
03885            -180.00     7400.00
03886            -120.00     7800.00
03887            -220.00     7800.00
03888            -160.00     7800.00
03889            -160.00     8200.00
03890            -220.00     8200.00
03891            -160.00     8400.00
03892            -160.00     8400.00
03893            -180.00     8400.00
03894            -240.00     8600.00
03895            -200.00     8600.00
03896            -220.00     8600.00
03897            -200.00     8600.00
03898            -180.00     9000.00
03899            -240.00     9200.00
03900            -240.00     9200.00
03901            -220.00     9200.00
03902            -180.00     9200.00
03903            -240.00     9400.00
03904            -200.00     9400.00
03905            -240.00     9400.00
03906            -240.00     9400.00
03907            -240.00     9600.00
03908            -260.00     9800.00
03909            -260.00     9800.00
03910            -240.00     9800.00
03911            -220.00     9800.00
03912            -260.00     9800.00
03913            -260.00     9800.00
03914            -240.00     9800.00
03915            -260.00     9800.00
03916            -260.00    10000.00
03917            -240.00     9800.00
03918            -260.00    10000.00
03919            -260.00    10000.00
03920            -260.00    10000.00
03921            -260.00    10000.00
03922            -260.00    10000.00
03923            -260.00    10200.00
03924            -260.00     9800.00
03925            -280.00    10000.00
03926            -260.00     9800.00
03927            -300.00    10000.00
03928            -300.00     9800.00
03929            -260.00     9800.00
03930            -260.00    10000.00
03931            -260.00    10000.00
03932            -280.00     9800.00
03933            -280.00     9800.00
03934            -260.00     9800.00
03935            -260.00     9800.00
03936            -280.00     9600.00
03937            -260.00     9400.00
03938            -260.00     9600.00
03939            -260.00     9400.00
03940            -280.00     9400.00
03941            -280.00     9400.00
03942            -260.00     9200.00
03943            -260.00     9200.00
03944            -260.00     9000.00
03945            -260.00     9000.00
03946            -280.00     9000.00
03947            -260.00     8800.00
03948            -260.00     8800.00
03949            -260.00     8600.00
03950            -260.00     8600.00
03951            -260.00     8400.00
03952            -260.00     8400.00
03953            -260.00     8400.00
03954            -260.00     8200.00
03955            -260.00     8000.00
03956            -240.00     7800.00
03957            -240.00     7800.00
03958            -240.00     7800.00
03959            -260.00     7600.00
03960            -260.00     7400.00
03961            -240.00     7200.00
03962            -240.00     7400.00
03963            -220.00     7000.00
03964            -220.00     7000.00
03965            -220.00     6800.00
03966            -240.00     6800.00
03967            -220.00     6600.00
03968            -220.00     6400.00
03969            -220.00     6200.00
03970            -220.00     6200.00
03971            -180.00     6000.00
03972            -180.00     5800.00
03973            -220.00     5800.00
03974            -220.00     5400.00
03975            -180.00     5400.00
03976            -160.00     5200.00
03977            -180.00     5000.00
03978            -180.00     5000.00
03979            -180.00     4800.00
03980            -180.00     4600.00
03981            -180.00     4400.00
03982            -160.00     4200.00
03983            -160.00     4200.00
03984            -160.00     4000.00
03985            -160.00     3800.00
03986            -140.00     3600.00
03987            -160.00     3600.00
03988            -140.00     3200.00
03989            -120.00     3000.00
03990            -140.00     2800.00
03991            -120.00     2800.00
03992            -140.00     2400.00
03993            -140.00     2200.00
03994            -140.00     2200.00
03995            -100.00     2000.00
03996            -100.00     1800.00
03997            -100.00     1600.00
03998            -100.00     1200.00
03999            -100.00     1200.00
04000            -100.00     1000.00
04001            -100.00     1000.00
04002             -80.00      600.00
04003             -80.00      400.00
04004             -60.00      200.00
04005             -60.00      200.00
04006             -60.00     -200.00
04007             -60.00     -200.00
04008              20.00     -400.00
04009              80.00     -600.00
04010              80.00     -800.00
04011              20.00     -800.00
04012              20.00    -1000.00
04013              20.00    -1200.00
04014              40.00    -1400.00
04015             140.00    -1600.00
04016             560.00    -1800.00
04017             820.00    -2200.00
04018             180.00    -2400.00
04019            -540.00    -2600.00
04020            -720.00    -2800.00
04021            -740.00    -2600.00
04022             -80.00    -2600.00
04023             580.00    -3400.00
04024             -80.00    -3000.00
04025              60.00    -3400.00
04026             300.00    -4000.00
04027             -20.00    -3400.00
04028             180.00    -4000.00
04029              20.00    -4200.00
04030             140.00    -4200.00
04031             380.00    -4600.00
04032             -20.00    -4600.00
04033               0.00    -4800.00
04034              60.00    -4600.00
04035              20.00    -5000.00
04036             180.00    -5200.00
04037             160.00    -5200.00
04038              80.00    -5800.00
04039              60.00    -5800.00
04040             220.00    -5800.00
04041             160.00    -6000.00
04042              60.00    -6200.00
04043             240.00    -6200.00
04044             140.00    -6600.00
04045             140.00    -6600.00
04046             160.00    -6800.00
04047             100.00    -6800.00
04048             160.00    -7200.00
04049             220.00    -7000.00
04050             180.00    -7200.00
04051             140.00    -7400.00
04052             200.00    -7400.00
04053             200.00    -7600.00
04054             160.00    -7800.00
04055             180.00    -7800.00
04056             160.00    -7800.00
04057             160.00    -8200.00
04058             220.00    -8200.00
04059             220.00    -8200.00
04060             180.00    -8400.00
04061             220.00    -8600.00
04062             220.00    -8600.00
04063             220.00    -8600.00
04064             220.00    -8800.00
04065             220.00    -8800.00
04066             220.00    -9000.00
04067             220.00    -9000.00
04068             220.00    -9200.00
04069             220.00    -9200.00
04070             240.00    -9200.00
04071             260.00    -9400.00
04072             240.00    -9400.00
04073             220.00    -9400.00
04074             220.00    -9400.00
04075             220.00    -9600.00
04076             240.00    -9400.00
04077             260.00    -9800.00
04078             260.00    -9800.00
04079             260.00    -9800.00
04080             240.00    -9800.00
04081             240.00    -9800.00
04082             240.00    -9800.00
04083             260.00    -9800.00
04084             260.00    -9800.00
04085             260.00    -9800.00
04086             260.00   -10000.00
04087             260.00    -9800.00
04088             260.00    -9800.00
04089             260.00   -10000.00
04090             280.00   -10000.00
04091             260.00    -9800.00
04092             300.00    -9800.00
04093             260.00    -9800.00
04094             260.00    -9800.00
04095             260.00    -9800.00
04096             260.00    -9800.00
04097             300.00    -9800.00
04098             300.00    -9800.00
04099             300.00    -9600.00
04100             260.00    -9600.00
04101             260.00    -9600.00
04102             280.00    -9600.00
04103             260.00    -9400.00
04104             300.00    -9400.00
04105             300.00    -9400.00
04106             300.00    -9400.00
04107             260.00    -9400.00
04108             240.00    -9200.00
04109             260.00    -9200.00
04110             260.00    -9200.00
04111             300.00    -9000.00
04112             300.00    -9000.00
04113             260.00    -9000.00
04114             260.00    -8800.00
04115             260.00    -9000.00
04116             260.00    -8600.00
04117             260.00    -8600.00
04118             300.00    -8400.00
04119             260.00    -8600.00
04120             240.00    -8200.00
04121             240.00    -8200.00
04122             240.00    -8200.00
04123             240.00    -7800.00
04124             260.00    -7800.00
04125             240.00    -7600.00
04126             240.00    -7600.00
04127             240.00    -7200.00
04128             220.00    -7200.00
04129             220.00    -7200.00
04130             220.00    -7000.00
04131             240.00    -7000.00
04132             220.00    -7000.00
04133             220.00    -6600.00
04134             220.00    -6600.00
04135             200.00    -6600.00
04136             220.00    -6400.00
04137             220.00    -6200.00
04138             220.00    -6000.00
04139             220.00    -6000.00
04140             180.00    -5800.00
04141             180.00    -5600.00
04142             180.00    -5400.00
04143             180.00    -5400.00
04144             180.00    -5200.00
04145             180.00    -5000.00
04146             180.00    -5000.00
04147             160.00    -4600.00
04148             160.00    -4400.00
04149             160.00    -4400.00
04150             160.00    -4200.00
04151             160.00    -3800.00
04152             160.00    -3800.00
04153             160.00    -3600.00
04154             160.00    -3400.00
04155             140.00    -3200.00
04156             140.00    -3000.00
04157             140.00    -3000.00
04158             140.00    -2800.00
04159             140.00    -2600.00
04160             120.00    -2200.00
04161             120.00    -2200.00
04162             100.00    -2000.00
04163             100.00    -1800.00
04164              80.00    -1800.00
04165             100.00    -1400.00
04166             100.00    -1200.00
04167              80.00    -1000.00
04168              80.00     -800.00
04169              80.00     -800.00
04170              80.00     -400.00
04171              80.00     -400.00
04172              80.00     -200.00
04173              60.00        0.00
04174              80.00      200.00
04175              80.00      400.00
04176             160.00      600.00
04177             160.00      600.00
04178             140.00     1000.00
04179             120.00     1000.00
04180             100.00     1400.00
04181              80.00     1200.00
04182             280.00     1800.00
04183             860.00     1800.00
04184             860.00     2000.00
04185            -160.00     2200.00
04186            -900.00     2200.00
04187           -1120.00     2200.00
04188            -460.00     2800.00
04189             780.00     3000.00
04190              20.00     2800.00
04191            -340.00     3400.00
04192             380.00     3200.00
04193            -180.00     3800.00
04194            -180.00     4000.00
04195              80.00     3600.00
04196             -80.00     4600.00
04197             260.00     4200.00
04198            -140.00     4200.00
04199            -180.00     5200.00
04200             -20.00     4400.00
04201            -260.00     5000.00
04202              80.00     5400.00
04203             -80.00     5000.00
04204            -100.00     5600.00
04205             -40.00     5400.00
04206            -180.00     5800.00
04207             -20.00     6000.00
04208            -140.00     6000.00
04209            -100.00     6400.00
04210            -100.00     6000.00
04211             -80.00     6600.00
04212            -140.00     6600.00
04213            -240.00     6600.00
04214             -80.00     7200.00
04215            -100.00     6800.00
04216            -120.00     7200.00
04217            -140.00     7200.00
04218            -140.00     7600.00
04219            -220.00     7400.00
04220            -140.00     7600.00
04221            -140.00     7800.00
04222            -220.00     7800.00
04223            -160.00     8200.00
04224            -220.00     8000.00
04225            -180.00     8200.00
04226            -160.00     8200.00
04227            -180.00     8400.00
04228            -220.00     8600.00
04229            -220.00     8600.00
04230            -200.00     8800.00
04231            -220.00     8600.00
04232            -180.00     9000.00
04233            -220.00     9000.00
04234            -240.00     9000.00
04235            -240.00     9200.00
04236            -200.00     9200.00
04237            -220.00     9200.00
04238            -220.00     9400.00
04239            -220.00     9400.00
04240            -260.00     9400.00
04241            -260.00     9600.00
04242            -240.00     9600.00
04243            -260.00     9400.00
04244            -240.00     9600.00
04245            -220.00     9800.00
04246            -240.00     9800.00
04247            -260.00     9800.00
04248            -260.00     9800.00
04249            -260.00     9800.00
04250            -240.00    10000.00
04251            -240.00     9800.00
04252            -260.00     9800.00
04253            -260.00    10000.00
04254            -260.00    10000.00
04255            -260.00    10000.00
04256            -260.00    10000.00
04257            -260.00     9800.00
04258            -260.00    10000.00
04259            -260.00    10000.00
04260            -260.00    10000.00
04261            -280.00     9800.00
04262            -280.00     9800.00
04263            -260.00     9800.00
04264            -260.00     9800.00
04265            -260.00     9800.00
04266            -260.00     9600.00
04267            -300.00     9800.00
04268            -260.00     9600.00
04269            -300.00     9600.00
04270            -260.00     9600.00
04271            -260.00     9600.00
04272            -260.00     9400.00
04273            -260.00     9600.00
04274            -260.00     9400.00
04275            -280.00     9400.00
04276            -260.00     9200.00
04277            -260.00     9200.00
04278            -260.00     9200.00
04279            -260.00     9200.00
04280            -260.00     9000.00
04281            -260.00     9000.00
04282            -260.00     8800.00
04283            -240.00     8600.00
04284            -260.00     8600.00
04285            -260.00     8600.00
04286            -260.00     8400.00
04287            -260.00     8400.00
04288            -260.00     8200.00
04289            -240.00     8200.00
04290            -240.00     8000.00
04291            -240.00     8000.00
04292            -240.00     7800.00
04293            -240.00     7600.00
04294            -260.00     7600.00
04295            -240.00     7400.00
04296            -220.00     7200.00
04297            -220.00     7200.00
04298            -240.00     7000.00
04299            -220.00     6800.00
04300            -240.00     6800.00
04301            -240.00     6600.00
04302            -220.00     6600.00
04303            -220.00     6200.00
04304            -220.00     6200.00
04305            -180.00     6000.00
04306            -180.00     6000.00
04307            -220.00     5800.00
04308            -220.00     5600.00
04309            -220.00     5400.00
04310            -180.00     5400.00
04311            -180.00     5200.00
04312            -180.00     5000.00
04313            -180.00     5000.00
04314            -180.00     5000.00
04315            -180.00     4400.00
04316            -180.00     4200.00
04317            -160.00     4200.00
04318            -160.00     4000.00
04319            -160.00     3800.00
04320            -160.00     3800.00
04321            -160.00     3400.00
04322            -160.00     3400.00
04323            -140.00     3000.00
04324            -140.00     3000.00
04325            -120.00     2800.00
04326            -140.00     2400.00
04327            -140.00     2200.00
04328            -140.00     2200.00
04329            -140.00     2000.00
04330            -100.00     1800.00
04331            -100.00     1800.00
04332            -100.00     1600.00
04333            -100.00     1200.00
04334            -100.00     1400.00
04335            -100.00     1000.00
04336            -100.00      800.00
04337             -80.00      600.00
04338             -80.00      400.00
04339             -80.00      200.00
04340             -60.00     -200.00
04341             -60.00     -200.00
04342               0.00     -200.00
04343              60.00     -600.00
04344              80.00     -600.00
04345              60.00     -800.00
04346              60.00    -1000.00
04347              20.00    -1200.00
04348              40.00    -1200.00
04349              80.00    -1400.00
04350             320.00    -1600.00
04351             800.00    -2000.00
04352             560.00    -2200.00
04353            -220.00    -2400.00
04354            -660.00    -2600.00
04355            -740.00    -2600.00
04356            -500.00    -2600.00
04357             440.00    -3000.00
04358             260.00    -3400.00
04359            -160.00    -3000.00
04360             320.00    -3800.00
04361              80.00    -3600.00
04362              60.00    -3600.00
04363             160.00    -4200.00
04364               0.00    -4000.00
04365             340.00    -4200.00
04366             160.00    -4600.00
04367             -80.00    -4600.00
04368              80.00    -5000.00
04369               0.00    -4600.00
04370             140.00    -5400.00
04371             180.00    -5000.00
04372             100.00    -5400.00
04373              60.00    -6000.00
04374             160.00    -5600.00
04375             220.00    -6000.00
04376              60.00    -6000.00
04377             160.00    -6200.00
04378             200.00    -6400.00
04379             100.00    -6400.00
04380             180.00    -6800.00
04381             140.00    -6800.00
04382             100.00    -7000.00
04383             220.00    -7000.00
04384             220.00    -7000.00
04385             140.00    -7400.00
04386             160.00    -7400.00
04387             220.00    -7600.00
04388             160.00    -7800.00
04389             180.00    -7800.00
04390             180.00    -8200.00
04391             160.00    -8200.00
04392             180.00    -8200.00
04393             220.00    -8200.00
04394             220.00    -8400.00
04395             200.00    -8600.00
04396             220.00    -8600.00
04397             200.00    -8600.00
04398             220.00    -8800.00
04399             220.00    -9000.00
04400             220.00    -8800.00
04401             220.00    -9000.00
04402             220.00    -9000.00
04403             220.00    -9200.00
04404             220.00    -9200.00
04405             240.00    -9200.00
04406             240.00    -9400.00
04407             240.00    -9400.00
04408             220.00    -9400.00
04409             220.00    -9400.00
04410             220.00    -9400.00
04411             240.00    -9400.00
04412             260.00    -9600.00
04413             280.00    -9400.00
04414             260.00    -9800.00
04415             260.00    -9800.00
04416             240.00    -9800.00
04417             240.00    -9800.00
04418             260.00    -9800.00
04419             280.00    -9800.00
04420             260.00   -10000.00
04421             260.00    -9800.00
04422             240.00    -9800.00
04423             260.00    -9800.00
04424             260.00   -10000.00
04425             260.00    -9800.00
04426             300.00    -9800.00
04427             300.00    -9800.00
04428             260.00    -9800.00
04429             260.00    -9800.00
04430             260.00    -9800.00
04431             300.00    -9800.00
04432             300.00    -9800.00
04433             300.00    -9600.00
04434             260.00    -9600.00
04435             260.00    -9800.00
04436             260.00    -9400.00
04437             300.00    -9600.00
04438             260.00    -9600.00
04439             300.00    -9400.00
04440             280.00    -9400.00
04441             300.00    -9400.00
04442             260.00    -9200.00
04443             260.00    -9200.00
04444             260.00    -9200.00
04445             280.00    -9200.00
04446             300.00    -9000.00
04447             260.00    -9000.00
04448             260.00    -9000.00
04449             260.00    -8800.00
04450             240.00    -8800.00
04451             260.00    -8600.00
04452             260.00    -8600.00
04453             260.00    -8600.00
04454             260.00    -8200.00
04455             240.00    -8400.00
04456             240.00    -8200.00
04457             240.00    -8200.00
04458             240.00    -7800.00
04459             240.00    -7600.00
04460             240.00    -7800.00
04461             240.00    -7600.00
04462             220.00    -7200.00
04463             220.00    -7200.00
04464             220.00    -7200.00
04465             240.00    -7000.00
04466             240.00    -7000.00
04467             220.00    -6800.00
04468             220.00    -6600.00
04469             220.00    -6600.00
04470             220.00    -6400.00
04471             220.00    -6200.00
04472             220.00    -6200.00
04473             220.00    -6000.00
04474             220.00    -5800.00
04475             200.00    -5400.00
04476             220.00    -5600.00
04477             180.00    -5400.00
04478             220.00    -5200.00
04479             180.00    -5000.00
04480             180.00    -4800.00
04481             160.00    -4600.00
04482             160.00    -4600.00
04483             160.00    -4400.00
04484             160.00    -4200.00
04485             160.00    -4200.00
04486             160.00    -3800.00
04487             160.00    -3600.00
04488             140.00    -3400.00
04489             140.00    -3400.00
04490             140.00    -3000.00
04491             140.00    -3000.00
04492             140.00    -2800.00
04493             140.00    -2600.00
04494             140.00    -2600.00
04495             100.00    -2200.00
04496             100.00    -2000.00
04497             100.00    -2000.00
04498             100.00    -1800.00
04499             100.00    -1400.00
04500             100.00    -1200.00
04501              80.00    -1200.00
04502              80.00    -1000.00
04503              60.00     -800.00
04504              80.00     -600.00
04505              80.00     -400.00
04506              60.00     -400.00
04507              80.00        0.00
04508              80.00      200.00
04509              80.00      400.00
04510             140.00      600.00
04511             160.00      600.00
04512             160.00      600.00
04513             100.00     1000.00
04514             100.00     1000.00
04515              80.00     1200.00
04516             140.00     1400.00
04517             560.00     1800.00
04518            1020.00     2000.00
04519             380.00     2000.00
04520            -640.00     2200.00
04521           -1060.00     2200.00
04522            -960.00     2800.00
04523             300.00     3000.00
04524             620.00     2800.00
04525            -420.00     3200.00
04526             140.00     3400.00
04527             180.00     3400.00
04528            -360.00     4000.00
04529              60.00     3600.00
04530             -60.00     3800.00
04531             140.00     4600.00
04532             140.00     4000.00
04533            -320.00     4800.00
04534               0.00     5000.00
04535            -180.00     4600.00
04536            -100.00     5400.00
04537              60.00     5000.00
04538            -160.00     5400.00
04539               0.00     5600.00
04540            -160.00     5600.00
04541            -100.00     6200.00
04542             -40.00     5800.00
04543            -140.00     6200.00
04544             -80.00     6200.00
04545            -100.00     6200.00
04546             -80.00     6800.00
04547            -240.00     6600.00
04548            -160.00     7000.00
04549             -80.00     7000.00
04550            -100.00     7000.00
04551            -140.00     7200.00
04552            -160.00     7400.00
04553            -160.00     7600.00
04554            -180.00     7400.00
04555            -100.00     7800.00
04556            -160.00     7800.00
04557            -160.00     7800.00
04558            -160.00     8200.00
04559            -220.00     8200.00
04560            -160.00     8400.00
04561            -160.00     8400.00
04562            -180.00     8400.00
04563            -240.00     8400.00
04564            -180.00     8600.00
04565            -220.00     9000.00
04566            -180.00     8800.00
04567            -180.00     9000.00
04568            -240.00     9000.00
04569            -240.00     9200.00
04570            -220.00     9200.00
04571            -180.00     9200.00
04572            -240.00     9400.00
04573            -220.00     9400.00
04574            -240.00     9400.00
04575            -240.00     9400.00
04576            -240.00     9600.00
04577            -240.00     9600.00
04578            -260.00     9600.00
04579            -240.00     9600.00
04580            -240.00     9800.00
04581            -240.00     9600.00
04582            -260.00    10000.00
04583            -260.00     9800.00
04584            -260.00     9800.00
04585            -240.00    10000.00
04586            -240.00     9800.00
04587            -260.00    10000.00
04588            -260.00     9800.00
04589            -260.00    10000.00
04590            -280.00     9800.00
04591            -260.00    10000.00
04592            -260.00    10000.00
04593            -260.00     9800.00
04594            -260.00    10000.00
04595            -280.00     9800.00
04596            -300.00     9800.00
04597            -300.00     9800.00
04598            -260.00     9800.00
04599            -260.00     9800.00
04600            -260.00     9800.00
04601            -300.00     9800.00
04602            -260.00     9800.00
04603            -300.00     9800.00
04604            -260.00     9800.00
04605            -260.00     9600.00
04606            -260.00     9600.00
04607            -260.00     9600.00
04608            -260.00     9400.00
04609            -260.00     9400.00
04610            -280.00     9400.00
04611            -260.00     9400.00
04612            -260.00     9200.00
04613            -240.00     9000.00
04614            -260.00     9000.00
04615            -260.00     9000.00
04616            -260.00     8800.00
04617            -240.00     8800.00
04618            -260.00     8600.00
04619            -260.00     8600.00
04620            -240.00     8600.00
04621            -260.00     8400.00
04622            -240.00     8400.00
04623            -260.00     8200.00
04624            -260.00     8200.00
04625            -240.00     8200.00
04626            -240.00     7800.00
04627            -240.00     7800.00
04628            -240.00     7600.00
04629            -260.00     7400.00
04630            -240.00     7200.00
04631            -240.00     7400.00
04632            -240.00     7000.00
04633            -220.00     7000.00
04634            -240.00     6800.00
04635            -220.00     6800.00
04636            -220.00     6600.00
04637            -220.00     6400.00
04638            -220.00     6200.00
04639            -220.00     6200.00
04640            -220.00     6000.00
04641            -180.00     5800.00
04642            -220.00     5800.00
04643            -220.00     5600.00
04644            -200.00     5400.00
04645            -180.00     5200.00
04646            -180.00     5000.00
04647            -180.00     5000.00
04648            -180.00     4600.00
04649            -180.00     4400.00
04650            -160.00     4400.00
04651            -160.00     4200.00
04652            -160.00     4000.00
04653            -160.00     4000.00
04654            -160.00     3800.00
04655            -160.00     3600.00
04656            -160.00     3400.00
04657            -160.00     3200.00
04658            -140.00     3000.00
04659            -140.00     2800.00
04660            -140.00     2800.00
04661            -140.00     2600.00
04662            -140.00     2200.00
04663            -100.00     2200.00
04664            -120.00     2000.00
04665            -100.00     1800.00
04666            -100.00     1400.00
04667            -100.00     1400.00
04668            -100.00     1200.00
04669            -100.00     1000.00
04670             -80.00      800.00
04671             -80.00      600.00
04672             -60.00      600.00
04673             -60.00      400.00
04674             -60.00      200.00
04675             -40.00      200.00
04676             -40.00     -200.00
04677              20.00     -400.00
04678              80.00     -600.00
04679              80.00     -600.00
04680              40.00    -1000.00
04681              20.00     -800.00
04682              20.00    -1200.00
04683              60.00    -1400.00
04684             160.00    -1400.00
04685             580.00    -1800.00
04686             800.00    -2200.00
04687             160.00    -2200.00
04688            -560.00    -2600.00
04689            -700.00    -2600.00
04690            -740.00    -2400.00
04691             -20.00    -2600.00
04692             580.00    -3200.00
04693            -100.00    -3000.00
04694             100.00    -3400.00
04695             320.00    -3800.00
04696             -60.00    -3400.00
04697             220.00    -4200.00
04698              20.00    -4200.00
04699             160.00    -4000.00
04700             340.00    -4600.00
04701             -60.00    -4600.00
04702               0.00    -5000.00
04703              60.00    -4800.00
04704              60.00    -5000.00
04705             180.00    -5400.00
04706             140.00    -5200.00
04707              80.00    -5800.00
04708              80.00    -5600.00
04709             220.00    -5800.00
04710             140.00    -6200.00
04711              60.00    -6000.00
04712             220.00    -6200.00
04713             100.00    -6600.00
04714             140.00    -6600.00
04715             160.00    -6800.00
04716             100.00    -6800.00
04717             180.00    -7000.00
04718             220.00    -7000.00
04719             160.00    -7200.00
04720             140.00    -7400.00
04721             200.00    -7400.00
04722             160.00    -7600.00
04723             160.00    -7800.00
04724             180.00    -7800.00
04725             180.00    -8000.00
04726             160.00    -8200.00
04727             220.00    -8200.00
04728             220.00    -8400.00
04729             180.00    -8400.00
04730             220.00    -8400.00
04731             220.00    -8600.00
04732             180.00    -8600.00
04733             220.00    -8800.00
04734             240.00    -9000.00
04735             220.00    -9000.00
04736             220.00    -9000.00
04737             220.00    -9000.00
04738             220.00    -9200.00
04739             240.00    -9200.00
04740             260.00    -9400.00
04741             240.00    -9400.00
04742             220.00    -9400.00
04743             240.00    -9400.00
04744             220.00    -9400.00
04745             240.00    -9600.00
04746             260.00    -9400.00
04747             260.00    -9800.00
04748             260.00    -9600.00
04749             260.00    -9600.00
04750             240.00    -9800.00
04751             240.00    -9800.00
04752             260.00    -9800.00
04753             260.00    -9800.00
04754             280.00   -10000.00
04755             300.00    -9800.00
04756             260.00    -9800.00
04757             260.00   -10000.00
04758             260.00    -9800.00
04759             280.00    -9800.00
04760             280.00   -10000.00
04761             300.00    -9800.00
04762             260.00   -10000.00
04763             260.00    -9800.00
04764             260.00    -9800.00
04765             260.00    -9800.00
04766             300.00    -9800.00
04767             260.00    -9800.00
04768             300.00    -9800.00
04769             260.00    -9600.00
04770             260.00    -9600.00
04771             260.00    -9600.00
04772             260.00    -9400.00
04773             280.00    -9400.00
04774             300.00    -9400.00
04775             260.00    -9200.00
04776             260.00    -9400.00
04777             260.00    -9200.00
04778             240.00    -9200.00
04779             260.00    -9200.00
04780             260.00    -9200.00
04781             260.00    -9000.00
04782             260.00    -9000.00
04783             260.00    -9000.00
04784             260.00    -8600.00
04785             240.00    -8600.00
04786             260.00    -8600.00
04787             260.00    -8600.00
04788             260.00    -8400.00
04789             260.00    -8200.00
04790             240.00    -8200.00
04791             240.00    -8200.00
04792             240.00    -7800.00
04793             260.00    -7800.00
04794             240.00    -7600.00
04795             240.00    -7600.00
04796             240.00    -7600.00
04797             220.00    -7200.00
04798             220.00    -7200.00
04799             240.00    -7000.00
04800             220.00    -6800.00
04801             240.00    -6800.00
04802             220.00    -6800.00
04803             220.00    -6600.00
04804             220.00    -6200.00
04805             220.00    -6200.00
04806             220.00    -6000.00
04807             220.00    -6000.00
04808             220.00    -5800.00
04809             200.00    -5800.00
04810             220.00    -5400.00
04811             180.00    -5400.00
04812             200.00    -5200.00
04813             220.00    -5000.00
04814             180.00    -4800.00
04815             180.00    -4600.00
04816             180.00    -4600.00
04817             160.00    -4400.00
04818             160.00    -4200.00
04819             180.00    -4200.00
04820             180.00    -3800.00
04821             160.00    -3800.00
04822             160.00    -3400.00
04823             140.00    -3400.00
04824             160.00    -3200.00
04825             140.00    -3000.00
04826             140.00    -2800.00
04827             140.00    -2600.00
04828             140.00    -2600.00
04829             100.00    -2400.00
04830             100.00    -2200.00
04831             100.00    -2000.00
04832             100.00    -1800.00
04833             100.00    -1600.00
04834             100.00    -1400.00
04835             100.00    -1200.00
04836              80.00    -1000.00
04837              80.00     -800.00
04838              60.00     -600.00
04839              80.00     -600.00
04840              60.00     -200.00
04841              60.00     -200.00
04842              40.00        0.00
04843              60.00      200.00
04844              80.00      400.00
04845             160.00      600.00
04846             160.00      600.00
04847             140.00     1000.00
04848             100.00     1000.00
04849              80.00     1200.00
04850              80.00     1400.00
04851             260.00     1600.00
04852             880.00     1800.00
04853             800.00     2200.00
04854            -180.00     2200.00
04855            -920.00     2200.00
04856           -1120.00     2400.00
04857            -400.00     3000.00
04858             800.00     3000.00
04859             -20.00     2800.00
04860            -320.00     3200.00
04861             380.00     3200.00
04862            -220.00     3800.00
04863            -140.00     4000.00
04864              80.00     3600.00
04865             -60.00     4400.00
04866             260.00     4200.00
04867            -180.00     4200.00
04868            -160.00     5200.00
04869               0.00     4600.00
04870            -240.00     5000.00
04871              80.00     5200.00
04872             -80.00     5000.00
04873             -80.00     5800.00
04874             -60.00     5400.00
04875            -160.00     5800.00
04876               0.00     5800.00
04877            -140.00     6000.00
04878            -100.00     6600.00
04879            -100.00     6000.00
04880             -80.00     6800.00
04881            -120.00     6400.00
04882            -240.00     6600.00
04883             -60.00     7000.00
04884            -100.00     6800.00
04885            -100.00     7200.00
04886            -140.00     7400.00
04887            -140.00     7400.00
04888            -180.00     7600.00
04889            -140.00     7800.00
04890            -160.00     7800.00
04891            -200.00     7800.00
04892            -160.00     8200.00
04893            -220.00     8200.00
04894            -160.00     8400.00
04895            -160.00     8400.00
04896            -160.00     8400.00
04897            -220.00     8600.00
04898            -200.00     8600.00
04899            -200.00     8600.00
04900            -220.00     8800.00
04901            -180.00     9000.00
04902            -240.00     9200.00
04903            -260.00     9000.00
04904            -240.00     9400.00
04905            -180.00     9200.00
04906            -240.00     9400.00
04907            -220.00     9400.00
04908            -220.00     9400.00
04909            -260.00     9400.00
04910            -260.00     9400.00
04911            -240.00     9600.00
04912            -260.00     9600.00
04913            -260.00     9800.00
04914            -220.00     9800.00
04915            -240.00     9800.00
04916            -260.00     9800.00
04917            -260.00    10000.00
04918            -260.00     9800.00
04919            -260.00    10000.00
04920            -260.00    10000.00
04921            -260.00     9800.00
04922            -260.00     9800.00
04923            -260.00     9800.00
04924            -260.00    10000.00
04925            -260.00     9800.00
04926            -260.00     9800.00
04927            -260.00    10000.00
04928            -260.00    10000.00
04929            -260.00    10000.00
04930            -280.00     9800.00
04931            -300.00     9800.00
04932            -280.00     9800.00
04933            -260.00     9800.00
04934            -260.00     9800.00
04935            -260.00     9800.00
04936            -300.00     9800.00
04937            -260.00     9800.00
04938            -260.00     9600.00
04939            -260.00     9800.00
04940            -260.00     9400.00
04941            -280.00     9600.00
04942            -260.00     9400.00
04943            -260.00     9400.00
04944            -260.00     9400.00
04945            -260.00     9400.00
04946            -260.00     9400.00
04947            -260.00     9200.00
04948            -260.00     9000.00
04949            -260.00     9200.00
04950            -260.00     9000.00
04951            -260.00     8800.00
04952            -260.00     8800.00
04953            -240.00     8600.00
04954            -260.00     8600.00
04955            -260.00     8400.00
04956            -260.00     8400.00
04957            -260.00     8200.00
04958            -240.00     8200.00
04959            -260.00     8000.00
04960            -240.00     7800.00
04961            -240.00     7800.00
04962            -260.00     7800.00
04963            -240.00     7600.00
04964            -240.00     7400.00
04965            -240.00     7400.00
04966            -240.00     7000.00
04967            -220.00     7000.00
04968            -240.00     6800.00
04969            -240.00     6800.00
04970            -240.00     6600.00
04971            -240.00     6600.00
04972            -220.00     6400.00
04973            -220.00     6200.00
04974            -220.00     6000.00
04975            -220.00     6000.00
04976            -220.00     5800.00
04977            -240.00     5600.00
04978            -220.00     5400.00
04979            -180.00     5200.00
04980            -180.00     5000.00
04981            -180.00     5000.00
04982            -180.00     5000.00
04983            -180.00     4600.00
04984            -180.00     4400.00
04985            -180.00     4200.00
04986            -160.00     4200.00
04987            -160.00     4200.00
04988            -160.00     3800.00
04989            -160.00     3600.00
04990            -140.00     3600.00
04991            -160.00     3400.00
04992            -140.00     3200.00
04993            -140.00     3000.00
04994            -140.00     2800.00
04995            -100.00     2600.00
04996            -140.00     2400.00
04997            -140.00     2200.00
04998            -100.00     2000.00
04999            -100.00     2000.00
05000            -100.00     1800.00
