Unit:(mV)
                     CH1         CH2
Frequency              ? 299.424 kHz
00001              -8.00     -200.00
00002              -8.00     -280.00
00003               0.00     -360.00
00004              -8.00     -440.00
00005               0.00     -480.00
00006               0.00     -560.00
00007              72.00     -600.00
00008             352.00     -720.00
00009             504.00     -920.00
00010             -96.00    -1000.00
00011           -1016.00     -840.00
00012            -416.00     -880.00
00013             768.00    -1120.00
00014             488.00    -1200.00
00015            -704.00    -1040.00
00016            -112.00    -1440.00
00017             776.00    -1480.00
00018             -88.00    -1080.00
00019            -400.00    -1520.00
00020             288.00    -1880.00
00021             312.00    -1360.00
00022             -56.00    -1520.00
00023             128.00    -2120.00
00024              88.00    -1800.00
00025            -104.00    -1520.00
00026             184.00    -2240.00
00027             288.00    -2120.00
00028               8.00    -1720.00
00029              56.00    -2360.00
00030             176.00    -2320.00
00031             136.00    -1960.00
00032             232.00    -2440.00
00033              72.00    -2600.00
00034              88.00    -2200.00
00035             288.00    -2560.00
00036             192.00    -2680.00
00037              32.00    -2440.00
00038             192.00    -2760.00
00039             256.00    -2840.00
00040             216.00    -2600.00
00041             184.00    -2840.00
00042             152.00    -3000.00
00043             264.00    -2760.00
00044             248.00    -2960.00
00045             176.00    -3160.00
00046             256.00    -3000.00
00047             256.00    -3080.00
00048             168.00    -3280.00
00049             296.00    -3120.00
00050             304.00    -3200.00
00051             200.00    -3400.00
00052             296.00    -3280.00
00053             320.00    -3280.00
00054             232.00    -3480.00
00055             288.00    -3400.00
00056             352.00    -3440.00
00057             296.00    -3560.00
00058             312.00    -3520.00
00059             320.00    -3480.00
00060             296.00    -3640.00
00061             360.00    -3600.00
00062             376.00    -3600.00
00063             336.00    -3720.00
00064             376.00    -3720.00
00065             384.00    -3680.00
00066             352.00    -3800.00
00067             392.00    -3760.00
00068             416.00    -3720.00
00069             384.00    -3800.00
00070             416.00    -3880.00
00071             456.00    -3800.00
00072             408.00    -3880.00
00073             416.00    -3880.00
00074             480.00    -3840.00
00075             472.00    -3880.00
00076             464.00    -3880.00
00077             488.00    -3880.00
00078             480.00    -3920.00
00079             480.00    -3920.00
00080             512.00    -3880.00
00081             520.00    -3880.00
00082             520.00    -3920.00
00083             552.00    -3880.00
00084             544.00    -3920.00
00085             552.00    -3920.00
00086             576.00    -3880.00
00087             568.00    -3840.00
00088             584.00    -3880.00
00089             608.00    -3880.00
00090             608.00    -3840.00
00091             600.00    -3840.00
00092             616.00    -3800.00
00093             632.00    -3800.00
00094             624.00    -3800.00
00095             640.00    -3760.00
00096             640.00    -3760.00
00097             640.00    -3720.00
00098             640.00    -3720.00
00099             640.00    -3680.00
00100             632.00    -3640.00
00101             640.00    -3640.00
00102             656.00    -3600.00
00103             640.00    -3600.00
00104             640.00    -3560.00
00105             632.00    -3520.00
00106             632.00    -3480.00
00107             632.00    -3440.00
00108             632.00    -3400.00
00109             616.00    -3400.00
00110             616.00    -3320.00
00111             608.00    -3280.00
00112             600.00    -3280.00
00113             584.00    -3240.00
00114             592.00    -3160.00
00115             584.00    -3120.00
00116             568.00    -3080.00
00117             552.00    -3080.00
00118             544.00    -3000.00
00119             536.00    -2960.00
00120             536.00    -2920.00
00121             520.00    -2840.00
00122             512.00    -2800.00
00123             504.00    -2720.00
00124             480.00    -2680.00
00125             464.00    -2640.00
00126             456.00    -2600.00
00127             448.00    -2520.00
00128             448.00    -2480.00
00129             432.00    -2440.00
00130             416.00    -2360.00
00131             408.00    -2320.00
00132             384.00    -2240.00
00133             384.00    -2160.00
00134             376.00    -2120.00
00135             360.00    -2040.00
00136             352.00    -2000.00
00137             336.00    -1960.00
00138             320.00    -1840.00
00139             320.00    -1840.00
00140             296.00    -1720.00
00141             296.00    -1680.00
00142             288.00    -1600.00
00143             280.00    -1520.00
00144             264.00    -1520.00
00145             256.00    -1400.00
00146             248.00    -1320.00
00147             232.00    -1280.00
00148             224.00    -1200.00
00149             216.00    -1120.00
00150             208.00    -1080.00
00151             192.00     -920.00
00152             184.00     -920.00
00153             176.00     -880.00
00154             168.00     -760.00
00155             168.00     -680.00
00156             152.00     -600.00
00157             152.00     -560.00
00158             128.00     -480.00
00159             120.00     -440.00
00160             120.00     -360.00
00161             120.00     -240.00
00162              96.00     -200.00
00163              96.00     -120.00
00164              88.00      -40.00
00165              80.00        0.00
00166              88.00      120.00
00167              88.00      160.00
00168             104.00      240.00
00169             104.00      280.00
00170              88.00      360.00
00171              64.00      440.00
00172              56.00      480.00
00173              64.00      560.00
00174             192.00      680.00
00175             576.00      840.00
00176             392.00      880.00
00177            -776.00      760.00
00178           -1016.00      760.00
00179             256.00     1040.00
00180             984.00     1400.00
00181            -480.00     1000.00
00182            -800.00     1040.00
00183             600.00     1360.00
00184             440.00     1600.00
00185            -936.00     1320.00
00186            -152.00     1240.00
00187             776.00     1800.00
00188            -352.00     1680.00
00189            -520.00     1400.00
00190             352.00     1880.00
00191            -192.00     2080.00
00192            -424.00     1680.00
00193             200.00     1840.00
00194            -104.00     2280.00
00195            -320.00     2000.00
00196              72.00     2000.00
00197            -200.00     2440.00
00198            -256.00     2200.00
00199             120.00     2200.00
00200            -288.00     2640.00
00201            -328.00     2360.00
00202             168.00     2320.00
00203            -248.00     2840.00
00204            -448.00     2520.00
00205              56.00     2440.00
00206             -96.00     3080.00
00207            -376.00     2680.00
00208            -136.00     2560.00
00209            -128.00     3280.00
00210            -296.00     2840.00
00211            -248.00     2680.00
00212            -128.00     3320.00
00213            -224.00     3040.00
00214            -328.00     2880.00
00215            -192.00     3440.00
00216            -232.00     3200.00
00217            -312.00     3000.00
00218            -192.00     3440.00
00219            -280.00     3320.00
00220            -360.00     3240.00
00221            -224.00     3480.00
00222            -288.00     3440.00
00223            -344.00     3320.00
00224            -232.00     3600.00
00225            -352.00     3640.00
00226            -400.00     3400.00
00227            -248.00     3680.00
00228            -320.00     3720.00
00229            -416.00     3520.00
00230            -312.00     3720.00
00231            -328.00     3800.00
00232            -448.00     3600.00
00233            -360.00     3760.00
00234            -344.00     3880.00
00235            -456.00     3680.00
00236            -392.00     3800.00
00237            -344.00     3920.00
00238            -472.00     3760.00
00239            -456.00     3800.00
00240            -392.00     3920.00
00241            -464.00     3840.00
00242            -456.00     3880.00
00243            -448.00     3960.00
00244            -512.00     3880.00
00245            -488.00     3880.00
00246            -464.00     3960.00
00247            -528.00     3880.00
00248            -520.00     3840.00
00249            -496.00     3960.00
00250            -552.00     3880.00
00251            -568.00     3880.00
00252            -520.00     3920.00
00253            -584.00     3880.00
00254            -608.00     3840.00
00255            -552.00     3920.00
00256            -584.00     3920.00
00257            -632.00     3800.00
00258            -600.00     3880.00
00259            -616.00     3880.00
00260            -640.00     3800.00
00261            -616.00     3800.00
00262            -632.00     3760.00
00263            -648.00     3720.00
00264            -632.00     3760.00
00265            -640.00     3760.00
00266            -664.00     3680.00
00267            -648.00     3680.00
00268            -640.00     3640.00
00269            -640.00     3600.00
00270            -640.00     3560.00
00271            -640.00     3560.00
00272            -656.00     3520.00
00273            -632.00     3480.00
00274            -616.00     3480.00
00275            -632.00     3400.00
00276            -616.00     3400.00
00277            -608.00     3360.00
00278            -616.00     3320.00
00279            -608.00     3280.00
00280            -584.00     3240.00
00281            -584.00     3160.00
00282            -576.00     3120.00
00283            -552.00     3120.00
00284            -568.00     3040.00
00285            -568.00     3000.00
00286            -544.00     2960.00
00287            -536.00     2920.00
00288            -512.00     2880.00
00289            -512.00     2800.00
00290            -504.00     2760.00
00291            -504.00     2680.00
00292            -480.00     2680.00
00293            -456.00     2600.00
00294            -448.00     2520.00
00295            -440.00     2480.00
00296            -424.00     2440.00
00297            -424.00     2360.00
00298            -416.00     2280.00
00299            -400.00     2280.00
00300            -392.00     2160.00
00301            -376.00     2120.00
00302            -360.00     2040.00
00303            -360.00     2000.00
00304            -352.00     1960.00
00305            -328.00     1880.00
00306            -320.00     1840.00
00307            -312.00     1760.00
00308            -296.00     1680.00
00309            -288.00     1560.00
00310            -280.00     1520.00
00311            -264.00     1480.00
00312            -264.00     1400.00
00313            -256.00     1320.00
00314            -232.00     1280.00
00315            -232.00     1200.00
00316            -208.00     1160.00
00317            -200.00     1080.00
00318            -216.00     1000.00
00319            -192.00      920.00
00320            -184.00      840.00
00321            -168.00      800.00
00322            -168.00      720.00
00323            -160.00      680.00
00324            -152.00      560.00
00325            -144.00      520.00
00326            -128.00      400.00
00327            -120.00      360.00
00328            -120.00      240.00
00329            -104.00      200.00
00330             -88.00      120.00
00331             -88.00       40.00
00332             -72.00      -40.00
00333             -72.00      -80.00
00334             -48.00     -120.00
00335              -8.00     -200.00
00336               0.00     -280.00
00337              -8.00     -400.00
00338              -8.00     -400.00
00339              -8.00     -480.00
00340               0.00     -520.00
00341              64.00     -600.00
00342             344.00     -720.00
00343             512.00     -920.00
00344             -40.00    -1000.00
00345            -992.00     -840.00
00346            -480.00     -880.00
00347             712.00    -1160.00
00348             568.00    -1160.00
00349            -696.00    -1040.00
00350            -184.00    -1400.00
00351             776.00    -1520.00
00352             -24.00    -1080.00
00353            -424.00    -1440.00
00354             240.00    -1880.00
00355             344.00    -1400.00
00356             -64.00    -1440.00
00357             120.00    -2120.00
00358              96.00    -1880.00
00359            -104.00    -1520.00
00360             168.00    -2240.00
00361             304.00    -2120.00
00362               0.00    -1720.00
00363              56.00    -2320.00
00364             176.00    -2360.00
00365             136.00    -2000.00
00366             224.00    -2400.00
00367              72.00    -2600.00
00368              88.00    -2160.00
00369             288.00    -2520.00
00370             208.00    -2680.00
00371              32.00    -2440.00
00372             184.00    -2720.00
00373             256.00    -2840.00
00374             216.00    -2600.00
00375             184.00    -2840.00
00376             152.00    -3040.00
00377             264.00    -2760.00
00378             248.00    -3000.00
00379             184.00    -3160.00
00380             256.00    -3000.00
00381             264.00    -3080.00
00382             176.00    -3320.00
00383             288.00    -3120.00
00384             312.00    -3160.00
00385             200.00    -3400.00
00386             280.00    -3320.00
00387             328.00    -3280.00
00388             248.00    -3480.00
00389             280.00    -3440.00
00390             352.00    -3440.00
00391             304.00    -3560.00
00392             312.00    -3560.00
00393             328.00    -3480.00
00394             296.00    -3640.00
00395             352.00    -3640.00
00396             376.00    -3600.00
00397             336.00    -3720.00
00398             360.00    -3720.00
00399             384.00    -3640.00
00400             344.00    -3760.00
00401             384.00    -3800.00
00402             424.00    -3720.00
00403             384.00    -3840.00
00404             408.00    -3880.00
00405             456.00    -3800.00
00406             408.00    -3880.00
00407             408.00    -3880.00
00408             472.00    -3880.00
00409             472.00    -3880.00
00410             456.00    -3920.00
00411             488.00    -3880.00
00412             480.00    -3920.00
00413             480.00    -3920.00
00414             512.00    -3920.00
00415             512.00    -3880.00
00416             520.00    -3920.00
00417             552.00    -3880.00
00418             544.00    -3920.00
00419             544.00    -3920.00
00420             568.00    -3880.00
00421             568.00    -3880.00
00422             576.00    -3920.00
00423             608.00    -3880.00
00424             608.00    -3840.00
00425             600.00    -3880.00
00426             616.00    -3800.00
00427             632.00    -3800.00
00428             632.00    -3800.00
00429             632.00    -3760.00
00430             640.00    -3760.00
00431             640.00    -3760.00
00432             640.00    -3720.00
00433             648.00    -3680.00
00434             640.00    -3640.00
00435             640.00    -3640.00
00436             648.00    -3600.00
00437             640.00    -3600.00
00438             640.00    -3560.00
00439             640.00    -3480.00
00440             632.00    -3480.00
00441             632.00    -3440.00
00442             632.00    -3440.00
00443             632.00    -3400.00
00444             608.00    -3320.00
00445             608.00    -3280.00
00446             600.00    -3240.00
00447             584.00    -3240.00
00448             592.00    -3160.00
00449             576.00    -3120.00
00450             568.00    -3080.00
00451             568.00    -3040.00
00452             544.00    -3000.00
00453             536.00    -2960.00
00454             536.00    -2920.00
00455             520.00    -2840.00
00456             512.00    -2800.00
00457             504.00    -2760.00
00458             488.00    -2680.00
00459             472.00    -2640.00
00460             464.00    -2600.00
00461             448.00    -2520.00
00462             440.00    -2520.00
00463             424.00    -2400.00
00464             416.00    -2360.00
00465             408.00    -2320.00
00466             392.00    -2280.00
00467             376.00    -2160.00
00468             360.00    -2120.00
00469             376.00    -2120.00
00470             352.00    -2000.00
00471             344.00    -1960.00
00472             320.00    -1880.00
00473             320.00    -1800.00
00474             312.00    -1760.00
00475             296.00    -1680.00
00476             288.00    -1560.00
00477             264.00    -1520.00
00478             256.00    -1480.00
00479             256.00    -1400.00
00480             240.00    -1320.00
00481             224.00    -1240.00
00482             224.00    -1200.00
00483             216.00    -1160.00
00484             200.00    -1080.00
00485             200.00    -1000.00
00486             176.00     -920.00
00487             168.00     -840.00
00488             168.00     -800.00
00489             160.00     -720.00
00490             152.00     -640.00
00491             152.00     -560.00
00492             128.00     -480.00
00493             120.00     -440.00
00494             120.00     -360.00
00495             112.00     -240.00
00496              96.00     -200.00
00497              96.00     -120.00
00498              88.00      -80.00
00499              80.00        0.00
00500              88.00       80.00
00501              88.00      160.00
00502              96.00      240.00
00503             104.00      280.00
00504              88.00      360.00
00505              64.00      440.00
00506              56.00      520.00
00507              56.00      560.00
00508             168.00      680.00
00509             568.00      840.00
00510             440.00      920.00
00511            -704.00      800.00
00512           -1016.00      760.00
00513             168.00     1000.00
00514             984.00     1360.00
00515            -384.00     1080.00
00516            -840.00     1040.00
00517             512.00     1280.00
00518             520.00     1560.00
00519            -896.00     1320.00
00520            -240.00     1240.00
00521             792.00     1800.00
00522            -280.00     1720.00
00523            -576.00     1400.00
00524             336.00     1840.00
00525            -136.00     2120.00
00526            -440.00     1680.00
00527             168.00     1760.00
00528             -64.00     2280.00
00529            -352.00     2000.00
00530              64.00     1960.00
00531            -168.00     2440.00
00532            -288.00     2240.00
00533             120.00     2120.00
00534            -256.00     2640.00
00535            -360.00     2360.00
00536             160.00     2280.00
00537            -200.00     2840.00
00538            -456.00     2560.00
00539              24.00     2440.00
00540             -72.00     3040.00
00541            -384.00     2680.00
00542            -160.00     2520.00
00543            -104.00     3280.00
00544            -288.00     2920.00
00545            -256.00     2640.00
00546            -128.00     3320.00
00547            -216.00     3080.00
00548            -328.00     2800.00
00549            -200.00     3400.00
00550            -224.00     3240.00
00551            -312.00     3040.00
00552            -192.00     3440.00
00553            -280.00     3400.00
00554            -360.00     3240.00
00555            -224.00     3480.00
00556            -280.00     3480.00
00557            -352.00     3320.00
00558            -240.00     3560.00
00559            -352.00     3600.00
00560            -408.00     3440.00
00561            -256.00     3640.00
00562            -312.00     3720.00
00563            -416.00     3520.00
00564            -312.00     3680.00
00565            -328.00     3800.00
00566            -440.00     3600.00
00567            -368.00     3760.00
00568            -344.00     3880.00
00569            -456.00     3720.00
00570            -408.00     3800.00
00571            -328.00     3920.00
00572            -456.00     3800.00
00573            -456.00     3800.00
00574            -392.00     3920.00
00575            -456.00     3880.00
00576            -456.00     3840.00
00577            -440.00     3920.00
00578            -504.00     3880.00
00579            -488.00     3880.00
00580            -464.00     3960.00
00581            -520.00     3880.00
00582            -536.00     3880.00
00583            -488.00     3960.00
00584            -552.00     3920.00
00585            -560.00     3880.00
00586            -520.00     3920.00
00587            -576.00     3880.00
00588            -608.00     3840.00
00589            -552.00     3880.00
00590            -576.00     3880.00
00591            -632.00     3800.00
00592            -600.00     3800.00
00593            -608.00     3880.00
00594            -640.00     3760.00
00595            -624.00     3800.00
00596            -624.00     3800.00
00597            -640.00     3720.00
00598            -624.00     3760.00
00599            -640.00     3760.00
00600            -664.00     3720.00
00601            -648.00     3680.00
00602            -640.00     3640.00
00603            -640.00     3600.00
00604            -640.00     3600.00
00605            -640.00     3600.00
00606            -648.00     3480.00
00607            -632.00     3480.00
00608            -616.00     3480.00
00609            -632.00     3400.00
00610            -616.00     3400.00
00611            -608.00     3360.00
00612            -616.00     3320.00
00613            -608.00     3280.00
00614            -584.00     3240.00
00615            -600.00     3160.00
00616            -584.00     3120.00
00617            -552.00     3120.00
00618            -568.00     3080.00
00619            -552.00     3000.00
00620            -544.00     2960.00
00621            -520.00     2920.00
00622            -512.00     2840.00
00623            -504.00     2800.00
00624            -504.00     2760.00
00625            -504.00     2680.00
00626            -480.00     2680.00
00627            -456.00     2600.00
00628            -456.00     2520.00
00629            -440.00     2480.00
00630            -424.00     2440.00
00631            -424.00     2360.00
00632            -408.00     2320.00
00633            -408.00     2240.00
00634            -392.00     2200.00
00635            -376.00     2120.00
00636            -360.00     2080.00
00637            -360.00     2000.00
00638            -352.00     1960.00
00639            -328.00     1880.00
00640            -320.00     1800.00
00641            -312.00     1720.00
00642            -296.00     1680.00
00643            -288.00     1600.00
00644            -280.00     1560.00
00645            -264.00     1480.00
00646            -256.00     1400.00
00647            -256.00     1360.00
00648            -248.00     1240.00
00649            -232.00     1200.00
00650            -216.00     1160.00
00651            -200.00     1080.00
00652            -200.00     1000.00
00653            -184.00      920.00
00654            -168.00      840.00
00655            -168.00      760.00
00656            -168.00      720.00
00657            -160.00      640.00
00658            -152.00      560.00
00659            -136.00      520.00
00660            -128.00      440.00
00661            -128.00      360.00
00662            -112.00      280.00
00663            -104.00      200.00
00664             -96.00      120.00
00665             -88.00       40.00
00666             -88.00      -40.00
00667             -64.00     -120.00
00668             -40.00     -120.00
00669              -8.00     -200.00
00670               0.00     -280.00
00671               0.00     -360.00
00672              -8.00     -440.00
00673              -8.00     -480.00
00674               0.00     -560.00
00675              64.00     -600.00
00676             320.00     -720.00
00677             512.00     -920.00
00678              24.00    -1000.00
00679            -968.00     -840.00
00680            -544.00     -880.00
00681             648.00    -1120.00
00682             640.00    -1160.00
00683            -680.00    -1040.00
00684            -248.00    -1360.00
00685             760.00    -1560.00
00686              40.00    -1080.00
00687            -440.00    -1440.00
00688             192.00    -1880.00
00689             376.00    -1400.00
00690             -56.00    -1440.00
00691              96.00    -2080.00
00692             104.00    -1880.00
00693            -104.00    -1480.00
00694             136.00    -2200.00
00695             320.00    -2160.00
00696              24.00    -1720.00
00697              40.00    -2280.00
00698             160.00    -2400.00
00699             136.00    -2000.00
00700             224.00    -2360.00
00701              88.00    -2640.00
00702              64.00    -2200.00
00703             280.00    -2480.00
00704             232.00    -2720.00
00705              32.00    -2440.00
00706             168.00    -2680.00
00707             256.00    -2880.00
00708             216.00    -2600.00
00709             184.00    -2840.00
00710             152.00    -3040.00
00711             256.00    -2800.00
00712             256.00    -2920.00
00713             176.00    -3160.00
00714             248.00    -3000.00
00715             264.00    -3080.00
00716             184.00    -3280.00
00717             288.00    -3160.00
00718             320.00    -3160.00
00719             200.00    -3400.00
00720             280.00    -3280.00
00721             328.00    -3280.00
00722             256.00    -3440.00
00723             280.00    -3400.00
00724             352.00    -3400.00
00725             296.00    -3560.00
00726             312.00    -3480.00
00727             328.00    -3520.00
00728             312.00    -3640.00
00729             352.00    -3600.00
00730             384.00    -3600.00
00731             344.00    -3720.00
00732             360.00    -3720.00
00733             384.00    -3640.00
00734             352.00    -3760.00
00735             384.00    -3800.00
00736             416.00    -3720.00
00737             384.00    -3800.00
00738             408.00    -3840.00
00739             456.00    -3800.00
00740             408.00    -3800.00
00741             408.00    -3880.00
00742             472.00    -3840.00
00743             456.00    -3920.00
00744             448.00    -3920.00
00745             480.00    -3880.00
00746             488.00    -3880.00
00747             480.00    -3960.00
00748             512.00    -3880.00
00749             512.00    -3920.00
00750             512.00    -3920.00
00751             552.00    -3880.00
00752             544.00    -3920.00
00753             544.00    -3920.00
00754             568.00    -3880.00
00755             576.00    -3840.00
00756             576.00    -3880.00
00757             608.00    -3880.00
00758             608.00    -3840.00
00759             600.00    -3880.00
00760             616.00    -3800.00
00761             632.00    -3800.00
00762             616.00    -3800.00
00763             640.00    -3800.00
00764             656.00    -3760.00
00765             640.00    -3760.00
00766             640.00    -3720.00
00767             640.00    -3720.00
00768             640.00    -3640.00
00769             640.00    -3640.00
00770             648.00    -3600.00
00771             656.00    -3600.00
00772             648.00    -3560.00
00773             640.00    -3520.00
00774             632.00    -3480.00
00775             632.00    -3480.00
00776             632.00    -3400.00
00777             624.00    -3400.00
00778             608.00    -3360.00
00779             616.00    -3320.00
00780             600.00    -3280.00
00781             584.00    -3200.00
00782             584.00    -3160.00
00783             584.00    -3120.00
00784             568.00    -3080.00
00785             568.00    -3080.00
00786             544.00    -3000.00
00787             536.00    -2960.00
00788             528.00    -2920.00
00789             520.00    -2840.00
00790             512.00    -2800.00
00791             504.00    -2760.00
00792             480.00    -2720.00
00793             472.00    -2640.00
00794             464.00    -2600.00
00795             456.00    -2520.00
00796             448.00    -2480.00
00797             432.00    -2440.00
00798             416.00    -2360.00
00799             400.00    -2320.00
00800             384.00    -2280.00
00801             384.00    -2200.00
00802             384.00    -2120.00
00803             360.00    -2120.00
00804             344.00    -2000.00
00805             328.00    -1960.00
00806             320.00    -1880.00
00807             320.00    -1840.00
00808             312.00    -1760.00
00809             296.00    -1680.00
00810             280.00    -1640.00
00811             264.00    -1560.00
00812             256.00    -1480.00
00813             256.00    -1400.00
00814             248.00    -1360.00
00815             224.00    -1280.00
00816             216.00    -1200.00
00817             216.00    -1160.00
00818             216.00    -1040.00
00819             192.00    -1000.00
00820             184.00     -920.00
00821             176.00     -880.00
00822             168.00     -800.00
00823             160.00     -720.00
00824             152.00     -680.00
00825             136.00     -560.00
00826             136.00     -520.00
00827             128.00     -440.00
00828             120.00     -360.00
00829             104.00     -280.00
00830             104.00     -200.00
00831              96.00     -160.00
00832              88.00      -80.00
00833              88.00        0.00
00834              88.00       80.00
00835              88.00      200.00
00836             104.00      240.00
00837             104.00      280.00
00838              96.00      360.00
00839              72.00      400.00
00840              64.00      480.00
00841              56.00      560.00
00842             160.00      640.00
00843             544.00      840.00
00844             472.00      920.00
00845            -640.00      800.00
00846           -1016.00      760.00
00847              88.00     1000.00
00848             984.00     1400.00
00849            -280.00     1080.00
00850            -888.00     1000.00
00851             448.00     1280.00
00852             616.00     1560.00
00853            -872.00     1360.00
00854            -344.00     1240.00
00855             800.00     1720.00
00856            -216.00     1720.00
00857            -608.00     1400.00
00858             312.00     1800.00
00859             -96.00     2080.00
00860            -456.00     1720.00
00861             136.00     1800.00
00862             -24.00     2280.00
00863            -360.00     2040.00
00864              48.00     1960.00
00865            -152.00     2440.00
00866            -312.00     2280.00
00867             112.00     2120.00
00868            -224.00     2640.00
00869            -384.00     2440.00
00870             152.00     2280.00
00871            -168.00     2840.00
00872            -488.00     2600.00
00873               0.00     2440.00
00874             -48.00     3040.00
00875            -384.00     2720.00
00876            -168.00     2480.00
00877            -120.00     3240.00
00878            -296.00     2960.00
00879            -264.00     2640.00
00880            -136.00     3320.00
00881            -208.00     3120.00
00882            -328.00     2840.00
00883            -216.00     3400.00
00884            -216.00     3240.00
00885            -312.00     3000.00
00886            -216.00     3440.00
00887            -256.00     3400.00
00888            -360.00     3160.00
00889            -232.00     3480.00
00890            -280.00     3480.00
00891            -360.00     3320.00
00892            -232.00     3560.00
00893            -336.00     3640.00
00894            -416.00     3440.00
00895            -264.00     3640.00
00896            -296.00     3760.00
00897            -424.00     3520.00
00898            -320.00     3680.00
00899            -312.00     3840.00
00900            -440.00     3600.00
00901            -360.00     3720.00
00902            -328.00     3880.00
00903            -440.00     3720.00
00904            -408.00     3760.00
00905            -344.00     3960.00
00906            -456.00     3800.00
00907            -464.00     3800.00
00908            -392.00     3920.00
00909            -456.00     3880.00
00910            -456.00     3880.00
00911            -448.00     3960.00
00912            -504.00     3880.00
00913            -488.00     3880.00
00914            -456.00     3960.00
00915            -520.00     3920.00
00916            -536.00     3880.00
00917            -488.00     3960.00
00918            -544.00     3880.00
00919            -568.00     3880.00
00920            -520.00     3920.00
00921            -576.00     3920.00
00922            -608.00     3800.00
00923            -552.00     3920.00
00924            -576.00     3880.00
00925            -632.00     3840.00
00926            -592.00     3840.00
00927            -608.00     3840.00
00928            -640.00     3800.00
00929            -616.00     3800.00
00930            -616.00     3760.00
00931            -648.00     3720.00
00932            -640.00     3760.00
00933            -640.00     3720.00
00934            -664.00     3680.00
00935            -648.00     3640.00
00936            -632.00     3680.00
00937            -640.00     3600.00
00938            -640.00     3600.00
00939            -640.00     3600.00
00940            -656.00     3480.00
00941            -640.00     3480.00
00942            -616.00     3480.00
00943            -632.00     3400.00
00944            -632.00     3400.00
00945            -608.00     3360.00
00946            -616.00     3320.00
00947            -608.00     3280.00
00948            -584.00     3240.00
00949            -600.00     3200.00
00950            -584.00     3120.00
00951            -552.00     3120.00
00952            -560.00     3080.00
00953            -568.00     2960.00
00954            -544.00     2960.00
00955            -528.00     2920.00
00956            -520.00     2880.00
00957            -512.00     2800.00
00958            -504.00     2760.00
00959            -504.00     2680.00
00960            -472.00     2680.00
00961            -456.00     2600.00
00962            -456.00     2520.00
00963            -440.00     2480.00
00964            -432.00     2440.00
00965            -424.00     2360.00
00966            -408.00     2320.00
00967            -392.00     2240.00
00968            -392.00     2200.00
00969            -376.00     2120.00
00970            -360.00     2120.00
00971            -352.00     2040.00
00972            -344.00     1960.00
00973            -328.00     1880.00
00974            -320.00     1840.00
00975            -312.00     1720.00
00976            -288.00     1680.00
00977            -288.00     1640.00
00978            -280.00     1560.00
00979            -264.00     1480.00
00980            -256.00     1400.00
00981            -256.00     1320.00
00982            -240.00     1280.00
00983            -232.00     1200.00
00984            -216.00     1160.00
00985            -200.00     1080.00
00986            -200.00     1000.00
00987            -192.00      960.00
00988            -168.00      840.00
00989            -168.00      800.00
00990            -168.00      720.00
00991            -160.00      640.00
00992            -152.00      600.00
00993            -136.00      520.00
00994            -128.00      400.00
00995            -120.00      360.00
00996            -104.00      280.00
00997            -104.00      200.00
00998             -96.00      120.00
00999             -96.00       80.00
01000             -88.00        0.00
01001             -72.00      -80.00
01002             -40.00     -120.00
01003             -24.00     -200.00
01004               0.00     -280.00
01005              -8.00     -360.00
01006             -16.00     -440.00
01007              -8.00     -440.00
01008               0.00     -560.00
01009              56.00     -600.00
01010             296.00     -720.00
01011             512.00     -920.00
01012              72.00    -1000.00
01013            -936.00     -880.00
01014            -608.00     -840.00
01015             584.00    -1160.00
01016             712.00    -1160.00
01017            -648.00    -1080.00
01018            -296.00    -1320.00
01019             736.00    -1600.00
01020             104.00    -1160.00
01021            -448.00    -1400.00
01022             152.00    -1880.00
01023             384.00    -1480.00
01024             -48.00    -1400.00
01025              88.00    -2080.00
01026             128.00    -1960.00
01027            -104.00    -1480.00
01028             120.00    -2160.00
01029             328.00    -2160.00
01030              24.00    -1720.00
01031              40.00    -2280.00
01032             152.00    -2400.00
01033             136.00    -1960.00
01034             232.00    -2320.00
01035              96.00    -2640.00
01036              64.00    -2200.00
01037             264.00    -2480.00
01038             248.00    -2760.00
01039              32.00    -2440.00
01040             168.00    -2640.00
01041             248.00    -2880.00
01042             224.00    -2600.00
01043             192.00    -2800.00
01044             152.00    -3080.00
01045             256.00    -2760.00
01046             264.00    -2920.00
01047             184.00    -3160.00
01048             248.00    -3000.00
01049             280.00    -3040.00
01050             168.00    -3280.00
01051             280.00    -3120.00
01052             320.00    -3160.00
01053             216.00    -3400.00
01054             280.00    -3320.00
01055             336.00    -3280.00
01056             256.00    -3480.00
01057             264.00    -3440.00
01058             344.00    -3400.00
01059             312.00    -3560.00
01060             296.00    -3520.00
01061             328.00    -3480.00
01062             312.00    -3640.00
01063             344.00    -3640.00
01064             384.00    -3560.00
01065             344.00    -3720.00
01066             352.00    -3720.00
01067             392.00    -3640.00
01068             352.00    -3800.00
01069             376.00    -3800.00
01070             416.00    -3720.00
01071             384.00    -3800.00
01072             408.00    -3880.00
01073             456.00    -3800.00
01074             408.00    -3840.00
01075             408.00    -3880.00
01076             472.00    -3840.00
01077             472.00    -3880.00
01078             448.00    -3920.00
01079             488.00    -3880.00
01080             488.00    -3880.00
01081             480.00    -3920.00
01082             504.00    -3880.00
01083             512.00    -3880.00
01084             520.00    -3920.00
01085             552.00    -3880.00
01086             544.00    -3920.00
01087             544.00    -3920.00
01088             568.00    -3920.00
01089             576.00    -3840.00
01090             568.00    -3920.00
01091             600.00    -3880.00
01092             616.00    -3840.00
01093             600.00    -3840.00
01094             608.00    -3880.00
01095             632.00    -3800.00
01096             632.00    -3800.00
01097             640.00    -3800.00
01098             648.00    -3720.00
01099             640.00    -3760.00
01100             640.00    -3720.00
01101             648.00    -3720.00
01102             640.00    -3640.00
01103             640.00    -3640.00
01104             656.00    -3640.00
01105             648.00    -3600.00
01106             640.00    -3560.00
01107             640.00    -3520.00
01108             632.00    -3480.00
01109             632.00    -3480.00
01110             640.00    -3440.00
01111             632.00    -3400.00
01112             616.00    -3360.00
01113             616.00    -3320.00
01114             600.00    -3280.00
01115             600.00    -3240.00
01116             584.00    -3160.00
01117             584.00    -3120.00
01118             576.00    -3120.00
01119             576.00    -3040.00
01120             552.00    -3000.00
01121             536.00    -2960.00
01122             520.00    -2920.00
01123             528.00    -2840.00
01124             512.00    -2800.00
01125             504.00    -2720.00
01126             488.00    -2680.00
01127             472.00    -2640.00
01128             464.00    -2600.00
01129             456.00    -2520.00
01130             448.00    -2480.00
01131             424.00    -2440.00
01132             424.00    -2360.00
01133             408.00    -2320.00
01134             392.00    -2280.00
01135             376.00    -2200.00
01136             360.00    -2120.00
01137             360.00    -2080.00
01138             352.00    -2040.00
01139             344.00    -1960.00
01140             320.00    -1880.00
01141             312.00    -1800.00
01142             304.00    -1720.00
01143             296.00    -1680.00
01144             288.00    -1600.00
01145             264.00    -1520.00
01146             256.00    -1480.00
01147             248.00    -1400.00
01148             248.00    -1360.00
01149             224.00    -1240.00
01150             224.00    -1240.00
01151             216.00    -1120.00
01152             216.00    -1080.00
01153             192.00    -1000.00
01154             184.00     -920.00
01155             168.00     -880.00
01156             168.00     -800.00
01157             160.00     -680.00
01158             152.00     -640.00
01159             136.00     -560.00
01160             128.00     -520.00
01161             120.00     -440.00
01162             120.00     -360.00
01163             120.00     -280.00
01164             120.00     -240.00
01165              96.00     -160.00
01166              88.00      -80.00
01167              88.00        0.00
01168              88.00       80.00
01169              88.00      160.00
01170              96.00      240.00
01171             104.00      280.00
01172              96.00      360.00
01173              64.00      400.00
01174              64.00      520.00
01175              56.00      560.00
01176             152.00      640.00
01177             528.00      840.00
01178             504.00      920.00
01179            -552.00      840.00
01180           -1016.00      720.00
01181               0.00      920.00
01182             984.00     1360.00
01183            -168.00     1120.00
01184            -920.00     1000.00
01185             352.00     1240.00
01186             688.00     1560.00
01187            -832.00     1360.00
01188            -416.00     1240.00
01189             792.00     1720.00
01190            -136.00     1760.00
01191            -632.00     1400.00
01192             280.00     1720.00
01193             -40.00     2120.00
01194            -472.00     1720.00
01195             104.00     1720.00
01196              24.00     2280.00
01197            -376.00     2040.00
01198              24.00     1960.00
01199            -120.00     2440.00
01200            -328.00     2280.00
01201              96.00     2120.00
01202            -192.00     2600.00
01203            -408.00     2440.00
01204             128.00     2240.00
01205            -128.00     2800.00
01206            -488.00     2640.00
01207             -24.00     2360.00
01208             -32.00     3000.00
01209            -376.00     2760.00
01210            -184.00     2480.00
01211            -104.00     3240.00
01212            -280.00     3000.00
01213            -264.00     2600.00
01214            -152.00     3280.00
01215            -200.00     3160.00
01216            -344.00     2800.00
01217            -224.00     3400.00
01218            -208.00     3280.00
01219            -312.00     3000.00
01220            -216.00     3400.00
01221            -248.00     3400.00
01222            -376.00     3160.00
01223            -232.00     3480.00
01224            -264.00     3480.00
01225            -352.00     3320.00
01226            -240.00     3560.00
01227            -320.00     3640.00
01228            -416.00     3440.00
01229            -264.00     3600.00
01230            -288.00     3760.00
01231            -416.00     3480.00
01232            -328.00     3640.00
01233            -304.00     3800.00
01234            -424.00     3640.00
01235            -384.00     3720.00
01236            -328.00     3880.00
01237            -440.00     3720.00
01238            -408.00     3760.00
01239            -328.00     3920.00
01240            -456.00     3800.00
01241            -472.00     3800.00
01242            -392.00     3920.00
01243            -448.00     3840.00
01244            -456.00     3840.00
01245            -440.00     3960.00
01246            -488.00     3880.00
01247            -504.00     3880.00
01248            -464.00     3960.00
01249            -512.00     3920.00
01250            -536.00     3880.00
01251            -488.00     3960.00
01252            -544.00     3960.00
01253            -568.00     3880.00
01254            -520.00     3920.00
01255            -576.00     3880.00
01256            -608.00     3840.00
01257            -552.00     3880.00
01258            -576.00     3880.00
01259            -632.00     3800.00
01260            -608.00     3840.00
01261            -608.00     3880.00
01262            -640.00     3800.00
01263            -616.00     3800.00
01264            -616.00     3800.00
01265            -648.00     3720.00
01266            -640.00     3760.00
01267            -632.00     3760.00
01268            -664.00     3680.00
01269            -656.00     3640.00
01270            -640.00     3680.00
01271            -648.00     3640.00
01272            -640.00     3600.00
01273            -640.00     3560.00
01274            -664.00     3560.00
01275            -648.00     3480.00
01276            -616.00     3480.00
01277            -632.00     3400.00
01278            -632.00     3400.00
01279            -608.00     3400.00
01280            -616.00     3320.00
01281            -616.00     3280.00
01282            -600.00     3240.00
01283            -600.00     3160.00
01284            -584.00     3160.00
01285            -552.00     3120.00
01286            -568.00     3080.00
01287            -568.00     3000.00
01288            -544.00     2960.00
01289            -528.00     2920.00
01290            -520.00     2840.00
01291            -512.00     2800.00
01292            -504.00     2760.00
01293            -488.00     2680.00
01294            -480.00     2680.00
01295            -456.00     2600.00
01296            -456.00     2560.00
01297            -440.00     2520.00
01298            -424.00     2480.00
01299            -416.00     2360.00
01300            -408.00     2320.00
01301            -400.00     2280.00
01302            -392.00     2200.00
01303            -376.00     2120.00
01304            -360.00     2080.00
01305            -352.00     2040.00
01306            -352.00     1960.00
01307            -328.00     1880.00
01308            -320.00     1840.00
01309            -296.00     1720.00
01310            -288.00     1680.00
01311            -296.00     1640.00
01312            -272.00     1560.00
01313            -264.00     1480.00
01314            -256.00     1400.00
01315            -256.00     1360.00
01316            -248.00     1280.00
01317            -224.00     1200.00
01318            -216.00     1160.00
01319            -200.00     1080.00
01320            -200.00     1000.00
01321            -192.00      920.00
01322            -176.00      840.00
01323            -168.00      800.00
01324            -160.00      720.00
01325            -152.00      680.00
01326            -152.00      600.00
01327            -144.00      520.00
01328            -128.00      440.00
01329            -120.00      360.00
01330            -120.00      280.00
01331            -104.00      200.00
01332             -96.00      160.00
01333             -88.00       80.00
01334             -88.00      -40.00
01335             -72.00      -80.00
01336             -56.00     -160.00
01337             -24.00     -200.00
01338               0.00     -280.00
01339               0.00     -360.00
01340              -8.00     -400.00
01341              -8.00     -440.00
01342              -8.00     -520.00
01343              40.00     -600.00
01344             264.00     -680.00
01345             512.00     -920.00
01346             128.00    -1000.00
01347            -896.00     -880.00
01348            -672.00     -840.00
01349             520.00    -1120.00
01350             768.00    -1200.00
01351            -608.00    -1080.00
01352            -360.00    -1320.00
01353             704.00    -1600.00
01354             168.00    -1160.00
01355            -448.00    -1360.00
01356             104.00    -1920.00
01357             416.00    -1480.00
01358             -40.00    -1360.00
01359              72.00    -2040.00
01360             152.00    -2000.00
01361            -104.00    -1400.00
01362              96.00    -2160.00
01363             344.00    -2200.00
01364              32.00    -1720.00
01365              40.00    -2200.00
01366             152.00    -2440.00
01367             136.00    -2000.00
01368             232.00    -2280.00
01369             112.00    -2640.00
01370              64.00    -2200.00
01371             256.00    -2440.00
01372             256.00    -2760.00
01373              32.00    -2440.00
01374             168.00    -2600.00
01375             256.00    -2880.00
01376             232.00    -2600.00
01377             192.00    -2800.00
01378             152.00    -3080.00
01379             248.00    -2800.00
01380             272.00    -2920.00
01381             184.00    -3160.00
01382             232.00    -3040.00
01383             280.00    -3000.00
01384             168.00    -3280.00
01385             264.00    -3160.00
01386             328.00    -3160.00
01387             216.00    -3400.00
01388             256.00    -3320.00
01389             336.00    -3240.00
01390             256.00    -3440.00
01391             264.00    -3440.00
01392             344.00    -3400.00
01393             312.00    -3560.00
01394             296.00    -3560.00
01395             328.00    -3480.00
01396             296.00    -3640.00
01397             336.00    -3640.00
01398             384.00    -3600.00
01399             328.00    -3720.00
01400             352.00    -3760.00
01401             384.00    -3680.00
01402             352.00    -3760.00
01403             368.00    -3800.00
01404             424.00    -3720.00
01405             392.00    -3800.00
01406             408.00    -3880.00
01407             448.00    -3800.00
01408             408.00    -3840.00
01409             400.00    -3880.00
01410             472.00    -3840.00
01411             464.00    -3920.00
01412             448.00    -3920.00
01413             480.00    -3880.00
01414             488.00    -3880.00
01415             472.00    -3960.00
01416             504.00    -3920.00
01417             512.00    -3880.00
01418             512.00    -3920.00
01419             544.00    -3880.00
01420             552.00    -3880.00
01421             544.00    -3920.00
01422             568.00    -3880.00
01423             576.00    -3880.00
01424             576.00    -3880.00
01425             608.00    -3880.00
01426             616.00    -3880.00
01427             600.00    -3880.00
01428             616.00    -3840.00
01429             632.00    -3800.00
01430             616.00    -3800.00
01431             632.00    -3800.00
01432             648.00    -3760.00
01433             640.00    -3720.00
01434             640.00    -3720.00
01435             648.00    -3720.00
01436             640.00    -3640.00
01437             648.00    -3640.00
01438             664.00    -3600.00
01439             664.00    -3600.00
01440             648.00    -3560.00
01441             640.00    -3520.00
01442             640.00    -3480.00
01443             632.00    -3480.00
01444             640.00    -3440.00
01445             632.00    -3400.00
01446             616.00    -3360.00
01447             616.00    -3320.00
01448             600.00    -3240.00
01449             584.00    -3240.00
01450             592.00    -3160.00
01451             584.00    -3120.00
01452             576.00    -3120.00
01453             568.00    -3080.00
01454             552.00    -3000.00
01455             536.00    -2960.00
01456             528.00    -2920.00
01457             536.00    -2880.00
01458             512.00    -2840.00
01459             504.00    -2760.00
01460             488.00    -2720.00
01461             472.00    -2640.00
01462             472.00    -2640.00
01463             448.00    -2520.00
01464             448.00    -2480.00
01465             432.00    -2440.00
01466             416.00    -2360.00
01467             408.00    -2320.00
01468             384.00    -2280.00
01469             384.00    -2200.00
01470             360.00    -2160.00
01471             368.00    -2120.00
01472             352.00    -2040.00
01473             344.00    -1960.00
01474             320.00    -1880.00
01475             312.00    -1800.00
01476             312.00    -1760.00
01477             296.00    -1680.00
01478             288.00    -1640.00
01479             280.00    -1560.00
01480             256.00    -1480.00
01481             248.00    -1400.00
01482             232.00    -1360.00
01483             224.00    -1240.00
01484             224.00    -1240.00
01485             224.00    -1160.00
01486             216.00    -1080.00
01487             192.00    -1000.00
01488             184.00     -920.00
01489             168.00     -880.00
01490             160.00     -800.00
01491             168.00     -720.00
01492             160.00     -680.00
01493             152.00     -560.00
01494             136.00     -520.00
01495             128.00     -440.00
01496             120.00     -360.00
01497             112.00     -280.00
01498             104.00     -200.00
01499              96.00     -120.00
01500              96.00      -80.00
01501              88.00        0.00
01502              88.00       80.00
01503              88.00      120.00
01504             104.00      200.00
01505             120.00      240.00
01506              96.00      320.00
01507              72.00      440.00
01508              56.00      440.00
01509              56.00      560.00
01510             136.00      640.00
01511             504.00      800.00
01512             536.00      920.00
01513            -480.00      840.00
01514           -1016.00      720.00
01515             -88.00     1000.00
01516             984.00     1360.00
01517             -56.00     1160.00
01518            -936.00      960.00
01519             264.00     1200.00
01520             752.00     1560.00
01521            -776.00     1400.00
01522            -488.00     1240.00
01523             776.00     1680.00
01524             -64.00     1800.00
01525            -664.00     1400.00
01526             232.00     1720.00
01527               8.00     2120.00
01528            -488.00     1840.00
01529              64.00     1720.00
01530              56.00     2280.00
01531            -376.00     2120.00
01532               8.00     1880.00
01533             -96.00     2400.00
01534            -344.00     2280.00
01535              88.00     2040.00
01536            -160.00     2600.00
01537            -424.00     2440.00
01538             120.00     2200.00
01539            -104.00     2800.00
01540            -512.00     2680.00
01541             -56.00     2360.00
01542               0.00     3000.00
01543            -376.00     2800.00
01544            -200.00     2440.00
01545             -96.00     3160.00
01546            -264.00     3080.00
01547            -288.00     2600.00
01548            -152.00     3240.00
01549            -192.00     3200.00
01550            -336.00     2800.00
01551            -224.00     3320.00
01552            -200.00     3280.00
01553            -312.00     3000.00
01554            -216.00     3400.00
01555            -232.00     3400.00
01556            -360.00     3160.00
01557            -256.00     3440.00
01558            -264.00     3560.00
01559            -352.00     3320.00
01560            -248.00     3560.00
01561            -320.00     3640.00
01562            -408.00     3440.00
01563            -264.00     3600.00
01564            -280.00     3760.00
01565            -416.00     3520.00
01566            -344.00     3640.00
01567            -296.00     3800.00
01568            -424.00     3640.00
01569            -384.00     3720.00
01570            -320.00     3880.00
01571            -440.00     3720.00
01572            -416.00     3760.00
01573            -328.00     3920.00
01574            -448.00     3840.00
01575            -480.00     3800.00
01576            -400.00     3920.00
01577            -448.00     3880.00
01578            -472.00     3800.00
01579            -424.00     3920.00
01580            -488.00     3880.00
01581            -504.00     3840.00
01582            -456.00     3960.00
01583            -512.00     3960.00
01584            -536.00     3880.00
01585            -488.00     3920.00
01586            -544.00     3920.00
01587            -568.00     3880.00
01588            -520.00     3920.00
01589            -568.00     3920.00
01590            -616.00     3880.00
01591            -560.00     3880.00
01592            -576.00     3920.00
01593            -632.00     3840.00
01594            -608.00     3800.00
01595            -608.00     3880.00
01596            -640.00     3800.00
01597            -624.00     3800.00
01598            -616.00     3800.00
01599            -648.00     3720.00
01600            -640.00     3720.00
01601            -632.00     3760.00
01602            -664.00     3680.00
01603            -656.00     3680.00
01604            -632.00     3640.00
01605            -648.00     3600.00
01606            -640.00     3600.00
01607            -640.00     3600.00
01608            -664.00     3520.00
01609            -640.00     3480.00
01610            -616.00     3480.00
01611            -632.00     3400.00
01612            -632.00     3360.00
01613            -608.00     3400.00
01614            -616.00     3320.00
01615            -616.00     3280.00
01616            -592.00     3240.00
01617            -576.00     3160.00
01618            -576.00     3160.00
01619            -576.00     3120.00
01620            -544.00     3080.00
01621            -576.00     3000.00
01622            -568.00     2960.00
01623            -552.00     2920.00
01624            -520.00     2920.00
01625            -480.00     2800.00
01626            -472.00     2760.00
01627            -472.00     2680.00
01628            -472.00     2640.00
01629            -472.00     2600.00
01630            -488.00     2560.00
01631            -480.00     2480.00
01632            -440.00     2440.00
01633            -408.00     2440.00
01634            -384.00     2320.00
01635            -384.00     2280.00
01636            -384.00     2200.00
01637            -376.00     2160.00
01638            -352.00     2080.00
01639            -360.00     2040.00
01640            -352.00     1960.00
01641            -344.00     1880.00
01642            -328.00     1840.00
01643            -320.00     1760.00
01644            -288.00     1680.00
01645            -280.00     1640.00
01646            -280.00     1560.00
01647            -256.00     1480.00
01648            -256.00     1400.00
01649            -256.00     1360.00
01650            -256.00     1320.00
01651            -240.00     1240.00
01652            -224.00     1160.00
01653            -216.00     1080.00
01654            -216.00     1000.00
01655            -184.00      920.00
01656            -168.00      840.00
01657            -160.00      800.00
01658            -160.00      720.00
01659            -152.00      680.00
01660            -168.00      600.00
01661            -160.00      520.00
01662            -152.00      400.00
01663            -128.00      360.00
01664            -112.00      280.00
01665             -96.00      240.00
01666             -96.00      160.00
01667             -88.00       80.00
01668             -88.00        0.00
01669             -88.00      -80.00
01670             -56.00     -120.00
01671             -32.00     -200.00
01672              -8.00     -280.00
01673              -8.00     -360.00
01674              -8.00     -440.00
01675               0.00     -480.00
01676              -8.00     -520.00
01677              32.00     -600.00
01678             248.00     -680.00
01679             512.00     -880.00
01680             160.00    -1000.00
01681            -848.00     -880.00
01682            -720.00     -840.00
01683             472.00    -1080.00
01684             832.00    -1160.00
01685            -552.00    -1040.00
01686            -408.00    -1240.00
01687             672.00    -1640.00
01688             232.00    -1160.00
01689            -456.00    -1320.00
01690              56.00    -1880.00
01691             440.00    -1520.00
01692              -8.00    -1360.00
01693              56.00    -2000.00
01694             160.00    -2040.00
01695             -96.00    -1440.00
01696              72.00    -2080.00
01697             344.00    -2200.00
01698              48.00    -1720.00
01699              32.00    -2160.00
01700             152.00    -2480.00
01701             136.00    -2000.00
01702             224.00    -2280.00
01703             120.00    -2640.00
01704              56.00    -2280.00
01705             256.00    -2440.00
01706             264.00    -2760.00
01707              40.00    -2480.00
01708             136.00    -2600.00
01709             256.00    -2920.00
01710             232.00    -2600.00
01711             192.00    -2760.00
01712             152.00    -3080.00
01713             240.00    -2800.00
01714             280.00    -2880.00
01715             192.00    -3160.00
01716             240.00    -3000.00
01717             288.00    -3000.00
01718             168.00    -3280.00
01719             256.00    -3160.00
01720             320.00    -3160.00
01721             216.00    -3400.00
01722             256.00    -3360.00
01723             336.00    -3280.00
01724             256.00    -3440.00
01725             256.00    -3480.00
01726             344.00    -3440.00
01727             312.00    -3560.00
01728             288.00    -3560.00
01729             328.00    -3480.00
01730             312.00    -3640.00
01731             328.00    -3640.00
01732             384.00    -3600.00
01733             344.00    -3680.00
01734             344.00    -3720.00
01735             384.00    -3640.00
01736             352.00    -3720.00
01737             360.00    -3800.00
01738             416.00    -3720.00
01739             392.00    -3800.00
01740             392.00    -3880.00
01741             448.00    -3800.00
01742             416.00    -3840.00
01743             392.00    -3880.00
01744             472.00    -3840.00
01745             472.00    -3880.00
01746             448.00    -3920.00
01747             480.00    -3920.00
01748             488.00    -3880.00
01749             472.00    -3920.00
01750             504.00    -3880.00
01751             520.00    -3880.00
01752             512.00    -3920.00
01753             544.00    -3880.00
01754             552.00    -3920.00
01755             544.00    -3920.00
01756             568.00    -3880.00
01757             568.00    -3880.00
01758             576.00    -3880.00
01759             600.00    -3840.00
01760             616.00    -3840.00
01761             600.00    -3880.00
01762             608.00    -3800.00
01763             632.00    -3800.00
01764             616.00    -3800.00
01765             640.00    -3800.00
01766             656.00    -3720.00
01767             640.00    -3760.00
01768             640.00    -3760.00
01769             648.00    -3680.00
01770             640.00    -3680.00
01771             640.00    -3640.00
01772             656.00    -3560.00
01773             664.00    -3600.00
01774             640.00    -3560.00
01775             640.00    -3480.00
01776             632.00    -3480.00
01777             632.00    -3440.00
01778             640.00    -3440.00
01779             632.00    -3360.00
01780             624.00    -3360.00
01781             616.00    -3280.00
01782             600.00    -3280.00
01783             600.00    -3240.00
01784             600.00    -3160.00
01785             576.00    -3120.00
01786             568.00    -3120.00
01787             568.00    -3080.00
01788             552.00    -3000.00
01789             536.00    -2960.00
01790             520.00    -2920.00
01791             520.00    -2840.00
01792             512.00    -2800.00
01793             504.00    -2760.00
01794             480.00    -2720.00
01795             472.00    -2640.00
01796             472.00    -2600.00
01797             448.00    -2520.00
01798             440.00    -2520.00
01799             440.00    -2440.00
01800             416.00    -2400.00
01801             392.00    -2320.00
01802             384.00    -2280.00
01803             384.00    -2200.00
01804             376.00    -2120.00
01805             368.00    -2120.00
01806             352.00    -2000.00
01807             344.00    -1960.00
01808             320.00    -1880.00
01809             312.00    -1800.00
01810             312.00    -1760.00
01811             296.00    -1720.00
01812             288.00    -1640.00
01813             280.00    -1560.00
01814             264.00    -1520.00
01815             256.00    -1400.00
01816             248.00    -1360.00
01817             232.00    -1320.00
01818             224.00    -1200.00
01819             216.00    -1120.00
01820             208.00    -1080.00
01821             192.00    -1000.00
01822             184.00     -920.00
01823             168.00     -880.00
01824             168.00     -760.00
01825             168.00     -720.00
01826             160.00     -640.00
01827             152.00     -600.00
01828             136.00     -520.00
01829             128.00     -440.00
01830             120.00     -360.00
01831             120.00     -280.00
01832             104.00     -200.00
01833              96.00     -160.00
01834              96.00      -40.00
01835              88.00       40.00
01836              88.00       80.00
01837              88.00      160.00
01838              96.00      200.00
01839             104.00      280.00
01840              96.00      360.00
01841              80.00      400.00
01842              64.00      440.00
01843              48.00      560.00
01844             128.00      600.00
01845             488.00      800.00
01846             552.00      880.00
01847            -392.00      840.00
01848           -1016.00      720.00
01849            -168.00      920.00
01850             984.00     1320.00
01851              56.00     1200.00
01852            -968.00      960.00
01853             184.00     1240.00
01854             808.00     1520.00
01855            -712.00     1400.00
01856            -576.00     1240.00
01857             744.00     1680.00
01858               8.00     1800.00
01859            -680.00     1400.00
01860             184.00     1680.00
01861              64.00     2120.00
01862            -488.00     1800.00
01863              32.00     1680.00
01864              96.00     2200.00
01865            -384.00     2160.00
01866             -16.00     1920.00
01867             -64.00     2360.00
01868            -360.00     2320.00
01869              72.00     2080.00
01870            -128.00     2560.00
01871            -440.00     2520.00
01872              88.00     2200.00
01873             -64.00     2760.00
01874            -512.00     2680.00
01875             -72.00     2360.00
01876              24.00     2960.00
01877            -376.00     2840.00
01878            -216.00     2440.00
01879             -88.00     3160.00
01880            -264.00     3080.00
01881            -288.00     2600.00
01882            -152.00     3240.00
01883            -184.00     3240.00
01884            -328.00     2800.00
01885            -232.00     3320.00
01886            -192.00     3320.00
01887            -304.00     3000.00
01888            -232.00     3400.00
01889            -232.00     3440.00
01890            -376.00     3160.00
01891            -256.00     3440.00
01892            -248.00     3560.00
01893            -352.00     3320.00
01894            -256.00     3520.00
01895            -296.00     3600.00
01896            -416.00     3440.00
01897            -280.00     3560.00
01898            -264.00     3800.00
01899            -408.00     3560.00
01900            -352.00     3600.00
01901            -296.00     3840.00
01902            -424.00     3640.00
01903            -392.00     3680.00
01904            -312.00     3880.00
01905            -424.00     3760.00
01906            -424.00     3760.00
01907            -328.00     3920.00
01908            -448.00     3800.00
01909            -472.00     3760.00
01910            -392.00     3920.00
01911            -448.00     3880.00
01912            -472.00     3840.00
01913            -432.00     3960.00
01914            -488.00     3920.00
01915            -512.00     3840.00
01916            -472.00     3960.00
01917            -512.00     3960.00
01918            -544.00     3880.00
01919            -504.00     3920.00
01920            -528.00     3920.00
01921            -576.00     3880.00
01922            -536.00     3920.00
01923            -576.00     3920.00
01924            -616.00     3880.00
01925            -568.00     3880.00
01926            -576.00     3920.00
01927            -632.00     3840.00
01928            -608.00     3800.00
01929            -608.00     3880.00
01930            -640.00     3800.00
01931            -632.00     3800.00
01932            -616.00     3800.00
01933            -648.00     3720.00
01934            -640.00     3760.00
01935            -632.00     3760.00
01936            -648.00     3720.00
01937            -664.00     3640.00
01938            -632.00     3680.00
01939            -648.00     3600.00
01940            -640.00     3560.00
01941            -640.00     3600.00
01942            -648.00     3520.00
01943            -648.00     3480.00
01944            -616.00     3480.00
01945            -632.00     3480.00
01946            -624.00     3400.00
01947            -616.00     3400.00
01948            -616.00     3320.00
01949            -616.00     3280.00
01950            -584.00     3280.00
01951            -592.00     3240.00
01952            -584.00     3120.00
01953            -552.00     3120.00
01954            -552.00     3080.00
01955            -568.00     3000.00
01956            -544.00     2960.00
01957            -536.00     2920.00
01958            -512.00     2880.00
01959            -504.00     2840.00
01960            -504.00     2800.00
01961            -504.00     2680.00
01962            -480.00     2680.00
01963            -464.00     2640.00
01964            -448.00     2560.00
01965            -440.00     2480.00
01966            -424.00     2440.00
01967            -424.00     2400.00
01968            -408.00     2320.00
01969            -400.00     2280.00
01970            -392.00     2200.00
01971            -368.00     2160.00
01972            -360.00     2120.00
01973            -352.00     2040.00
01974            -352.00     1960.00
01975            -328.00     1880.00
01976            -320.00     1840.00
01977            -312.00     1800.00
01978            -296.00     1680.00
01979            -288.00     1640.00
01980            -288.00     1560.00
01981            -264.00     1480.00
01982            -256.00     1440.00
01983            -256.00     1360.00
01984            -248.00     1280.00
01985            -232.00     1240.00
01986            -216.00     1160.00
01987            -200.00     1080.00
01988            -200.00     1000.00
01989            -192.00      920.00
01990            -184.00      880.00
01991            -168.00      840.00
01992            -168.00      760.00
01993            -160.00      680.00
01994            -160.00      600.00
01995            -152.00      520.00
01996            -136.00      440.00
01997            -128.00      360.00
01998            -112.00      280.00
01999            -104.00      200.00
02000            -104.00      120.00
02001            -104.00       80.00
02002             -88.00       40.00
02003             -72.00      -80.00
02004             -56.00     -120.00
02005             -24.00     -200.00
02006              -8.00     -240.00
02007              -8.00     -360.00
02008             -24.00     -400.00
02009              -8.00     -480.00
02010              -8.00     -520.00
02011              24.00     -560.00
02012             240.00     -680.00
02013             520.00     -880.00
02014             208.00    -1000.00
02015            -808.00     -920.00
02016            -776.00     -840.00
02017             408.00    -1080.00
02018             872.00    -1200.00
02019            -504.00    -1080.00
02020            -456.00    -1200.00
02021             632.00    -1640.00
02022             312.00    -1160.00
02023            -448.00    -1280.00
02024               8.00    -1880.00
02025             456.00    -1560.00
02026              -8.00    -1360.00
02027              40.00    -1960.00
02028             168.00    -2080.00
02029             -96.00    -1440.00
02030              56.00    -2040.00
02031             352.00    -2280.00
02032              56.00    -1800.00
02033              40.00    -2160.00
02034             136.00    -2480.00
02035             152.00    -2000.00
02036             224.00    -2200.00
02037             128.00    -2640.00
02038              40.00    -2280.00
02039             240.00    -2400.00
02040             280.00    -2760.00
02041              48.00    -2480.00
02042             144.00    -2520.00
02043             248.00    -2920.00
02044             232.00    -2640.00
02045             192.00    -2720.00
02046             152.00    -3080.00
02047             232.00    -2800.00
02048             264.00    -2880.00
02049             176.00    -3160.00
02050             216.00    -3040.00
02051             288.00    -2960.00
02052             176.00    -3280.00
02053             256.00    -3200.00
02054             328.00    -3160.00
02055             224.00    -3360.00
02056             240.00    -3320.00
02057             344.00    -3240.00
02058             256.00    -3440.00
02059             248.00    -3440.00
02060             336.00    -3400.00
02061             320.00    -3560.00
02062             296.00    -3560.00
02063             320.00    -3480.00
02064             312.00    -3640.00
02065             320.00    -3640.00
02066             384.00    -3600.00
02067             344.00    -3720.00
02068             344.00    -3720.00
02069             384.00    -3680.00
02070             352.00    -3720.00
02071             360.00    -3800.00
02072             424.00    -3720.00
02073             392.00    -3800.00
02074             400.00    -3880.00
02075             448.00    -3800.00
02076             416.00    -3840.00
02077             392.00    -3880.00
02078             464.00    -3880.00
02079             472.00    -3840.00
02080             448.00    -3920.00
02081             472.00    -3880.00
02082             480.00    -3880.00
02083             480.00    -3920.00
02084             504.00    -3880.00
02085             512.00    -3880.00
02086             512.00    -3920.00
02087             544.00    -3880.00
02088             552.00    -3920.00
02089             544.00    -3920.00
02090             568.00    -3880.00
02091             576.00    -3840.00
02092             576.00    -3920.00
02093             600.00    -3880.00
02094             616.00    -3840.00
02095             600.00    -3840.00
02096             608.00    -3840.00
02097             632.00    -3800.00
02098             632.00    -3800.00
02099             640.00    -3760.00
02100             648.00    -3760.00
02101             640.00    -3720.00
02102             640.00    -3720.00
02103             648.00    -3680.00
02104             640.00    -3640.00
02105             648.00    -3640.00
02106             648.00    -3640.00
02107             648.00    -3600.00
02108             648.00    -3560.00
02109             640.00    -3560.00
02110             632.00    -3480.00
02111             632.00    -3480.00
02112             632.00    -3440.00
02113             624.00    -3400.00
02114             608.00    -3320.00
02115             608.00    -3320.00
02116             600.00    -3280.00
02117             584.00    -3240.00
02118             576.00    -3200.00
02119             576.00    -3120.00
02120             576.00    -3120.00
02121             568.00    -3080.00
02122             552.00    -3000.00
02123             536.00    -3000.00
02124             512.00    -2920.00
02125             520.00    -2880.00
02126             512.00    -2800.00
02127             504.00    -2760.00
02128             488.00    -2680.00
02129             472.00    -2640.00
02130             472.00    -2600.00
02131             448.00    -2560.00
02132             448.00    -2480.00
02133             424.00    -2440.00
02134             424.00    -2360.00
02135             408.00    -2320.00
02136             392.00    -2280.00
02137             384.00    -2200.00
02138             376.00    -2160.00
02139             360.00    -2120.00
02140             352.00    -2040.00
02141             344.00    -1960.00
02142             328.00    -1880.00
02143             320.00    -1840.00
02144             312.00    -1800.00
02145             296.00    -1680.00
02146             288.00    -1640.00
02147             280.00    -1520.00
02148             264.00    -1480.00
02149             248.00    -1440.00
02150             256.00    -1360.00
02151             232.00    -1320.00
02152             224.00    -1240.00
02153             224.00    -1160.00
02154             216.00    -1080.00
02155             200.00    -1040.00
02156             184.00     -960.00
02157             168.00     -880.00
02158             168.00     -800.00
02159             168.00     -720.00
02160             168.00     -640.00
02161             160.00     -600.00
02162             128.00     -520.00
02163             104.00     -440.00
02164             104.00     -360.00
02165             120.00     -280.00
02166             128.00     -200.00
02167             104.00     -160.00
02168              88.00      -80.00
02169              72.00        0.00
02170              72.00       80.00
02171              88.00      120.00
02172             104.00      200.00
02173             120.00      280.00
02174              96.00      360.00
02175              72.00      400.00
02176              56.00      440.00
02177              40.00      560.00
02178             104.00      640.00
02179             472.00      760.00
02180             584.00      920.00
02181            -320.00      840.00
02182           -1016.00      720.00
02183            -256.00      920.00
02184             984.00     1320.00
02185             168.00     1240.00
02186            -960.00      920.00
02187              96.00     1200.00
02188             840.00     1520.00
02189            -664.00     1400.00
02190            -640.00     1240.00
02191             720.00     1640.00
02192              88.00     1840.00
02193            -680.00     1400.00
02194             128.00     1640.00
02195              96.00     2120.00
02196            -488.00     1840.00
02197               0.00     1640.00
02198             128.00     2200.00
02199            -384.00     2160.00
02200             -40.00     1880.00
02201             -40.00     2320.00
02202            -368.00     2360.00
02203              56.00     2040.00
02204             -88.00     2560.00
02205            -448.00     2520.00
02206              64.00     2240.00
02207             -32.00     2720.00
02208            -512.00     2760.00
02209            -104.00     2360.00
02210              40.00     2920.00
02211            -352.00     2920.00
02212            -232.00     2440.00
02213             -96.00     3080.00
02214            -248.00     3160.00
02215            -288.00     2600.00
02216            -160.00     3160.00
02217            -168.00     3240.00
02218            -320.00     2800.00
02219            -248.00     3280.00
02220            -184.00     3320.00
02221            -312.00     3000.00
02222            -232.00     3360.00
02223            -216.00     3440.00
02224            -368.00     3200.00
02225            -264.00     3440.00
02226            -248.00     3560.00
02227            -352.00     3320.00
02228            -256.00     3480.00
02229            -296.00     3640.00
02230            -416.00     3440.00
02231            -288.00     3520.00
02232            -264.00     3800.00
02233            -408.00     3560.00
02234            -352.00     3560.00
02235            -296.00     3840.00
02236            -424.00     3680.00
02237            -392.00     3680.00
02238            -320.00     3880.00
02239            -424.00     3720.00
02240            -440.00     3720.00
02241            -336.00     3920.00
02242            -440.00     3840.00
02243            -488.00     3760.00
02244            -408.00     3920.00
02245            -440.00     3880.00
02246            -472.00     3840.00
02247            -440.00     3920.00
02248            -488.00     3920.00
02249            -512.00     3800.00
02250            -472.00     3960.00
02251            -512.00     3920.00
02252            -544.00     3880.00
02253            -504.00     3960.00
02254            -536.00     3920.00
02255            -568.00     3880.00
02256            -536.00     3920.00
02257            -568.00     3960.00
02258            -616.00     3840.00
02259            -568.00     3880.00
02260            -568.00     3920.00
02261            -632.00     3840.00
02262            -616.00     3800.00
02263            -608.00     3880.00
02264            -640.00     3800.00
02265            -616.00     3760.00
02266            -624.00     3800.00
02267            -648.00     3760.00
02268            -640.00     3720.00
02269            -632.00     3760.00
02270            -664.00     3720.00
02271            -656.00     3640.00
02272            -640.00     3720.00
02273            -648.00     3640.00
02274            -640.00     3600.00
02275            -640.00     3600.00
02276            -648.00     3480.00
02277            -648.00     3480.00
02278            -624.00     3480.00
02279            -632.00     3440.00
02280            -632.00     3400.00
02281            -608.00     3360.00
02282            -616.00     3320.00
02283            -616.00     3280.00
02284            -584.00     3240.00
02285            -600.00     3200.00
02286            -584.00     3120.00
02287            -560.00     3160.00
02288            -552.00     3080.00
02289            -568.00     3000.00
02290            -552.00     2960.00
02291            -536.00     2920.00
02292            -520.00     2840.00
02293            -504.00     2840.00
02294            -496.00     2800.00
02295            -488.00     2720.00
02296            -480.00     2680.00
02297            -456.00     2640.00
02298            -456.00     2560.00
02299            -448.00     2480.00
02300            -432.00     2440.00
02301            -416.00     2400.00
02302            -408.00     2320.00
02303            -392.00     2280.00
02304            -392.00     2200.00
02305            -384.00     2160.00
02306            -360.00     2120.00
02307            -360.00     2040.00
02308            -352.00     1960.00
02309            -344.00     1880.00
02310            -328.00     1840.00
02311            -312.00     1760.00
02312            -296.00     1680.00
02313            -288.00     1640.00
02314            -280.00     1560.00
02315            -264.00     1480.00
02316            -256.00     1400.00
02317            -264.00     1360.00
02318            -248.00     1320.00
02319            -232.00     1240.00
02320            -216.00     1160.00
02321            -200.00     1080.00
02322            -200.00     1040.00
02323            -200.00      920.00
02324            -192.00      880.00
02325            -168.00      800.00
02326            -168.00      720.00
02327            -160.00      680.00
02328            -160.00      600.00
02329            -152.00      520.00
02330            -136.00      440.00
02331            -128.00      400.00
02332            -120.00      280.00
02333            -104.00      200.00
02334             -96.00      160.00
02335             -96.00       80.00
02336             -88.00       40.00
02337             -64.00      -40.00
02338             -40.00     -120.00
02339             -24.00     -200.00
02340               0.00     -240.00
02341              -8.00     -360.00
02342              -8.00     -440.00
02343              -8.00     -440.00
02344              -8.00     -520.00
02345              24.00     -600.00
02346             216.00     -680.00
02347             512.00     -880.00
02348             248.00    -1000.00
02349            -744.00     -920.00
02350            -824.00     -800.00
02351             328.00    -1080.00
02352             904.00    -1160.00
02353            -448.00    -1120.00
02354            -496.00    -1200.00
02355             584.00    -1640.00
02356             376.00    -1200.00
02357            -448.00    -1240.00
02358             -32.00    -1840.00
02359             472.00    -1560.00
02360               8.00    -1320.00
02361              24.00    -1920.00
02362             184.00    -2120.00
02363             -96.00    -1440.00
02364              40.00    -2000.00
02365             360.00    -2280.00
02366              64.00    -1800.00
02367              32.00    -2120.00
02368             128.00    -2480.00
02369             136.00    -2040.00
02370             224.00    -2200.00
02371             152.00    -2640.00
02372              40.00    -2280.00
02373             224.00    -2360.00
02374             288.00    -2760.00
02375              56.00    -2480.00
02376             128.00    -2520.00
02377             248.00    -2920.00
02378             240.00    -2640.00
02379             192.00    -2720.00
02380             152.00    -3080.00
02381             216.00    -2840.00
02382             280.00    -2840.00
02383             184.00    -3160.00
02384             216.00    -3040.00
02385             288.00    -3000.00
02386             176.00    -3240.00
02387             240.00    -3240.00
02388             320.00    -3120.00
02389             224.00    -3360.00
02390             248.00    -3400.00
02391             344.00    -3240.00
02392             264.00    -3440.00
02393             248.00    -3440.00
02394             336.00    -3400.00
02395             320.00    -3560.00
02396             296.00    -3560.00
02397             320.00    -3480.00
02398             312.00    -3600.00
02399             320.00    -3640.00
02400             376.00    -3600.00
02401             344.00    -3680.00
02402             344.00    -3760.00
02403             384.00    -3680.00
02404             360.00    -3760.00
02405             360.00    -3800.00
02406             416.00    -3760.00
02407             408.00    -3800.00
02408             392.00    -3880.00
02409             448.00    -3800.00
02410             416.00    -3800.00
02411             400.00    -3880.00
02412             456.00    -3880.00
02413             472.00    -3840.00
02414             448.00    -3960.00
02415             472.00    -3880.00
02416             488.00    -3880.00
02417             480.00    -3920.00
02418             512.00    -3880.00
02419             512.00    -3880.00
02420             512.00    -3920.00
02421             544.00    -3880.00
02422             552.00    -3920.00
02423             544.00    -3920.00
02424             568.00    -3880.00
02425             576.00    -3840.00
02426             576.00    -3880.00
02427             600.00    -3880.00
02428             632.00    -3840.00
02429             600.00    -3880.00
02430             608.00    -3880.00
02431             632.00    -3800.00
02432             616.00    -3800.00
02433             632.00    -3800.00
02434             648.00    -3760.00
02435             640.00    -3760.00
02436             640.00    -3760.00
02437             648.00    -3680.00
02438             640.00    -3680.00
02439             640.00    -3640.00
02440             648.00    -3600.00
02441             648.00    -3600.00
02442             640.00    -3560.00
02443             640.00    -3520.00
02444             640.00    -3480.00
02445             632.00    -3480.00
02446             640.00    -3440.00
02447             632.00    -3400.00
02448             616.00    -3400.00
02449             616.00    -3280.00
02450             600.00    -3280.00
02451             584.00    -3240.00
02452             592.00    -3160.00
02453             576.00    -3120.00
02454             576.00    -3120.00
02455             568.00    -3080.00
02456             552.00    -3000.00
02457             536.00    -2960.00
02458             520.00    -2920.00
02459             520.00    -2920.00
02460             512.00    -2840.00
02461             488.00    -2760.00
02462             488.00    -2720.00
02463             472.00    -2680.00
02464             456.00    -2600.00
02465             456.00    -2520.00
02466             448.00    -2520.00
02467             432.00    -2440.00
02468             424.00    -2360.00
02469             408.00    -2320.00
02470             392.00    -2280.00
02471             384.00    -2200.00
02472             376.00    -2160.00
02473             368.00    -2120.00
02474             352.00    -2040.00
02475             344.00    -1960.00
02476             320.00    -1920.00
02477             320.00    -1840.00
02478             312.00    -1800.00
02479             296.00    -1720.00
02480             288.00    -1640.00
02481             280.00    -1560.00
02482             264.00    -1520.00
02483             256.00    -1440.00
02484             248.00    -1360.00
02485             232.00    -1280.00
02486             224.00    -1200.00
02487             224.00    -1160.00
02488             216.00    -1080.00
02489             200.00    -1040.00
02490             192.00     -960.00
02491             184.00     -880.00
02492             168.00     -760.00
02493             184.00     -760.00
02494             160.00     -680.00
02495             144.00     -560.00
02496             128.00     -520.00
02497             128.00     -440.00
02498             120.00     -360.00
02499             120.00     -280.00
02500             112.00     -200.00
02501             104.00     -160.00
02502              88.00      -80.00
02503              88.00      -40.00
02504              72.00       80.00
02505              88.00      120.00
02506              96.00      200.00
02507             104.00      240.00
02508              96.00      280.00
02509              72.00      360.00
02510              56.00      440.00
02511              56.00      520.00
02512             104.00      600.00
02513             448.00      760.00
02514             600.00      920.00
02515            -264.00      840.00
02516           -1016.00      720.00
02517            -312.00      920.00
02518             984.00     1280.00
02519             280.00     1240.00
02520            -976.00      920.00
02521               8.00     1200.00
02522             888.00     1520.00
02523            -584.00     1480.00
02524            -696.00     1240.00
02525             672.00     1640.00
02526             160.00     1840.00
02527            -680.00     1440.00
02528              72.00     1640.00
02529             152.00     2080.00
02530            -488.00     1840.00
02531             -40.00     1680.00
02532             160.00     2200.00
02533            -384.00     2200.00
02534             -56.00     1880.00
02535             -24.00     2360.00
02536            -376.00     2400.00
02537              32.00     2040.00
02538             -56.00     2480.00
02539            -456.00     2560.00
02540              32.00     2160.00
02541               0.00     2680.00
02542            -512.00     2760.00
02543            -128.00     2320.00
02544              56.00     2920.00
02545            -336.00     2920.00
02546            -248.00     2400.00
02547             -96.00     3040.00
02548            -248.00     3160.00
02549            -296.00     2600.00
02550            -160.00     3160.00
02551            -160.00     3280.00
02552            -320.00     2800.00
02553            -256.00     3240.00
02554            -192.00     3360.00
02555            -304.00     3000.00
02556            -248.00     3320.00
02557            -200.00     3480.00
02558            -360.00     3160.00
02559            -256.00     3400.00
02560            -232.00     3560.00
02561            -360.00     3360.00
02562            -264.00     3480.00
02563            -288.00     3680.00
02564            -416.00     3440.00
02565            -296.00     3560.00
02566            -256.00     3800.00
02567            -408.00     3600.00
02568            -368.00     3600.00
02569            -296.00     3840.00
02570            -424.00     3720.00
02571            -408.00     3680.00
02572            -312.00     3880.00
02573            -408.00     3720.00
02574            -440.00     3720.00
02575            -344.00     3920.00
02576            -448.00     3840.00
02577            -512.00     3800.00
02578            -416.00     3920.00
02579            -432.00     3880.00
02580            -456.00     3840.00
02581            -416.00     3960.00
02582            -456.00     3920.00
02583            -504.00     3800.00
02584            -472.00     3920.00
02585            -512.00     3960.00
02586            -552.00     3840.00
02587            -512.00     3920.00
02588            -536.00     3960.00
02589            -568.00     3880.00
02590            -520.00     3920.00
02591            -552.00     3920.00
02592            -616.00     3800.00
02593            -568.00     3880.00
02594            -568.00     3920.00
02595            -632.00     3840.00
02596            -632.00     3840.00
02597            -608.00     3880.00
02598            -640.00     3800.00
02599            -640.00     3800.00
02600            -616.00     3840.00
02601            -640.00     3760.00
02602            -632.00     3720.00
02603            -616.00     3760.00
02604            -648.00     3680.00
02605            -648.00     3640.00
02606            -640.00     3680.00
02607            -648.00     3640.00
02608            -656.00     3600.00
02609            -648.00     3600.00
02610            -648.00     3560.00
02611            -640.00     3480.00
02612            -608.00     3480.00
02613            -616.00     3440.00
02614            -624.00     3400.00
02615            -608.00     3400.00
02616            -616.00     3320.00
02617            -632.00     3280.00
02618            -600.00     3240.00
02619            -600.00     3200.00
02620            -576.00     3120.00
02621            -552.00     3160.00
02622            -544.00     3120.00
02623            -568.00     3000.00
02624            -552.00     2960.00
02625            -544.00     2920.00
02626            -536.00     2920.00
02627            -512.00     2840.00
02628            -512.00     2800.00
02629            -504.00     2760.00
02630            -480.00     2680.00
02631            -456.00     2640.00
02632            -456.00     2560.00
02633            -448.00     2520.00
02634            -440.00     2480.00
02635            -424.00     2400.00
02636            -416.00     2320.00
02637            -408.00     2280.00
02638            -392.00     2200.00
02639            -384.00     2160.00
02640            -352.00     2120.00
02641            -352.00     2040.00
02642            -352.00     1960.00
02643            -344.00     1880.00
02644            -328.00     1840.00
02645            -312.00     1800.00
02646            -296.00     1720.00
02647            -288.00     1640.00
02648            -288.00     1560.00
02649            -264.00     1480.00
02650            -264.00     1440.00
02651            -256.00     1360.00
02652            -248.00     1320.00
02653            -232.00     1240.00
02654            -216.00     1160.00
02655            -216.00     1080.00
02656            -216.00     1000.00
02657            -200.00      920.00
02658            -184.00      880.00
02659            -168.00      840.00
02660            -168.00      760.00
02661            -152.00      680.00
02662            -152.00      600.00
02663            -152.00      560.00
02664            -136.00      440.00
02665            -128.00      360.00
02666            -120.00      280.00
02667            -104.00      200.00
02668             -96.00      200.00
02669             -88.00       80.00
02670             -88.00       40.00
02671             -72.00      -80.00
02672             -56.00     -120.00
02673             -24.00     -200.00
02674               0.00     -240.00
02675              -8.00     -320.00
02676              -8.00     -400.00
02677               0.00     -480.00
02678               0.00     -520.00
02679              24.00     -600.00
02680             208.00     -680.00
02681             504.00     -840.00
02682             280.00    -1000.00
02683            -696.00     -920.00
02684            -864.00     -760.00
02685             264.00    -1080.00
02686             936.00    -1160.00
02687            -376.00    -1080.00
02688            -536.00    -1160.00
02689             536.00    -1640.00
02690             440.00    -1200.00
02691            -440.00    -1240.00
02692             -64.00    -1840.00
02693             472.00    -1640.00
02694              32.00    -1320.00
02695               8.00    -1880.00
02696             192.00    -2120.00
02697             -88.00    -1480.00
02698              24.00    -1960.00
02699             344.00    -2280.00
02700              88.00    -1800.00
02701              24.00    -2040.00
02702             128.00    -2520.00
02703             152.00    -2040.00
02704             216.00    -2160.00
02705             152.00    -2640.00
02706              40.00    -2320.00
02707             216.00    -2360.00
02708             296.00    -2760.00
02709              64.00    -2520.00
02710             120.00    -2520.00
02711             240.00    -2920.00
02712             248.00    -2640.00
02713             192.00    -2680.00
02714             152.00    -3040.00
02715             216.00    -2920.00
02716             280.00    -2800.00
02717             192.00    -3160.00
02718             216.00    -3080.00
02719             288.00    -2960.00
02720             184.00    -3240.00
02721             232.00    -3200.00
02722             328.00    -3120.00
02723             232.00    -3360.00
02724             232.00    -3400.00
02725             344.00    -3280.00
02726             264.00    -3400.00
02727             248.00    -3480.00
02728             344.00    -3400.00
02729             320.00    -3560.00
02730             296.00    -3560.00
02731             320.00    -3480.00
02732             312.00    -3600.00
02733             320.00    -3640.00
02734             384.00    -3560.00
02735             344.00    -3640.00
02736             344.00    -3760.00
02737             384.00    -3680.00
02738             360.00    -3760.00
02739             360.00    -3800.00
02740             416.00    -3720.00
02741             408.00    -3800.00
02742             392.00    -3880.00
02743             448.00    -3800.00
02744             424.00    -3800.00
02745             392.00    -3880.00
02746             448.00    -3880.00
02747             480.00    -3880.00
02748             448.00    -3920.00
02749             480.00    -3920.00
02750             488.00    -3880.00
02751             472.00    -3920.00
02752             504.00    -3920.00
02753             512.00    -3880.00
02754             520.00    -3920.00
02755             544.00    -3920.00
02756             552.00    -3880.00
02757             552.00    -3920.00
02758             568.00    -3920.00
02759             576.00    -3880.00
02760             576.00    -3880.00
02761             600.00    -3880.00
02762             616.00    -3880.00
02763             600.00    -3840.00
02764             608.00    -3840.00
02765             632.00    -3800.00
02766             616.00    -3800.00
02767             632.00    -3800.00
02768             640.00    -3760.00
02769             640.00    -3760.00
02770             632.00    -3720.00
02771             640.00    -3720.00
02772             640.00    -3640.00
02773             640.00    -3640.00
02774             648.00    -3640.00
02775             648.00    -3600.00
02776             640.00    -3560.00
02777             640.00    -3520.00
02778             640.00    -3480.00
02779             632.00    -3480.00
02780             632.00    -3440.00
02781             632.00    -3400.00
02782             608.00    -3360.00
02783             608.00    -3320.00
02784             608.00    -3280.00
02785             584.00    -3240.00
02786             600.00    -3200.00
02787             576.00    -3120.00
02788             568.00    -3120.00
02789             568.00    -3080.00
02790             552.00    -3000.00
02791             536.00    -2960.00
02792             528.00    -2920.00
02793             520.00    -2880.00
02794             512.00    -2840.00
02795             504.00    -2760.00
02796             488.00    -2680.00
02797             472.00    -2640.00
02798             456.00    -2600.00
02799             456.00    -2600.00
02800             448.00    -2480.00
02801             432.00    -2480.00
02802             416.00    -2360.00
02803             408.00    -2320.00
02804             392.00    -2280.00
02805             384.00    -2240.00
02806             376.00    -2160.00
02807             360.00    -2120.00
02808             360.00    -2040.00
02809             344.00    -1960.00
02810             328.00    -1880.00
02811             312.00    -1840.00
02812             312.00    -1800.00
02813             304.00    -1720.00
02814             288.00    -1640.00
02815             280.00    -1560.00
02816             264.00    -1520.00
02817             256.00    -1400.00
02818             248.00    -1360.00
02819             232.00    -1320.00
02820             224.00    -1240.00
02821             224.00    -1160.00
02822             216.00    -1080.00
02823             192.00    -1040.00
02824             192.00     -920.00
02825             184.00     -880.00
02826             168.00     -840.00
02827             160.00     -720.00
02828             160.00     -680.00
02829             152.00     -600.00
02830             136.00     -560.00
02831             128.00     -440.00
02832             120.00     -400.00
02833             112.00     -280.00
02834             104.00     -200.00
02835              96.00     -160.00
02836              96.00      -80.00
02837              88.00      -40.00
02838              72.00       80.00
02839              88.00      120.00
02840              96.00      200.00
02841             104.00      280.00
02842              96.00      360.00
02843              88.00      400.00
02844              56.00      480.00
02845              56.00      520.00
02846              96.00      600.00
02847             416.00      760.00
02848             600.00      880.00
02849            -192.00      840.00
02850           -1016.00      680.00
02851            -384.00      920.00
02852             984.00     1240.00
02853             368.00     1320.00
02854            -984.00      880.00
02855             -72.00     1200.00
02856             920.00     1520.00
02857            -520.00     1480.00
02858            -760.00     1280.00
02859             632.00     1560.00
02860             232.00     1880.00
02861            -696.00     1440.00
02862              32.00     1560.00
02863             192.00     2040.00
02864            -480.00     1880.00
02865             -88.00     1680.00
02866             184.00     2160.00
02867            -384.00     2200.00
02868             -72.00     1880.00
02869               8.00     2320.00
02870            -376.00     2360.00
02871               8.00     2040.00
02872             -32.00     2480.00
02873            -464.00     2600.00
02874              24.00     2200.00
02875              40.00     2680.00
02876            -504.00     2760.00
02877            -160.00     2320.00
02878              72.00     2840.00
02879            -328.00     2920.00
02880            -256.00     2400.00
02881             -88.00     3000.00
02882            -224.00     3200.00
02883            -296.00     2600.00
02884            -168.00     3080.00
02885            -160.00     3320.00
02886            -312.00     2800.00
02887            -264.00     3240.00
02888            -184.00     3400.00
02889            -296.00     3000.00
02890            -256.00     3320.00
02891            -200.00     3440.00
02892            -360.00     3200.00
02893            -280.00     3360.00
02894            -232.00     3560.00
02895            -352.00     3320.00
02896            -280.00     3480.00
02897            -280.00     3640.00
02898            -424.00     3480.00
02899            -312.00     3560.00
02900            -256.00     3760.00
02901            -400.00     3600.00
02902            -360.00     3600.00
02903            -288.00     3840.00
02904            -408.00     3720.00
02905            -416.00     3640.00
02906            -320.00     3880.00
02907            -416.00     3760.00
02908            -448.00     3720.00
02909            -344.00     3880.00
02910            -416.00     3840.00
02911            -488.00     3760.00
02912            -408.00     3880.00
02913            -424.00     3880.00
02914            -480.00     3800.00
02915            -440.00     3920.00
02916            -480.00     3920.00
02917            -512.00     3840.00
02918            -472.00     3960.00
02919            -504.00     3960.00
02920            -544.00     3880.00
02921            -504.00     3920.00
02922            -520.00     3960.00
02923            -576.00     3880.00
02924            -536.00     3920.00
02925            -552.00     3920.00
02926            -608.00     3840.00
02927            -568.00     3880.00
02928            -552.00     3920.00
02929            -616.00     3800.00
02930            -616.00     3800.00
02931            -600.00     3880.00
02932            -632.00     3800.00
02933            -624.00     3800.00
02934            -616.00     3800.00
02935            -648.00     3760.00
02936            -640.00     3760.00
02937            -632.00     3760.00
02938            -664.00     3720.00
02939            -648.00     3640.00
02940            -632.00     3680.00
02941            -640.00     3600.00
02942            -640.00     3600.00
02943            -632.00     3600.00
02944            -648.00     3520.00
02945            -648.00     3480.00
02946            -616.00     3480.00
02947            -624.00     3440.00
02948            -632.00     3400.00
02949            -608.00     3400.00
02950            -608.00     3360.00
02951            -616.00     3280.00
02952            -584.00     3280.00
02953            -584.00     3240.00
02954            -592.00     3160.00
02955            -568.00     3120.00
02956            -552.00     3080.00
02957            -568.00     3000.00
02958            -552.00     2960.00
02959            -536.00     2920.00
02960            -520.00     2840.00
02961            -512.00     2840.00
02962            -504.00     2800.00
02963            -504.00     2720.00
02964            -488.00     2680.00
02965            -456.00     2640.00
02966            -456.00     2560.00
02967            -448.00     2520.00
02968            -432.00     2480.00
02969            -424.00     2400.00
02970            -416.00     2360.00
02971            -408.00     2280.00
02972            -408.00     2200.00
02973            -384.00     2120.00
02974            -360.00     2120.00
02975            -360.00     2040.00
02976            -360.00     1960.00
02977            -344.00     1920.00
02978            -328.00     1840.00
02979            -312.00     1800.00
02980            -296.00     1720.00
02981            -288.00     1640.00
02982            -280.00     1560.00
02983            -264.00     1520.00
02984            -256.00     1440.00
02985            -256.00     1360.00
02986            -256.00     1320.00
02987            -232.00     1240.00
02988            -216.00     1200.00
02989            -200.00     1080.00
02990            -200.00     1040.00
02991            -192.00      920.00
02992            -184.00      880.00
02993            -168.00      840.00
02994            -168.00      720.00
02995            -160.00      680.00
02996            -152.00      600.00
02997            -152.00      560.00
02998            -128.00      440.00
02999            -120.00      400.00
03000            -120.00      280.00
03001            -104.00      200.00
03002             -96.00      160.00
03003             -96.00       80.00
03004             -88.00       40.00
03005             -64.00      -40.00
03006             -56.00     -120.00
03007             -24.00     -200.00
03008               0.00     -240.00
03009               0.00     -320.00
03010              -8.00     -400.00
03011              -8.00     -440.00
03012              -8.00     -520.00
03013              32.00     -560.00
03014             192.00     -640.00
03015             504.00     -840.00
03016             312.00    -1000.00
03017            -640.00     -960.00
03018            -904.00     -800.00
03019             200.00    -1040.00
03020             960.00    -1200.00
03021            -312.00    -1080.00
03022            -576.00    -1160.00
03023             480.00    -1640.00
03024             488.00    -1240.00
03025            -424.00    -1240.00
03026            -128.00    -1840.00
03027             472.00    -1680.00
03028              56.00    -1280.00
03029               0.00    -1840.00
03030             192.00    -2120.00
03031             -72.00    -1480.00
03032               0.00    -1920.00
03033             344.00    -2320.00
03034              96.00    -1840.00
03035              16.00    -2000.00
03036             120.00    -2520.00
03037             160.00    -2040.00
03038             200.00    -2160.00
03039             160.00    -2640.00
03040              32.00    -2360.00
03041             200.00    -2320.00
03042             296.00    -2760.00
03043              64.00    -2520.00
03044             104.00    -2480.00
03045             232.00    -2920.00
03046             232.00    -2680.00
03047             192.00    -2640.00
03048             152.00    -3040.00
03049             200.00    -2880.00
03050             280.00    -2800.00
03051             192.00    -3120.00
03052             208.00    -3080.00
03053             288.00    -2960.00
03054             192.00    -3240.00
03055             232.00    -3200.00
03056             328.00    -3120.00
03057             248.00    -3320.00
03058             232.00    -3400.00
03059             344.00    -3240.00
03060             280.00    -3400.00
03061             240.00    -3480.00
03062             328.00    -3400.00
03063             320.00    -3480.00
03064             296.00    -3560.00
03065             328.00    -3480.00
03066             312.00    -3600.00
03067             320.00    -3640.00
03068             376.00    -3560.00
03069             352.00    -3640.00
03070             344.00    -3760.00
03071             384.00    -3680.00
03072             360.00    -3720.00
03073             360.00    -3800.00
03074             408.00    -3720.00
03075             408.00    -3760.00
03076             384.00    -3840.00
03077             448.00    -3800.00
03078             440.00    -3800.00
03079             392.00    -3880.00
03080             456.00    -3840.00
03081             472.00    -3880.00
03082             448.00    -3920.00
03083             472.00    -3880.00
03084             488.00    -3880.00
03085             480.00    -3920.00
03086             504.00    -3920.00
03087             512.00    -3920.00
03088             512.00    -3920.00
03089             544.00    -3920.00
03090             552.00    -3880.00
03091             544.00    -3920.00
03092             552.00    -3880.00
03093             568.00    -3840.00
03094             568.00    -3880.00
03095             600.00    -3880.00
03096             616.00    -3880.00
03097             600.00    -3840.00
03098             600.00    -3840.00
03099             632.00    -3800.00
03100             624.00    -3800.00
03101             632.00    -3800.00
03102             648.00    -3760.00
03103             640.00    -3720.00
03104             640.00    -3760.00
03105             648.00    -3680.00
03106             640.00    -3640.00
03107             640.00    -3640.00
03108             648.00    -3600.00
03109             648.00    -3600.00
03110             640.00    -3600.00
03111             640.00    -3520.00
03112             632.00    -3480.00
03113             632.00    -3480.00
03114             640.00    -3440.00
03115             632.00    -3400.00
03116             616.00    -3400.00
03117             608.00    -3320.00
03118             600.00    -3280.00
03119             584.00    -3280.00
03120             592.00    -3160.00
03121             584.00    -3120.00
03122             576.00    -3120.00
03123             568.00    -3080.00
03124             552.00    -3000.00
03125             536.00    -2960.00
03126             520.00    -2920.00
03127             520.00    -2920.00
03128             512.00    -2800.00
03129             504.00    -2760.00
03130             488.00    -2680.00
03131             472.00    -2680.00
03132             456.00    -2600.00
03133             456.00    -2560.00
03134             448.00    -2480.00
03135             440.00    -2440.00
03136             416.00    -2360.00
03137             408.00    -2320.00
03138             392.00    -2280.00
03139             384.00    -2200.00
03140             376.00    -2160.00
03141             360.00    -2080.00
03142             360.00    -2040.00
03143             352.00    -1960.00
03144             320.00    -1880.00
03145             320.00    -1840.00
03146             312.00    -1800.00
03147             296.00    -1720.00
03148             288.00    -1640.00
03149             280.00    -1560.00
03150             264.00    -1480.00
03151             256.00    -1440.00
03152             256.00    -1360.00
03153             232.00    -1280.00
03154             224.00    -1200.00
03155             224.00    -1160.00
03156             216.00    -1080.00
03157             192.00    -1040.00
03158             192.00     -960.00
03159             184.00     -880.00
03160             168.00     -840.00
03161             168.00     -760.00
03162             160.00     -680.00
03163             152.00     -600.00
03164             136.00     -520.00
03165             128.00     -440.00
03166             120.00     -400.00
03167             120.00     -280.00
03168             104.00     -240.00
03169             104.00     -160.00
03170              88.00      -80.00
03171              88.00        0.00
03172              80.00       40.00
03173              88.00      120.00
03174              96.00      200.00
03175             104.00      240.00
03176              96.00      320.00
03177              80.00      400.00
03178              56.00      440.00
03179              56.00      560.00
03180              88.00      600.00
03181             384.00      760.00
03182             616.00      880.00
03183            -128.00      840.00
03184           -1016.00      720.00
03185            -456.00      880.00
03186             952.00     1240.00
03187             472.00     1320.00
03188            -968.00      880.00
03189            -152.00     1160.00
03190             920.00     1480.00
03191            -424.00     1480.00
03192            -808.00     1240.00
03193             576.00     1560.00
03194             312.00     1880.00
03195            -680.00     1480.00
03196             -24.00     1560.00
03197             232.00     2080.00
03198            -472.00     1960.00
03199            -120.00     1640.00
03200             208.00     2160.00
03201            -368.00     2200.00
03202             -96.00     1880.00
03203              24.00     2280.00
03204            -376.00     2400.00
03205               0.00     2040.00
03206               0.00     2440.00
03207            -472.00     2600.00
03208              -8.00     2200.00
03209              64.00     2640.00
03210            -488.00     2840.00
03211            -192.00     2320.00
03212              88.00     2840.00
03213            -312.00     2960.00
03214            -280.00     2400.00
03215             -80.00     2960.00
03216            -216.00     3240.00
03217            -296.00     2600.00
03218            -176.00     3040.00
03219            -152.00     3320.00
03220            -304.00     2800.00
03221            -280.00     3160.00
03222            -184.00     3400.00
03223            -296.00     3000.00
03224            -256.00     3280.00
03225            -200.00     3480.00
03226            -360.00     3200.00
03227            -288.00     3320.00
03228            -232.00     3560.00
03229            -352.00     3400.00
03230            -280.00     3480.00
03231            -264.00     3640.00
03232            -416.00     3480.00
03233            -320.00     3520.00
03234            -248.00     3760.00
03235            -392.00     3600.00
03236            -368.00     3560.00
03237            -288.00     3800.00
03238            -408.00     3720.00
03239            -416.00     3640.00
03240            -320.00     3880.00
03241            -408.00     3760.00
03242            -448.00     3720.00
03243            -344.00     3920.00
03244            -408.00     3880.00
03245            -488.00     3760.00
03246            -408.00     3880.00
03247            -424.00     3880.00
03248            -472.00     3800.00
03249            -432.00     3920.00
03250            -480.00     3920.00
03251            -512.00     3840.00
03252            -472.00     3920.00
03253            -504.00     3960.00
03254            -544.00     3800.00
03255            -504.00     3920.00
03256            -520.00     3960.00
03257            -568.00     3880.00
03258            -536.00     3920.00
03259            -544.00     3920.00
03260            -608.00     3840.00
03261            -568.00     3880.00
03262            -552.00     3920.00
03263            -616.00     3880.00
03264            -624.00     3800.00
03265            -592.00     3880.00
03266            -632.00     3800.00
03267            -632.00     3800.00
03268            -616.00     3840.00
03269            -640.00     3720.00
03270            -640.00     3720.00
03271            -632.00     3760.00
03272            -648.00     3680.00
03273            -664.00     3640.00
03274            -640.00     3680.00
03275            -640.00     3640.00
03276            -640.00     3640.00
03277            -632.00     3600.00
03278            -648.00     3560.00
03279            -648.00     3480.00
03280            -616.00     3480.00
03281            -632.00     3440.00
03282            -632.00     3400.00
03283            -616.00     3400.00
03284            -616.00     3320.00
03285            -616.00     3280.00
03286            -592.00     3240.00
03287            -584.00     3240.00
03288            -600.00     3160.00
03289            -568.00     3120.00
03290            -552.00     3120.00
03291            -568.00     3000.00
03292            -552.00     2960.00
03293            -536.00     2920.00
03294            -520.00     2840.00
03295            -512.00     2840.00
03296            -504.00     2760.00
03297            -504.00     2720.00
03298            -488.00     2680.00
03299            -464.00     2640.00
03300            -456.00     2560.00
03301            -448.00     2480.00
03302            -432.00     2440.00
03303            -424.00     2440.00
03304            -416.00     2360.00
03305            -400.00     2280.00
03306            -408.00     2200.00
03307            -376.00     2160.00
03308            -360.00     2120.00
03309            -352.00     2040.00
03310            -352.00     1960.00
03311            -336.00     1920.00
03312            -328.00     1840.00
03313            -312.00     1800.00
03314            -296.00     1680.00
03315            -288.00     1640.00
03316            -280.00     1560.00
03317            -264.00     1520.00
03318            -264.00     1440.00
03319            -256.00     1360.00
03320            -256.00     1320.00
03321            -232.00     1240.00
03322            -224.00     1160.00
03323            -200.00     1080.00
03324            -200.00     1040.00
03325            -200.00      960.00
03326            -168.00      880.00
03327            -168.00      840.00
03328            -168.00      720.00
03329            -160.00      680.00
03330            -152.00      560.00
03331            -152.00      480.00
03332            -136.00      440.00
03333            -128.00      400.00
03334            -104.00      320.00
03335            -104.00      240.00
03336            -104.00      200.00
03337             -96.00       80.00
03338             -88.00       40.00
03339             -72.00      -80.00
03340             -56.00     -120.00
03341             -32.00     -200.00
03342               0.00     -280.00
03343               0.00     -320.00
03344              -8.00     -400.00
03345              -8.00     -440.00
03346               0.00     -520.00
03347              24.00     -560.00
03348             168.00     -680.00
03349             488.00     -840.00
03350             344.00    -1000.00
03351            -600.00     -960.00
03352            -936.00     -760.00
03353             128.00    -1040.00
03354             960.00    -1200.00
03355            -240.00    -1120.00
03356            -616.00    -1120.00
03357             416.00    -1640.00
03358             544.00    -1240.00
03359            -408.00    -1200.00
03360            -160.00    -1800.00
03361             480.00    -1720.00
03362              64.00    -1320.00
03363              -8.00    -1800.00
03364             192.00    -2160.00
03365             -64.00    -1480.00
03366              -8.00    -1880.00
03367             336.00    -2320.00
03368             104.00    -1840.00
03369              16.00    -1960.00
03370             104.00    -2520.00
03371             160.00    -2040.00
03372             192.00    -2120.00
03373             168.00    -2680.00
03374              32.00    -2360.00
03375             192.00    -2280.00
03376             312.00    -2760.00
03377              88.00    -2560.00
03378              96.00    -2480.00
03379             232.00    -2920.00
03380             248.00    -2680.00
03381             200.00    -2640.00
03382             160.00    -3000.00
03383             200.00    -2920.00
03384             288.00    -2800.00
03385             192.00    -3120.00
03386             200.00    -3080.00
03387             296.00    -2960.00
03388             192.00    -3240.00
03389             216.00    -3240.00
03390             336.00    -3120.00
03391             248.00    -3320.00
03392             224.00    -3400.00
03393             336.00    -3240.00
03394             280.00    -3400.00
03395             248.00    -3480.00
03396             328.00    -3400.00
03397             320.00    -3520.00
03398             296.00    -3560.00
03399             328.00    -3480.00
03400             320.00    -3560.00
03401             320.00    -3640.00
03402             384.00    -3600.00
03403             352.00    -3640.00
03404             344.00    -3760.00
03405             384.00    -3640.00
03406             368.00    -3720.00
03407             352.00    -3800.00
03408             416.00    -3720.00
03409             408.00    -3760.00
03410             384.00    -3880.00
03411             456.00    -3800.00
03412             424.00    -3800.00
03413             392.00    -3880.00
03414             448.00    -3880.00
03415             472.00    -3880.00
03416             448.00    -3880.00
03417             472.00    -3880.00
03418             488.00    -3880.00
03419             480.00    -3920.00
03420             496.00    -3920.00
03421             512.00    -3920.00
03422             512.00    -3920.00
03423             536.00    -3920.00
03424             552.00    -3920.00
03425             544.00    -3920.00
03426             552.00    -3880.00
03427             568.00    -3880.00
03428             568.00    -3880.00
03429             592.00    -3880.00
03430             616.00    -3880.00
03431             600.00    -3880.00
03432             608.00    -3840.00
03433             632.00    -3800.00
03434             624.00    -3800.00
03435             632.00    -3800.00
03436             640.00    -3720.00
03437             640.00    -3760.00
03438             640.00    -3760.00
03439             640.00    -3720.00
03440             640.00    -3680.00
03441             640.00    -3640.00
03442             648.00    -3600.00
03443             656.00    -3600.00
03444             640.00    -3560.00
03445             632.00    -3520.00
03446             632.00    -3480.00
03447             632.00    -3440.00
03448             640.00    -3440.00
03449             632.00    -3400.00
03450             616.00    -3400.00
03451             608.00    -3320.00
03452             608.00    -3280.00
03453             592.00    -3280.00
03454             592.00    -3200.00
03455             584.00    -3160.00
03456             576.00    -3120.00
03457             568.00    -3080.00
03458             552.00    -3000.00
03459             544.00    -2960.00
03460             512.00    -2920.00
03461             536.00    -2920.00
03462             512.00    -2840.00
03463             512.00    -2760.00
03464             504.00    -2720.00
03465             472.00    -2680.00
03466             464.00    -2640.00
03467             456.00    -2560.00
03468             448.00    -2480.00
03469             424.00    -2440.00
03470             424.00    -2400.00
03471             408.00    -2360.00
03472             392.00    -2280.00
03473             384.00    -2200.00
03474             376.00    -2160.00
03475             368.00    -2120.00
03476             360.00    -2040.00
03477             344.00    -1960.00
03478             328.00    -1880.00
03479             320.00    -1840.00
03480             312.00    -1800.00
03481             296.00    -1720.00
03482             288.00    -1640.00
03483             280.00    -1560.00
03484             256.00    -1520.00
03485             248.00    -1440.00
03486             248.00    -1360.00
03487             232.00    -1320.00
03488             224.00    -1240.00
03489             216.00    -1160.00
03490             216.00    -1080.00
03491             200.00    -1000.00
03492             184.00    -1000.00
03493             168.00     -880.00
03494             176.00     -840.00
03495             168.00     -720.00
03496             152.00     -680.00
03497             136.00     -600.00
03498             136.00     -560.00
03499             128.00     -480.00
03500             120.00     -400.00
03501             120.00     -360.00
03502             104.00     -240.00
03503              96.00     -160.00
03504              88.00     -120.00
03505              88.00      -40.00
03506              80.00       40.00
03507              88.00      120.00
03508              96.00      200.00
03509             104.00      240.00
03510             104.00      280.00
03511              80.00      360.00
03512              64.00      440.00
03513              56.00      520.00
03514              88.00      600.00
03515             376.00      720.00
03516             632.00      880.00
03517             -64.00      840.00
03518           -1016.00      720.00
03519            -520.00      880.00
03520             896.00     1200.00
03521             576.00     1320.00
03522            -952.00      880.00
03523            -232.00     1160.00
03524             936.00     1480.00
03525            -352.00     1520.00
03526            -840.00     1240.00
03527             520.00     1520.00
03528             376.00     1880.00
03529            -672.00     1440.00
03530             -72.00     1520.00
03531             272.00     2040.00
03532            -456.00     1960.00
03533            -152.00     1640.00
03534             224.00     2120.00
03535            -360.00     2240.00
03536            -128.00     1880.00
03537              40.00     2280.00
03538            -360.00     2440.00
03539             -32.00     2040.00
03540              24.00     2440.00
03541            -456.00     2600.00
03542             -48.00     2200.00
03543              88.00     2600.00
03544            -472.00     2800.00
03545            -216.00     2320.00
03546              88.00     2800.00
03547            -296.00     3000.00
03548            -296.00     2440.00
03549             -88.00     2920.00
03550            -200.00     3240.00
03551            -312.00     2600.00
03552            -184.00     3000.00
03553            -160.00     3320.00
03554            -304.00     2840.00
03555            -288.00     3160.00
03556            -168.00     3400.00
03557            -288.00     3000.00
03558            -264.00     3240.00
03559            -192.00     3520.00
03560            -360.00     3160.00
03561            -296.00     3320.00
03562            -224.00     3560.00
03563            -352.00     3360.00
03564            -288.00     3440.00
03565            -264.00     3640.00
03566            -416.00     3480.00
03567            -320.00     3480.00
03568            -248.00     3760.00
03569            -392.00     3600.00
03570            -384.00     3560.00
03571            -288.00     3800.00
03572            -392.00     3720.00
03573            -424.00     3640.00
03574            -328.00     3880.00
03575            -392.00     3760.00
03576            -448.00     3680.00
03577            -344.00     3920.00
03578            -392.00     3880.00
03579            -488.00     3760.00
03580            -408.00     3880.00
03581            -424.00     3920.00
03582            -480.00     3800.00
03583            -440.00     3920.00
03584            -472.00     3920.00
03585            -512.00     3800.00
03586            -456.00     3920.00
03587            -488.00     3960.00
03588            -544.00     3840.00
03589            -504.00     3920.00
03590            -512.00     3960.00
03591            -568.00     3840.00
03592            -544.00     3920.00
03593            -552.00     3920.00
03594            -608.00     3880.00
03595            -576.00     3880.00
03596            -552.00     3920.00
03597            -616.00     3800.00
03598            -616.00     3840.00
03599            -600.00     3880.00
03600            -632.00     3800.00
03601            -632.00     3800.00
03602            -616.00     3800.00
03603            -640.00     3760.00
03604            -640.00     3720.00
03605            -624.00     3760.00
03606            -648.00     3720.00
03607            -664.00     3640.00
03608            -632.00     3680.00
03609            -640.00     3640.00
03610            -640.00     3600.00
03611            -640.00     3600.00
03612            -648.00     3560.00
03613            -648.00     3480.00
03614            -624.00     3480.00
03615            -632.00     3480.00
03616            -640.00     3400.00
03617            -616.00     3360.00
03618            -616.00     3320.00
03619            -616.00     3280.00
03620            -600.00     3240.00
03621            -584.00     3240.00
03622            -592.00     3160.00
03623            -568.00     3120.00
03624            -552.00     3080.00
03625            -568.00     3000.00
03626            -552.00     2960.00
03627            -544.00     2920.00
03628            -520.00     2920.00
03629            -512.00     2840.00
03630            -504.00     2760.00
03631            -504.00     2720.00
03632            -488.00     2680.00
03633            -472.00     2640.00
03634            -456.00     2560.00
03635            -456.00     2520.00
03636            -440.00     2440.00
03637            -424.00     2400.00
03638            -416.00     2320.00
03639            -408.00     2280.00
03640            -392.00     2200.00
03641            -384.00     2160.00
03642            -360.00     2120.00
03643            -352.00     2040.00
03644            -352.00     1960.00
03645            -344.00     1880.00
03646            -328.00     1840.00
03647            -320.00     1800.00
03648            -296.00     1720.00
03649            -288.00     1640.00
03650            -288.00     1560.00
03651            -264.00     1520.00
03652            -256.00     1440.00
03653            -256.00     1360.00
03654            -248.00     1320.00
03655            -232.00     1240.00
03656            -216.00     1160.00
03657            -200.00     1120.00
03658            -200.00     1040.00
03659            -200.00      960.00
03660            -176.00      880.00
03661            -168.00      840.00
03662            -168.00      760.00
03663            -160.00      680.00
03664            -152.00      600.00
03665            -152.00      520.00
03666            -136.00      440.00
03667            -128.00      360.00
03668            -120.00      280.00
03669            -112.00      240.00
03670             -96.00      200.00
03671             -96.00       80.00
03672             -88.00       40.00
03673             -72.00      -40.00
03674             -56.00     -120.00
03675             -32.00     -200.00
03676               0.00     -240.00
03677               0.00     -360.00
03678              -8.00     -400.00
03679              -8.00     -440.00
03680              -8.00     -520.00
03681               0.00     -600.00
03682             160.00     -640.00
03683             472.00     -840.00
03684             360.00    -1000.00
03685            -536.00     -960.00
03686            -960.00     -840.00
03687              64.00    -1040.00
03688             960.00    -1200.00
03689            -160.00    -1160.00
03690            -648.00    -1080.00
03691             360.00    -1640.00
03692             592.00    -1240.00
03693            -392.00    -1160.00
03694            -200.00    -1760.00
03695             472.00    -1720.00
03696              96.00    -1280.00
03697             -32.00    -1800.00
03698             192.00    -2160.00
03699             -56.00    -1520.00
03700             -32.00    -1840.00
03701             328.00    -2320.00
03702             136.00    -1880.00
03703              16.00    -1960.00
03704             104.00    -2520.00
03705             160.00    -2120.00
03706             184.00    -2040.00
03707             176.00    -2640.00
03708              32.00    -2360.00
03709             176.00    -2280.00
03710             312.00    -2720.00
03711              96.00    -2560.00
03712              88.00    -2440.00
03713             224.00    -2840.00
03714             256.00    -2680.00
03715             200.00    -2640.00
03716             160.00    -3000.00
03717             192.00    -2920.00
03718             288.00    -2800.00
03719             200.00    -3120.00
03720             200.00    -3080.00
03721             288.00    -2960.00
03722             200.00    -3240.00
03723             216.00    -3240.00
03724             328.00    -3120.00
03725             256.00    -3280.00
03726             224.00    -3400.00
03727             328.00    -3280.00
03728             288.00    -3400.00
03729             248.00    -3480.00
03730             320.00    -3400.00
03731             328.00    -3480.00
03732             288.00    -3560.00
03733             328.00    -3480.00
03734             320.00    -3560.00
03735             312.00    -3680.00
03736             384.00    -3560.00
03737             352.00    -3640.00
03738             344.00    -3760.00
03739             384.00    -3640.00
03740             368.00    -3720.00
03741             352.00    -3800.00
03742             416.00    -3760.00
03743             408.00    -3760.00
03744             384.00    -3880.00
03745             440.00    -3800.00
03746             440.00    -3800.00
03747             392.00    -3880.00
03748             448.00    -3880.00
03749             480.00    -3880.00
03750             448.00    -3880.00
03751             472.00    -3920.00
03752             488.00    -3880.00
03753             472.00    -3880.00
03754             488.00    -3920.00
03755             512.00    -3880.00
03756             512.00    -3920.00
03757             536.00    -3920.00
03758             552.00    -3880.00
03759             544.00    -3920.00
03760             552.00    -3920.00
03761             568.00    -3840.00
03762             568.00    -3880.00
03763             592.00    -3920.00
03764             616.00    -3840.00
03765             600.00    -3880.00
03766             600.00    -3840.00
03767             632.00    -3800.00
03768             632.00    -3760.00
03769             632.00    -3800.00
03770             640.00    -3720.00
03771             648.00    -3720.00
03772             640.00    -3720.00
03773             648.00    -3720.00
03774             640.00    -3680.00
03775             640.00    -3640.00
03776             648.00    -3600.00
03777             648.00    -3600.00
03778             640.00    -3560.00
03779             640.00    -3480.00
03780             640.00    -3480.00
03781             632.00    -3480.00
03782             632.00    -3440.00
03783             632.00    -3400.00
03784             616.00    -3400.00
03785             616.00    -3320.00
03786             600.00    -3280.00
03787             584.00    -3240.00
03788             592.00    -3240.00
03789             584.00    -3160.00
03790             576.00    -3120.00
03791             576.00    -3080.00
03792             568.00    -3000.00
03793             536.00    -3000.00
03794             520.00    -2960.00
03795             536.00    -2880.00
03796             512.00    -2840.00
03797             504.00    -2760.00
03798             504.00    -2720.00
03799             472.00    -2640.00
03800             456.00    -2640.00
03801             456.00    -2560.00
03802             448.00    -2480.00
03803             440.00    -2440.00
03804             424.00    -2360.00
03805             408.00    -2320.00
03806             392.00    -2320.00
03807             384.00    -2200.00
03808             376.00    -2160.00
03809             360.00    -2120.00
03810             352.00    -2040.00
03811             352.00    -2000.00
03812             320.00    -1880.00
03813             320.00    -1840.00
03814             304.00    -1800.00
03815             296.00    -1720.00
03816             288.00    -1640.00
03817             280.00    -1560.00
03818             264.00    -1520.00
03819             256.00    -1440.00
03820             256.00    -1360.00
03821             232.00    -1320.00
03822             216.00    -1240.00
03823             224.00    -1160.00
03824             216.00    -1080.00
03825             200.00    -1040.00
03826             192.00     -960.00
03827             168.00     -880.00
03828             168.00     -840.00
03829             168.00     -720.00
03830             152.00     -680.00
03831             136.00     -600.00
03832             136.00     -520.00
03833             128.00     -440.00
03834             120.00     -400.00
03835             120.00     -320.00
03836             104.00     -240.00
03837              96.00     -200.00
03838              88.00     -120.00
03839              88.00      -40.00
03840              88.00       40.00
03841              88.00      120.00
03842              88.00      200.00
03843             120.00      240.00
03844             104.00      320.00
03845              88.00      400.00
03846              56.00      440.00
03847              56.00      520.00
03848              72.00      600.00
03849             352.00      720.00
03850             632.00      880.00
03851               0.00      880.00
03852           -1016.00      760.00
03853            -584.00      880.00
03854             832.00     1160.00
03855             664.00     1360.00
03856            -920.00      880.00
03857            -312.00     1160.00
03858             928.00     1480.00
03859            -256.00     1520.00
03860            -888.00     1280.00
03861             448.00     1480.00
03862             448.00     1880.00
03863            -648.00     1480.00
03864            -136.00     1520.00
03865             312.00     2040.00
03866            -440.00     1960.00
03867            -192.00     1600.00
03868             248.00     2080.00
03869            -344.00     2240.00
03870            -160.00     1840.00
03871              64.00     2200.00
03872            -360.00     2440.00
03873             -64.00     2080.00
03874              40.00     2400.00
03875            -456.00     2640.00
03876             -88.00     2200.00
03877              96.00     2560.00
03878            -464.00     2840.00
03879            -248.00     2360.00
03880              88.00     2760.00
03881            -288.00     3000.00
03882            -312.00     2440.00
03883             -88.00     2880.00
03884            -200.00     3280.00
03885            -312.00     2600.00
03886            -192.00     2960.00
03887            -136.00     3360.00
03888            -296.00     2840.00
03889            -288.00     3120.00
03890            -184.00     3400.00
03891            -280.00     3080.00
03892            -272.00     3240.00
03893            -192.00     3480.00
03894            -352.00     3240.00
03895            -296.00     3320.00
03896            -224.00     3560.00
03897            -352.00     3400.00
03898            -296.00     3440.00
03899            -256.00     3680.00
03900            -408.00     3480.00
03901            -328.00     3480.00
03902            -248.00     3760.00
03903            -384.00     3600.00
03904            -384.00     3560.00
03905            -288.00     3800.00
03906            -384.00     3720.00
03907            -424.00     3640.00
03908            -328.00     3880.00
03909            -392.00     3800.00
03910            -448.00     3680.00
03911            -352.00     3880.00
03912            -384.00     3880.00
03913            -480.00     3760.00
03914            -416.00     3880.00
03915            -416.00     3920.00
03916            -472.00     3800.00
03917            -440.00     3920.00
03918            -456.00     3920.00
03919            -512.00     3840.00
03920            -472.00     3920.00
03921            -488.00     3960.00
03922            -544.00     3840.00
03923            -504.00     3920.00
03924            -512.00     3960.00
03925            -568.00     3880.00
03926            -544.00     3920.00
03927            -544.00     3920.00
03928            -608.00     3880.00
03929            -576.00     3880.00
03930            -552.00     3920.00
03931            -608.00     3800.00
03932            -616.00     3800.00
03933            -600.00     3880.00
03934            -624.00     3800.00
03935            -632.00     3800.00
03936            -616.00     3800.00
03937            -640.00     3760.00
03938            -640.00     3720.00
03939            -632.00     3760.00
03940            -648.00     3720.00
03941            -664.00     3680.00
03942            -640.00     3680.00
03943            -640.00     3640.00
03944            -648.00     3560.00
03945            -640.00     3560.00
03946            -648.00     3560.00
03947            -648.00     3480.00
03948            -624.00     3480.00
03949            -632.00     3440.00
03950            -640.00     3400.00
03951            -616.00     3400.00
03952            -616.00     3320.00
03953            -616.00     3280.00
03954            -608.00     3240.00
03955            -584.00     3240.00
03956            -600.00     3160.00
03957            -568.00     3120.00
03958            -552.00     3120.00
03959            -568.00     3040.00
03960            -560.00     3000.00
03961            -536.00     2960.00
03962            -536.00     2880.00
03963            -512.00     2840.00
03964            -504.00     2800.00
03965            -504.00     2760.00
03966            -480.00     2680.00
03967            -472.00     2640.00
03968            -456.00     2600.00
03969            -448.00     2520.00
03970            -440.00     2480.00
03971            -416.00     2400.00
03972            -416.00     2320.00
03973            -408.00     2280.00
03974            -408.00     2200.00
03975            -384.00     2160.00
03976            -360.00     2120.00
03977            -352.00     2040.00
03978            -352.00     1960.00
03979            -344.00     1920.00
03980            -328.00     1840.00
03981            -312.00     1800.00
03982            -296.00     1720.00
03983            -288.00     1640.00
03984            -280.00     1600.00
03985            -264.00     1560.00
03986            -256.00     1440.00
03987            -256.00     1400.00
03988            -248.00     1320.00
03989            -232.00     1240.00
03990            -216.00     1160.00
03991            -200.00     1080.00
03992            -200.00     1040.00
03993            -200.00      960.00
03994            -184.00      880.00
03995            -168.00      840.00
03996            -168.00      760.00
03997            -160.00      680.00
03998            -152.00      600.00
03999            -152.00      520.00
04000            -136.00      440.00
04001            -128.00      400.00
04002            -120.00      320.00
04003            -120.00      240.00
04004            -104.00      200.00
04005             -96.00      120.00
04006             -96.00       40.00
04007             -88.00      -40.00
04008             -56.00     -120.00
04009             -32.00     -200.00
04010              -8.00     -240.00
04011              -8.00     -280.00
04012             -24.00     -400.00
04013              -8.00     -440.00
04014              -8.00     -520.00
04015               8.00     -560.00
04016             136.00     -600.00
04017             472.00     -760.00
04018             392.00    -1000.00
04019            -480.00    -1000.00
04020            -992.00     -800.00
04021               0.00    -1000.00
04022             960.00    -1160.00
04023             -80.00    -1160.00
04024            -664.00    -1080.00
04025             304.00    -1600.00
04026             640.00    -1320.00
04027            -360.00    -1160.00
04028            -232.00    -1720.00
04029             464.00    -1760.00
04030             120.00    -1320.00
04031             -40.00    -1720.00
04032             192.00    -2120.00
04033             -40.00    -1560.00
04034             -40.00    -1800.00
04035             320.00    -2320.00
04036             160.00    -1880.00
04037               8.00    -1880.00
04038              88.00    -2480.00
04039             160.00    -2120.00
04040             184.00    -2040.00
04041             192.00    -2600.00
04042              48.00    -2440.00
04043             168.00    -2240.00
04044             320.00    -2760.00
04045             104.00    -2560.00
04046              88.00    -2480.00
04047             224.00    -2880.00
04048             256.00    -2720.00
04049             200.00    -2640.00
04050             168.00    -3000.00
04051             192.00    -2920.00
04052             288.00    -2760.00
04053             216.00    -3080.00
04054             192.00    -3120.00
04055             288.00    -2960.00
04056             216.00    -3200.00
04057             208.00    -3280.00
04058             328.00    -3120.00
04059             256.00    -3280.00
04060             216.00    -3400.00
04061             328.00    -3240.00
04062             288.00    -3400.00
04063             240.00    -3480.00
04064             320.00    -3360.00
04065             328.00    -3480.00
04066             288.00    -3560.00
04067             328.00    -3480.00
04068             312.00    -3560.00
04069             320.00    -3640.00
04070             376.00    -3600.00
04071             352.00    -3640.00
04072             328.00    -3720.00
04073             384.00    -3680.00
04074             368.00    -3720.00
04075             352.00    -3800.00
04076             408.00    -3760.00
04077             408.00    -3760.00
04078             376.00    -3800.00
04079             440.00    -3800.00
04080             440.00    -3800.00
04081             384.00    -3880.00
04082             440.00    -3880.00
04083             480.00    -3880.00
04084             448.00    -3920.00
04085             464.00    -3920.00
04086             488.00    -3880.00
04087             480.00    -3920.00
04088             488.00    -3920.00
04089             512.00    -3880.00
04090             512.00    -3920.00
04091             528.00    -3920.00
04092             552.00    -3880.00
04093             544.00    -3920.00
04094             552.00    -3880.00
04095             576.00    -3800.00
04096             576.00    -3880.00
04097             584.00    -3880.00
04098             616.00    -3880.00
04099             608.00    -3840.00
04100             600.00    -3840.00
04101             632.00    -3800.00
04102             624.00    -3800.00
04103             632.00    -3800.00
04104             640.00    -3760.00
04105             640.00    -3720.00
04106             640.00    -3760.00
04107             640.00    -3720.00
04108             640.00    -3640.00
04109             640.00    -3640.00
04110             640.00    -3600.00
04111             648.00    -3600.00
04112             648.00    -3560.00
04113             640.00    -3560.00
04114             632.00    -3480.00
04115             632.00    -3480.00
04116             640.00    -3440.00
04117             632.00    -3400.00
04118             616.00    -3360.00
04119             608.00    -3320.00
04120             608.00    -3280.00
04121             600.00    -3240.00
04122             584.00    -3240.00
04123             584.00    -3160.00
04124             576.00    -3120.00
04125             576.00    -3080.00
04126             568.00    -3000.00
04127             536.00    -2960.00
04128             520.00    -2920.00
04129             536.00    -2880.00
04130             512.00    -2840.00
04131             504.00    -2800.00
04132             496.00    -2720.00
04133             472.00    -2680.00
04134             464.00    -2640.00
04135             456.00    -2600.00
04136             448.00    -2520.00
04137             424.00    -2440.00
04138             424.00    -2440.00
04139             408.00    -2320.00
04140             392.00    -2280.00
04141             384.00    -2200.00
04142             376.00    -2120.00
04143             360.00    -2120.00
04144             352.00    -2040.00
04145             344.00    -1960.00
04146             328.00    -1920.00
04147             320.00    -1840.00
04148             312.00    -1800.00
04149             296.00    -1720.00
04150             288.00    -1680.00
04151             280.00    -1560.00
04152             264.00    -1520.00
04153             256.00    -1440.00
04154             248.00    -1360.00
04155             232.00    -1320.00
04156             224.00    -1240.00
04157             224.00    -1160.00
04158             216.00    -1120.00
04159             200.00    -1040.00
04160             184.00     -960.00
04161             176.00     -880.00
04162             168.00     -840.00
04163             168.00     -760.00
04164             160.00     -680.00
04165             152.00     -600.00
04166             136.00     -560.00
04167             120.00     -480.00
04168             120.00     -400.00
04169             120.00     -360.00
04170             104.00     -240.00
04171              96.00     -160.00
04172              88.00     -120.00
04173              96.00      -40.00
04174              88.00       40.00
04175              88.00       80.00
04176              88.00      200.00
04177             120.00      280.00
04178             104.00      320.00
04179              88.00      400.00
04180              64.00      400.00
04181              40.00      520.00
04182              72.00      600.00
04183             320.00      720.00
04184             632.00      920.00
04185              64.00      880.00
04186           -1016.00      760.00
04187            -648.00      880.00
04188             760.00     1160.00
04189             768.00     1400.00
04190            -888.00      920.00
04191            -392.00     1120.00
04192             912.00     1440.00
04193            -168.00     1560.00
04194            -912.00     1240.00
04195             384.00     1440.00
04196             504.00     1880.00
04197            -640.00     1520.00
04198            -192.00     1480.00
04199             328.00     2040.00
04200            -416.00     2000.00
04201            -232.00     1640.00
04202             248.00     2040.00
04203            -328.00     2280.00
04204            -184.00     1880.00
04205              72.00     2200.00
04206            -328.00     2440.00
04207             -72.00     2040.00
04208              64.00     2400.00
04209            -456.00     2640.00
04210            -128.00     2200.00
04211             128.00     2520.00
04212            -424.00     2840.00
04213            -280.00     2320.00
04214              88.00     2720.00
04215            -264.00     3040.00
04216            -320.00     2440.00
04217             -88.00     2800.00
04218            -184.00     3320.00
04219            -312.00     2640.00
04220            -192.00     2920.00
04221            -136.00     3360.00
04222            -296.00     2840.00
04223            -312.00     3080.00
04224            -176.00     3440.00
04225            -264.00     3080.00
04226            -256.00     3160.00
04227            -184.00     3480.00
04228            -352.00     3240.00
04229            -328.00     3320.00
04230            -216.00     3560.00
04231            -320.00     3400.00
04232            -296.00     3400.00
04233            -248.00     3640.00
04234            -408.00     3480.00
04235            -352.00     3480.00
04236            -232.00     3760.00
04237            -368.00     3680.00
04238            -384.00     3480.00
04239            -288.00     3800.00
04240            -384.00     3760.00
04241            -424.00     3600.00
04242            -320.00     3840.00
04243            -384.00     3800.00
04244            -448.00     3720.00
04245            -352.00     3880.00
04246            -384.00     3880.00
04247            -496.00     3760.00
04248            -416.00     3880.00
04249            -416.00     3920.00
04250            -472.00     3800.00
04251            -432.00     3920.00
04252            -456.00     3960.00
04253            -512.00     3840.00
04254            -480.00     3880.00
04255            -480.00     3960.00
04256            -544.00     3880.00
04257            -504.00     3920.00
04258            -504.00     3920.00
04259            -576.00     3880.00
04260            -544.00     3920.00
04261            -536.00     3960.00
04262            -608.00     3840.00
04263            -576.00     3880.00
04264            -552.00     3880.00
04265            -616.00     3880.00
04266            -616.00     3800.00
04267            -600.00     3880.00
04268            -632.00     3800.00
04269            -640.00     3760.00
04270            -616.00     3800.00
04271            -640.00     3760.00
04272            -648.00     3720.00
04273            -632.00     3760.00
04274            -648.00     3720.00
04275            -664.00     3640.00
04276            -640.00     3680.00
04277            -640.00     3640.00
04278            -648.00     3600.00
04279            -640.00     3600.00
04280            -648.00     3560.00
04281            -648.00     3480.00
04282            -632.00     3480.00
04283            -624.00     3440.00
04284            -632.00     3400.00
04285            -616.00     3360.00
04286            -608.00     3320.00
04287            -616.00     3280.00
04288            -600.00     3240.00
04289            -584.00     3240.00
04290            -592.00     3160.00
04291            -568.00     3120.00
04292            -552.00     3080.00
04293            -568.00     3040.00
04294            -552.00     3000.00
04295            -544.00     2920.00
04296            -520.00     2920.00
04297            -520.00     2840.00
04298            -504.00     2800.00
04299            -504.00     2720.00
04300            -496.00     2680.00
04301            -472.00     2640.00
04302            -456.00     2600.00
04303            -448.00     2520.00
04304            -440.00     2440.00
04305            -424.00     2400.00
04306            -416.00     2320.00
04307            -400.00     2320.00
04308            -392.00     2240.00
04309            -384.00     2160.00
04310            -360.00     2120.00
04311            -352.00     2080.00
04312            -352.00     2000.00
04313            -344.00     1960.00
04314            -328.00     1840.00
04315            -312.00     1800.00
04316            -296.00     1720.00
04317            -288.00     1640.00
04318            -280.00     1560.00
04319            -272.00     1520.00
04320            -256.00     1480.00
04321            -256.00     1360.00
04322            -256.00     1320.00
04323            -232.00     1240.00
04324            -224.00     1160.00
04325            -208.00     1080.00
04326            -200.00     1040.00
04327            -200.00      960.00
04328            -184.00      920.00
04329            -168.00      840.00
04330            -168.00      760.00
04331            -160.00      680.00
04332            -152.00      600.00
04333            -152.00      560.00
04334            -136.00      440.00
04335            -128.00      360.00
04336            -120.00      280.00
04337            -120.00      240.00
04338            -104.00      200.00
04339             -96.00      120.00
04340             -96.00       40.00
04341             -88.00        0.00
04342             -64.00     -120.00
04343             -32.00     -160.00
04344              -8.00     -240.00
04345              -8.00     -360.00
04346              -8.00     -400.00
04347              -8.00     -440.00
04348              -8.00     -520.00
04349               8.00     -560.00
04350             128.00     -640.00
04351             448.00     -760.00
04352             416.00    -1000.00
04353            -424.00    -1000.00
04354           -1000.00     -840.00
04355             -64.00    -1000.00
04356             952.00    -1160.00
04357               0.00    -1160.00
04358            -688.00    -1080.00
04359             232.00    -1600.00
04360             680.00    -1320.00
04361            -320.00    -1160.00
04362            -264.00    -1720.00
04363             448.00    -1800.00
04364             152.00    -1320.00
04365             -40.00    -1680.00
04366             192.00    -2200.00
04367             -24.00    -1600.00
04368             -56.00    -1720.00
04369             296.00    -2360.00
04370             184.00    -1880.00
04371               8.00    -1880.00
04372              88.00    -2480.00
04373             168.00    -2160.00
04374             168.00    -2000.00
04375             208.00    -2600.00
04376              40.00    -2440.00
04377             160.00    -2200.00
04378             312.00    -2680.00
04379             120.00    -2600.00
04380              72.00    -2440.00
04381             216.00    -2840.00
04382             256.00    -2760.00
04383             216.00    -2600.00
04384             168.00    -3000.00
04385             184.00    -2960.00
04386             288.00    -2760.00
04387             216.00    -3080.00
04388             192.00    -3120.00
04389             288.00    -2920.00
04390             216.00    -3160.00
04391             208.00    -3240.00
04392             320.00    -3080.00
04393             280.00    -3280.00
04394             216.00    -3400.00
04395             320.00    -3240.00
04396             296.00    -3400.00
04397             224.00    -3480.00
04398             312.00    -3400.00
04399             344.00    -3480.00
04400             288.00    -3560.00
04401             320.00    -3520.00
04402             320.00    -3560.00
04403             312.00    -3640.00
04404             376.00    -3600.00
04405             360.00    -3600.00
04406             328.00    -3720.00
04407             384.00    -3640.00
04408             376.00    -3720.00
04409             352.00    -3800.00
04410             408.00    -3760.00
04411             416.00    -3760.00
04412             384.00    -3880.00
04413             440.00    -3840.00
04414             440.00    -3800.00
04415             392.00    -3880.00
04416             440.00    -3880.00
04417             472.00    -3880.00
04418             448.00    -3920.00
04419             472.00    -3880.00
04420             488.00    -3880.00
04421             480.00    -3920.00
04422             488.00    -3920.00
04423             520.00    -3880.00
04424             512.00    -3920.00
04425             536.00    -3920.00
04426             552.00    -3880.00
04427             544.00    -3920.00
04428             552.00    -3920.00
04429             576.00    -3840.00
04430             576.00    -3840.00
04431             584.00    -3880.00
04432             616.00    -3840.00
04433             608.00    -3880.00
04434             600.00    -3840.00
04435             632.00    -3800.00
04436             632.00    -3800.00
04437             632.00    -3800.00
04438             640.00    -3760.00
04439             656.00    -3760.00
04440             640.00    -3760.00
04441             640.00    -3720.00
04442             648.00    -3640.00
04443             640.00    -3640.00
04444             656.00    -3640.00
04445             664.00    -3600.00
04446             640.00    -3600.00
04447             640.00    -3520.00
04448             640.00    -3480.00
04449             632.00    -3480.00
04450             640.00    -3440.00
04451             640.00    -3400.00
04452             616.00    -3360.00
04453             616.00    -3320.00
04454             608.00    -3280.00
04455             600.00    -3280.00
04456             584.00    -3240.00
04457             584.00    -3160.00
04458             576.00    -3120.00
04459             568.00    -3080.00
04460             568.00    -3040.00
04461             536.00    -2960.00
04462             520.00    -2920.00
04463             536.00    -2880.00
04464             512.00    -2840.00
04465             504.00    -2800.00
04466             496.00    -2720.00
04467             480.00    -2680.00
04468             464.00    -2640.00
04469             456.00    -2600.00
04470             448.00    -2520.00
04471             440.00    -2480.00
04472             416.00    -2400.00
04473             416.00    -2320.00
04474             392.00    -2320.00
04475             384.00    -2200.00
04476             376.00    -2160.00
04477             360.00    -2120.00
04478             360.00    -2040.00
04479             344.00    -1960.00
04480             328.00    -1960.00
04481             312.00    -1840.00
04482             312.00    -1800.00
04483             296.00    -1720.00
04484             296.00    -1680.00
04485             280.00    -1600.00
04486             264.00    -1480.00
04487             248.00    -1440.00
04488             248.00    -1400.00
04489             232.00    -1320.00
04490             224.00    -1280.00
04491             224.00    -1200.00
04492             216.00    -1120.00
04493             200.00    -1080.00
04494             192.00     -960.00
04495             184.00     -920.00
04496             168.00     -840.00
04497             160.00     -760.00
04498             160.00     -680.00
04499             152.00     -600.00
04500             136.00     -520.00
04501             136.00     -480.00
04502             128.00     -400.00
04503             112.00     -320.00
04504             120.00     -280.00
04505             104.00     -200.00
04506              96.00     -120.00
04507              88.00        0.00
04508              88.00       40.00
04509              88.00      120.00
04510              88.00      200.00
04511             104.00      240.00
04512              96.00      320.00
04513              88.00      360.00
04514              64.00      440.00
04515              56.00      520.00
04516              64.00      560.00
04517             312.00      720.00
04518             632.00      840.00
04519             128.00      880.00
04520           -1016.00      720.00
04521            -720.00      880.00
04522             680.00     1120.00
04523             832.00     1400.00
04524            -856.00      880.00
04525            -456.00     1160.00
04526             888.00     1400.00
04527             -72.00     1560.00
04528            -944.00     1320.00
04529             296.00     1400.00
04530             568.00     1880.00
04531            -600.00     1520.00
04532            -256.00     1480.00
04533             352.00     2000.00
04534            -400.00     2000.00
04535            -264.00     1640.00
04536             256.00     2000.00
04537            -296.00     2280.00
04538            -200.00     1880.00
04539              72.00     2160.00
04540            -344.00     2440.00
04541            -120.00     2120.00
04542              80.00     2320.00
04543            -424.00     2680.00
04544            -152.00     2200.00
04545             144.00     2480.00
04546            -424.00     2880.00
04547            -312.00     2360.00
04548              96.00     2640.00
04549            -240.00     3080.00
04550            -328.00     2480.00
04551             -96.00     2760.00
04552            -176.00     3280.00
04553            -312.00     2680.00
04554            -200.00     2840.00
04555            -128.00     3400.00
04556            -272.00     2880.00
04557            -304.00     3000.00
04558            -168.00     3400.00
04559            -264.00     3080.00
04560            -280.00     3200.00
04561            -192.00     3560.00
04562            -328.00     3240.00
04563            -320.00     3280.00
04564            -216.00     3560.00
04565            -328.00     3400.00
04566            -304.00     3400.00
04567            -232.00     3640.00
04568            -392.00     3520.00
04569            -352.00     3440.00
04570            -232.00     3720.00
04571            -376.00     3680.00
04572            -392.00     3520.00
04573            -288.00     3800.00
04574            -376.00     3760.00
04575            -424.00     3640.00
04576            -320.00     3840.00
04577            -376.00     3800.00
04578            -448.00     3680.00
04579            -360.00     3880.00
04580            -376.00     3880.00
04581            -488.00     3760.00
04582            -424.00     3840.00
04583            -408.00     3920.00
04584            -464.00     3840.00
04585            -448.00     3920.00
04586            -448.00     3960.00
04587            -512.00     3880.00
04588            -480.00     3880.00
04589            -480.00     3960.00
04590            -544.00     3880.00
04591            -512.00     3880.00
04592            -504.00     3960.00
04593            -568.00     3880.00
04594            -544.00     3880.00
04595            -544.00     3920.00
04596            -608.00     3880.00
04597            -584.00     3840.00
04598            -552.00     3920.00
04599            -600.00     3840.00
04600            -632.00     3800.00
04601            -608.00     3880.00
04602            -616.00     3800.00
04603            -640.00     3800.00
04604            -616.00     3800.00
04605            -632.00     3760.00
04606            -640.00     3720.00
04607            -632.00     3760.00
04608            -648.00     3720.00
04609            -664.00     3680.00
04610            -640.00     3680.00
04611            -640.00     3640.00
04612            -648.00     3600.00
04613            -640.00     3560.00
04614            -648.00     3560.00
04615            -656.00     3480.00
04616            -632.00     3480.00
04617            -616.00     3480.00
04618            -640.00     3400.00
04619            -616.00     3360.00
04620            -616.00     3400.00
04621            -616.00     3280.00
04622            -600.00     3240.00
04623            -584.00     3240.00
04624            -584.00     3160.00
04625            -568.00     3120.00
04626            -552.00     3080.00
04627            -568.00     3000.00
04628            -560.00     2960.00
04629            -536.00     2920.00
04630            -520.00     2920.00
04631            -512.00     2840.00
04632            -504.00     2800.00
04633            -504.00     2760.00
04634            -488.00     2680.00
04635            -472.00     2640.00
04636            -456.00     2600.00
04637            -448.00     2520.00
04638            -440.00     2480.00
04639            -424.00     2440.00
04640            -416.00     2360.00
04641            -408.00     2320.00
04642            -400.00     2200.00
04643            -384.00     2160.00
04644            -360.00     2120.00
04645            -352.00     2040.00
04646            -352.00     2000.00
04647            -344.00     1960.00
04648            -328.00     1840.00
04649            -312.00     1800.00
04650            -296.00     1720.00
04651            -288.00     1640.00
04652            -288.00     1560.00
04653            -280.00     1520.00
04654            -256.00     1480.00
04655            -256.00     1400.00
04656            -256.00     1320.00
04657            -240.00     1240.00
04658            -224.00     1160.00
04659            -216.00     1120.00
04660            -216.00     1040.00
04661            -200.00     1000.00
04662            -192.00      880.00
04663            -168.00      840.00
04664            -168.00      760.00
04665            -160.00      680.00
04666            -160.00      640.00
04667            -152.00      560.00
04668            -136.00      480.00
04669            -128.00      400.00
04670            -120.00      360.00
04671            -112.00      240.00
04672             -96.00      200.00
04673             -96.00      120.00
04674             -96.00       40.00
04675             -72.00      -40.00
04676             -64.00     -120.00
04677             -32.00     -200.00
04678              -8.00     -240.00
04679               0.00     -320.00
04680              -8.00     -400.00
04681              -8.00     -440.00
04682              -8.00     -520.00
04683               8.00     -560.00
04684             120.00     -640.00
04685             440.00     -800.00
04686             440.00    -1000.00
04687            -360.00    -1000.00
04688           -1016.00     -840.00
04689            -128.00    -1000.00
04690             928.00    -1200.00
04691              96.00    -1160.00
04692            -712.00    -1040.00
04693             184.00    -1560.00
04694             712.00    -1360.00
04695            -296.00    -1160.00
04696            -296.00    -1720.00
04697             424.00    -1800.00
04698             176.00    -1280.00
04699             -40.00    -1640.00
04700             184.00    -2160.00
04701               0.00    -1600.00
04702             -56.00    -1680.00
04703             280.00    -2320.00
04704             200.00    -1960.00
04705              16.00    -1880.00
04706              88.00    -2480.00
04707             168.00    -2200.00
04708             160.00    -2000.00
04709             216.00    -2600.00
04710              40.00    -2480.00
04711             136.00    -2200.00
04712             312.00    -2680.00
04713             128.00    -2600.00
04714              64.00    -2440.00
04715             216.00    -2840.00
04716             264.00    -2760.00
04717             200.00    -2600.00
04718             168.00    -3000.00
04719             184.00    -3000.00
04720             288.00    -2760.00
04721             216.00    -3080.00
04722             192.00    -3120.00
04723             288.00    -2960.00
04724             224.00    -3160.00
04725             192.00    -3280.00
04726             320.00    -3120.00
04727             272.00    -3280.00
04728             200.00    -3400.00
04729             320.00    -3240.00
04730             304.00    -3360.00
04731             232.00    -3480.00
04732             312.00    -3400.00
04733             344.00    -3480.00
04734             288.00    -3600.00
04735             320.00    -3480.00
04736             320.00    -3560.00
04737             312.00    -3680.00
04738             376.00    -3600.00
04739             360.00    -3640.00
04740             320.00    -3760.00
04741             384.00    -3720.00
04742             376.00    -3640.00
04743             344.00    -3800.00
04744             408.00    -3760.00
04745             416.00    -3760.00
04746             376.00    -3840.00
04747             440.00    -3880.00
04748             448.00    -3800.00
04749             392.00    -3880.00
04750             424.00    -3880.00
04751             480.00    -3840.00
04752             456.00    -3880.00
04753             456.00    -3920.00
04754             496.00    -3880.00
04755             480.00    -3920.00
04756             488.00    -3920.00
04757             512.00    -3880.00
04758             512.00    -3920.00
04759             536.00    -3920.00
04760             552.00    -3880.00
04761             544.00    -3920.00
04762             552.00    -3920.00
04763             576.00    -3880.00
04764             576.00    -3880.00
04765             584.00    -3920.00
04766             616.00    -3880.00
04767             600.00    -3840.00
04768             600.00    -3840.00
04769             632.00    -3800.00
04770             632.00    -3800.00
04771             632.00    -3800.00
04772             640.00    -3760.00
04773             648.00    -3720.00
04774             640.00    -3720.00
04775             640.00    -3720.00
04776             640.00    -3640.00
04777             640.00    -3640.00
04778             648.00    -3640.00
04779             664.00    -3600.00
04780             648.00    -3560.00
04781             640.00    -3560.00
04782             632.00    -3520.00
04783             632.00    -3480.00
04784             632.00    -3440.00
04785             632.00    -3400.00
04786             616.00    -3400.00
04787             616.00    -3320.00
04788             600.00    -3280.00
04789             592.00    -3240.00
04790             584.00    -3240.00
04791             584.00    -3160.00
04792             568.00    -3120.00
04793             568.00    -3080.00
04794             568.00    -3040.00
04795             544.00    -3000.00
04796             520.00    -2920.00
04797             536.00    -2920.00
04798             512.00    -2840.00
04799             504.00    -2800.00
04800             488.00    -2720.00
04801             480.00    -2680.00
04802             472.00    -2640.00
04803             448.00    -2600.00
04804             448.00    -2480.00
04805             440.00    -2480.00
04806             416.00    -2400.00
04807             416.00    -2360.00
04808             392.00    -2280.00
04809             384.00    -2280.00
04810             376.00    -2160.00
04811             376.00    -2120.00
04812             360.00    -2040.00
04813             352.00    -1960.00
04814             328.00    -1960.00
04815             320.00    -1840.00
04816             312.00    -1800.00
04817             296.00    -1720.00
04818             296.00    -1680.00
04819             288.00    -1560.00
04820             264.00    -1520.00
04821             256.00    -1440.00
04822             248.00    -1400.00
04823             232.00    -1320.00
04824             224.00    -1240.00
04825             224.00    -1160.00
04826             216.00    -1120.00
04827             200.00    -1040.00
04828             192.00    -1000.00
04829             184.00     -920.00
04830             168.00     -840.00
04831             168.00     -760.00
04832             160.00     -680.00
04833             152.00     -600.00
04834             136.00     -520.00
04835             128.00     -520.00
04836             128.00     -400.00
04837             120.00     -360.00
04838             112.00     -280.00
04839             104.00     -160.00
04840              96.00     -120.00
04841              80.00      -40.00
04842              88.00       40.00
04843              80.00      120.00
04844              96.00      200.00
04845             112.00      200.00
04846              96.00      280.00
04847              88.00      360.00
04848              64.00      440.00
04849              40.00      520.00
04850              64.00      600.00
04851             280.00      680.00
04852             632.00      880.00
04853             192.00      920.00
04854           -1016.00      760.00
04855            -792.00      840.00
04856             608.00     1120.00
04857             912.00     1400.00
04858            -800.00      880.00
04859            -536.00     1080.00
04860             856.00     1400.00
04861               8.00     1560.00
04862            -960.00     1240.00
04863             224.00     1400.00
04864             616.00     1880.00
04865            -568.00     1520.00
04866            -312.00     1480.00
04867             360.00     1960.00
04868            -368.00     2040.00
04869            -296.00     1640.00
04870             256.00     2000.00
04871            -264.00     2280.00
04872            -232.00     1920.00
04873              72.00     2120.00
04874            -312.00     2440.00
04875            -136.00     2120.00
04876              88.00     2320.00
04877            -416.00     2680.00
04878            -192.00     2200.00
04879             144.00     2480.00
04880            -392.00     2880.00
04881            -344.00     2400.00
04882              96.00     2640.00
04883            -216.00     3080.00
04884            -352.00     2520.00
04885            -104.00     2760.00
04886            -168.00     3320.00
04887            -312.00     2720.00
04888            -208.00     2840.00
04889            -136.00     3360.00
04890            -264.00     2920.00
04891            -312.00     3000.00
04892            -168.00     3440.00
04893            -256.00     3080.00
04894            -288.00     3160.00
04895            -192.00     3480.00
04896            -320.00     3280.00
04897            -328.00     3280.00
04898            -208.00     3560.00
04899            -320.00     3400.00
04900            -312.00     3400.00
04901            -240.00     3640.00
04902            -392.00     3520.00
04903            -360.00     3480.00
04904            -232.00     3720.00
04905            -360.00     3640.00
04906            -392.00     3520.00
04907            -296.00     3760.00
04908            -360.00     3800.00
04909            -432.00     3600.00
04910            -336.00     3800.00
04911            -360.00     3840.00
04912            -456.00     3720.00
04913            -360.00     3880.00
04914            -360.00     3920.00
04915            -480.00     3760.00
04916            -424.00     3880.00
04917            -416.00     3920.00
04918            -472.00     3800.00
04919            -448.00     3880.00
04920            -456.00     3920.00
04921            -512.00     3840.00
04922            -480.00     3880.00
04923            -480.00     3960.00
04924            -536.00     3880.00
04925            -512.00     3880.00
04926            -512.00     3960.00
04927            -576.00     3880.00
04928            -552.00     3880.00
04929            -544.00     3960.00
04930            -600.00     3880.00
04931            -592.00     3880.00
04932            -552.00     3920.00
04933            -608.00     3840.00
04934            -632.00     3800.00
04935            -592.00     3880.00
04936            -616.00     3840.00
04937            -640.00     3800.00
04938            -616.00     3800.00
04939            -640.00     3760.00
04940            -640.00     3720.00
04941            -616.00     3760.00
04942            -648.00     3720.00
04943            -664.00     3680.00
04944            -648.00     3680.00
04945            -640.00     3640.00
04946            -640.00     3600.00
04947            -624.00     3600.00
04948            -648.00     3600.00
04949            -656.00     3480.00
04950            -632.00     3480.00
04951            -616.00     3480.00
04952            -632.00     3400.00
04953            -616.00     3360.00
04954            -608.00     3320.00
04955            -616.00     3280.00
04956            -600.00     3240.00
04957            -584.00     3240.00
04958            -584.00     3160.00
04959            -576.00     3120.00
04960            -552.00     3120.00
04961            -552.00     3000.00
04962            -552.00     3000.00
04963            -544.00     2960.00
04964            -520.00     2920.00
04965            -512.00     2880.00
04966            -504.00     2800.00
04967            -504.00     2720.00
04968            -488.00     2680.00
04969            -472.00     2640.00
04970            -456.00     2600.00
04971            -448.00     2520.00
04972            -432.00     2480.00
04973            -424.00     2440.00
04974            -416.00     2360.00
04975            -400.00     2320.00
04976            -400.00     2200.00
04977            -376.00     2160.00
04978            -360.00     2120.00
04979            -352.00     2080.00
04980            -352.00     2000.00
04981            -344.00     1960.00
04982            -328.00     1880.00
04983            -320.00     1760.00
04984            -296.00     1720.00
04985            -288.00     1640.00
04986            -288.00     1560.00
04987            -264.00     1520.00
04988            -264.00     1480.00
04989            -264.00     1400.00
04990            -256.00     1360.00
04991            -248.00     1240.00
04992            -224.00     1160.00
04993            -208.00     1160.00
04994            -216.00     1040.00
04995            -200.00      960.00
04996            -192.00      880.00
04997            -168.00      840.00
04998            -168.00      760.00
04999            -168.00      680.00
05000            -152.00      600.00
