Unit:(mV)
                     CH1         CH2
Frequency              ? 298.996 kHz
00001               0.00     -720.00
00002              40.00     -880.00
00003             160.00     -880.00
00004             580.00    -1120.00
00005             720.00    -1360.00
00006              60.00    -1440.00
00007           -1060.00    -1440.00
00008           -1280.00    -1280.00
00009             320.00    -1520.00
00010             960.00    -1920.00
00011            -420.00    -1520.00
00012            -100.00    -2000.00
00013             720.00    -2320.00
00014              20.00    -1680.00
00015            -140.00    -2160.00
00016             180.00    -2640.00
00017              80.00    -2080.00
00018             320.00    -2320.00
00019             240.00    -3040.00
00020            -140.00    -2480.00
00021              80.00    -2480.00
00022             100.00    -3280.00
00023             140.00    -2800.00
00024             380.00    -2960.00
00025             -20.00    -3440.00
00026               0.00    -3120.00
00027             480.00    -3280.00
00028             140.00    -3520.00
00029              20.00    -3600.00
00030             340.00    -3440.00
00031             180.00    -3680.00
00032             180.00    -3760.00
00033             280.00    -3760.00
00034             100.00    -3920.00
00035             180.00    -4000.00
00036             380.00    -3920.00
00037             220.00    -4160.00
00038             180.00    -4240.00
00039             320.00    -4240.00
00040             300.00    -4320.00
00041             240.00    -4400.00
00042             340.00    -4400.00
00043             300.00    -4480.00
00044             240.00    -4640.00
00045             380.00    -4720.00
00046             340.00    -4640.00
00047             300.00    -4880.00
00048             380.00    -4880.00
00049             380.00    -4880.00
00050             320.00    -4960.00
00051             380.00    -4960.00
00052             400.00    -5040.00
00053             400.00    -5200.00
00054             400.00    -5120.00
00055             400.00    -5040.00
00056             400.00    -5200.00
00057             460.00    -5200.00
00058             480.00    -5280.00
00059             480.00    -5360.00
00060             480.00    -5360.00
00061             480.00    -5360.00
00062             480.00    -5440.00
00063             500.00    -5440.00
00064             540.00    -5360.00
00065             540.00    -5520.00
00066             560.00    -5600.00
00067             600.00    -5520.00
00068             560.00    -5600.00
00069             560.00    -5600.00
00070             620.00    -5600.00
00071             640.00    -5680.00
00072             640.00    -5680.00
00073             680.00    -5680.00
00074             700.00    -5600.00
00075             720.00    -5680.00
00076             720.00    -5680.00
00077             740.00    -5680.00
00078             780.00    -5600.00
00079             780.00    -5680.00
00080             820.00    -5600.00
00081             820.00    -5680.00
00082             820.00    -5600.00
00083             860.00    -5600.00
00084             880.00    -5600.00
00085             920.00    -5600.00
00086             940.00    -5600.00
00087             940.00    -5520.00
00088             960.00    -5440.00
00089             960.00    -5520.00
00090             960.00    -5440.00
00091             980.00    -5520.00
00092             980.00    -5360.00
00093             980.00    -5360.00
00094             980.00    -5360.00
00095             980.00    -5360.00
00096             960.00    -5280.00
00097             980.00    -5200.00
00098             980.00    -5200.00
00099             960.00    -5120.00
00100             960.00    -5200.00
00101             940.00    -5040.00
00102             920.00    -5040.00
00103             940.00    -4960.00
00104             940.00    -4880.00
00105             900.00    -4880.00
00106             880.00    -4800.00
00107             880.00    -4720.00
00108             840.00    -4720.00
00109             800.00    -4640.00
00110             800.00    -4560.00
00111             800.00    -4560.00
00112             780.00    -4480.00
00113             780.00    -4400.00
00114             720.00    -4320.00
00115             720.00    -4240.00
00116             700.00    -4080.00
00117             660.00    -4080.00
00118             660.00    -4000.00
00119             640.00    -4000.00
00120             620.00    -3760.00
00121             580.00    -3760.00
00122             560.00    -3680.00
00123             540.00    -3680.00
00124             540.00    -3600.00
00125             500.00    -3440.00
00126             500.00    -3360.00
00127             480.00    -3280.00
00128             460.00    -3200.00
00129             420.00    -3120.00
00130             400.00    -2960.00
00131             400.00    -2880.00
00132             400.00    -2800.00
00133             380.00    -2800.00
00134             340.00    -2640.00
00135             320.00    -2640.00
00136             320.00    -2480.00
00137             300.00    -2400.00
00138             300.00    -2320.00
00139             300.00    -2160.00
00140             280.00    -2080.00
00141             260.00    -2000.00
00142             240.00    -1840.00
00143             240.00    -1760.00
00144             220.00    -1680.00
00145             220.00    -1520.00
00146             220.00    -1520.00
00147             200.00    -1360.00
00148             180.00    -1280.00
00149             160.00    -1200.00
00150             160.00    -1040.00
00151             160.00     -960.00
00152             160.00     -800.00
00153             140.00     -720.00
00154             140.00     -640.00
00155             120.00     -560.00
00156             120.00     -400.00
00157             100.00     -320.00
00158             100.00     -240.00
00159             100.00     -160.00
00160              80.00        0.00
00161              80.00       80.00
00162              60.00      240.00
00163             120.00      240.00
00164             140.00      400.00
00165             140.00      480.00
00166             100.00      560.00
00167              80.00      640.00
00168              60.00      720.00
00169              60.00      800.00
00170             260.00     1040.00
00171             820.00     1200.00
00172             700.00     1360.00
00173            -420.00     1440.00
00174           -1760.00     1120.00
00175            -860.00     1520.00
00176            1140.00     1760.00
00177             380.00     1680.00
00178            -880.00     1680.00
00179             400.00     1760.00
00180             620.00     2160.00
00181            -860.00     2320.00
00182            -180.00     1920.00
00183             520.00     2480.00
00184            -300.00     2640.00
00185               0.00     2080.00
00186              60.00     2720.00
00187            -480.00     3040.00
00188               0.00     2480.00
00189            -100.00     2960.00
00190            -240.00     3360.00
00191             160.00     2640.00
00192            -300.00     3360.00
00193            -240.00     3520.00
00194              80.00     2880.00
00195            -260.00     3760.00
00196            -220.00     3680.00
00197            -160.00     3120.00
00198            -160.00     4000.00
00199            -100.00     3760.00
00200            -400.00     3440.00
00201            -180.00     4240.00
00202             -60.00     4000.00
00203            -340.00     3840.00
00204            -160.00     4240.00
00205            -200.00     4240.00
00206            -380.00     4240.00
00207            -220.00     4320.00
00208            -240.00     4560.00
00209            -300.00     4400.00
00210            -280.00     4480.00
00211            -300.00     4800.00
00212            -320.00     4560.00
00213            -320.00     4720.00
00214            -240.00     4960.00
00215            -380.00     4720.00
00216            -380.00     4960.00
00217            -320.00     5040.00
00218            -420.00     4880.00
00219            -340.00     5120.00
00220            -320.00     5200.00
00221            -480.00     5200.00
00222            -420.00     5120.00
00223            -340.00     5280.00
00224            -420.00     5360.00
00225            -460.00     5280.00
00226            -400.00     5440.00
00227            -460.00     5360.00
00228            -500.00     5360.00
00229            -460.00     5520.00
00230            -500.00     5520.00
00231            -560.00     5520.00
00232            -480.00     5680.00
00233            -500.00     5600.00
00234            -560.00     5520.00
00235            -580.00     5680.00
00236            -580.00     5600.00
00237            -620.00     5600.00
00238            -580.00     5680.00
00239            -640.00     5680.00
00240            -700.00     5600.00
00241            -660.00     5680.00
00242            -700.00     5680.00
00243            -740.00     5680.00
00244            -720.00     5680.00
00245            -740.00     5680.00
00246            -780.00     5680.00
00247            -800.00     5680.00
00248            -800.00     5680.00
00249            -880.00     5680.00
00250            -880.00     5680.00
00251            -860.00     5680.00
00252            -880.00     5680.00
00253            -900.00     5600.00
00254            -920.00     5600.00
00255            -940.00     5600.00
00256            -960.00     5600.00
00257            -960.00     5600.00
00258            -960.00     5520.00
00259            -960.00     5520.00
00260            -960.00     5440.00
00261            -980.00     5360.00
00262            -980.00     5440.00
00263            -980.00     5360.00
00264            -960.00     5360.00
00265            -960.00     5280.00
00266            -940.00     5280.00
00267            -960.00     5200.00
00268            -960.00     5120.00
00269            -940.00     5040.00
00270            -940.00     5040.00
00271            -900.00     4960.00
00272            -900.00     4960.00
00273            -880.00     4880.00
00274            -880.00     4800.00
00275            -860.00     4800.00
00276            -820.00     4720.00
00277            -820.00     4560.00
00278            -780.00     4560.00
00279            -740.00     4560.00
00280            -740.00     4400.00
00281            -740.00     4320.00
00282            -720.00     4320.00
00283            -680.00     4240.00
00284            -660.00     4160.00
00285            -640.00     4080.00
00286            -600.00     4000.00
00287            -620.00     4000.00
00288            -580.00     3920.00
00289            -560.00     3840.00
00290            -540.00     3680.00
00291            -500.00     3680.00
00292            -500.00     3520.00
00293            -480.00     3440.00
00294            -480.00     3360.00
00295            -460.00     3280.00
00296            -460.00     3200.00
00297            -420.00     3040.00
00298            -400.00     3040.00
00299            -380.00     2960.00
00300            -360.00     2800.00
00301            -340.00     2720.00
00302            -340.00     2640.00
00303            -320.00     2480.00
00304            -300.00     2480.00
00305            -300.00     2320.00
00306            -280.00     2240.00
00307            -260.00     2160.00
00308            -260.00     2000.00
00309            -260.00     2000.00
00310            -260.00     1840.00
00311            -240.00     1760.00
00312            -220.00     1680.00
00313            -180.00     1520.00
00314            -180.00     1440.00
00315            -180.00     1360.00
00316            -160.00     1200.00
00317            -160.00     1120.00
00318            -140.00     1040.00
00319            -140.00      880.00
00320            -140.00      800.00
00321            -120.00      720.00
00322            -140.00      560.00
00323            -100.00      480.00
00324            -100.00      400.00
00325            -100.00      240.00
00326             -80.00      160.00
00327             -80.00       80.00
00328             -80.00        0.00
00329             -60.00      -80.00
00330               0.00     -240.00
00331              60.00     -320.00
00332              40.00     -400.00
00333               0.00     -480.00
00334               0.00     -640.00
00335               0.00     -720.00
00336              20.00     -800.00
00337              80.00     -880.00
00338             380.00     -960.00
00339             760.00    -1200.00
00340             460.00    -1360.00
00341            -540.00    -1440.00
00342           -1440.00    -1360.00
00343            -480.00    -1280.00
00344            1020.00    -1840.00
00345             160.00    -1680.00
00346            -480.00    -1680.00
00347             460.00    -2400.00
00348             480.00    -1920.00
00349            -220.00    -1840.00
00350              60.00    -2640.00
00351             160.00    -2400.00
00352             140.00    -2000.00
00353             360.00    -2800.00
00354               0.00    -2800.00
00355             -60.00    -2320.00
00356             140.00    -3040.00
00357              80.00    -3040.00
00358             320.00    -2720.00
00359             220.00    -3280.00
00360            -140.00    -3360.00
00361             320.00    -3120.00
00362             380.00    -3360.00
00363             -20.00    -3600.00
00364             220.00    -3440.00
00365             300.00    -3600.00
00366             140.00    -3760.00
00367             280.00    -3680.00
00368             200.00    -3760.00
00369             100.00    -4000.00
00370             360.00    -3920.00
00371             340.00    -4000.00
00372             160.00    -4240.00
00373             280.00    -4240.00
00374             340.00    -4240.00
00375             220.00    -4400.00
00376             300.00    -4400.00
00377             340.00    -4400.00
00378             240.00    -4640.00
00379             320.00    -4720.00
00380             380.00    -4560.00
00381             300.00    -4720.00
00382             320.00    -4880.00
00383             400.00    -4800.00
00384             340.00    -4960.00
00385             340.00    -4960.00
00386             400.00    -4960.00
00387             400.00    -5040.00
00388             400.00    -5200.00
00389             420.00    -5040.00
00390             400.00    -5200.00
00391             400.00    -5200.00
00392             480.00    -5280.00
00393             480.00    -5280.00
00394             480.00    -5360.00
00395             480.00    -5360.00
00396             480.00    -5360.00
00397             480.00    -5440.00
00398             540.00    -5440.00
00399             540.00    -5440.00
00400             540.00    -5520.00
00401             580.00    -5600.00
00402             580.00    -5520.00
00403             560.00    -5600.00
00404             600.00    -5600.00
00405             640.00    -5520.00
00406             640.00    -5600.00
00407             660.00    -5600.00
00408             700.00    -5600.00
00409             700.00    -5680.00
00410             700.00    -5680.00
00411             720.00    -5600.00
00412             740.00    -5680.00
00413             800.00    -5600.00
00414             820.00    -5600.00
00415             840.00    -5680.00
00416             820.00    -5600.00
00417             860.00    -5600.00
00418             880.00    -5600.00
00419             900.00    -5600.00
00420             960.00    -5440.00
00421             960.00    -5600.00
00422             960.00    -5520.00
00423             940.00    -5440.00
00424             960.00    -5520.00
00425             960.00    -5440.00
00426             980.00    -5440.00
00427            1000.00    -5360.00
00428             980.00    -5360.00
00429             980.00    -5360.00
00430             980.00    -5280.00
00431             980.00    -5280.00
00432             980.00    -5200.00
00433             980.00    -5200.00
00434             960.00    -5200.00
00435             960.00    -5040.00
00436             940.00    -5040.00
00437             940.00    -5040.00
00438             940.00    -4960.00
00439             940.00    -4880.00
00440             900.00    -4880.00
00441             860.00    -4800.00
00442             860.00    -4720.00
00443             840.00    -4720.00
00444             820.00    -4560.00
00445             800.00    -4560.00
00446             780.00    -4400.00
00447             780.00    -4400.00
00448             740.00    -4320.00
00449             720.00    -4240.00
00450             700.00    -4240.00
00451             660.00    -4080.00
00452             680.00    -4080.00
00453             640.00    -4000.00
00454             640.00    -3920.00
00455             580.00    -3840.00
00456             560.00    -3760.00
00457             560.00    -3680.00
00458             520.00    -3600.00
00459             520.00    -3440.00
00460             500.00    -3440.00
00461             480.00    -3360.00
00462             460.00    -3280.00
00463             420.00    -3200.00
00464             400.00    -3040.00
00465             400.00    -2960.00
00466             380.00    -2880.00
00467             380.00    -2800.00
00468             360.00    -2720.00
00469             340.00    -2640.00
00470             320.00    -2480.00
00471             320.00    -2400.00
00472             320.00    -2320.00
00473             300.00    -2240.00
00474             300.00    -2080.00
00475             260.00    -2000.00
00476             240.00    -1920.00
00477             240.00    -1840.00
00478             240.00    -1760.00
00479             220.00    -1520.00
00480             220.00    -1520.00
00481             220.00    -1360.00
00482             180.00    -1360.00
00483             180.00    -1280.00
00484             160.00    -1120.00
00485             180.00    -1040.00
00486             160.00     -880.00
00487             160.00     -800.00
00488             140.00     -720.00
00489             140.00     -560.00
00490             140.00     -480.00
00491             100.00     -320.00
00492             100.00     -240.00
00493              80.00     -160.00
00494             100.00      -80.00
00495             100.00       80.00
00496              80.00      160.00
00497              80.00      240.00
00498             140.00      320.00
00499             140.00      480.00
00500             140.00      480.00
00501              80.00      640.00
00502              80.00      720.00
00503              60.00      800.00
00504             100.00      960.00
00505             560.00     1200.00
00506             880.00     1360.00
00507             180.00     1440.00
00508           -1280.00     1200.00
00509           -1600.00     1200.00
00510             320.00     1680.00
00511            1180.00     1840.00
00512            -660.00     1600.00
00513            -340.00     1760.00
00514             960.00     2000.00
00515            -380.00     2320.00
00516            -720.00     2000.00
00517             460.00     2160.00
00518               0.00     2720.00
00519            -240.00     2320.00
00520             140.00     2240.00
00521            -320.00     3120.00
00522            -220.00     2720.00
00523               0.00     2480.00
00524            -300.00     3360.00
00525              20.00     2960.00
00526             -20.00     2880.00
00527            -400.00     3680.00
00528               0.00     2960.00
00529            -100.00     3200.00
00530            -300.00     4000.00
00531            -140.00     3120.00
00532            -220.00     3520.00
00533             -80.00     4080.00
00534            -260.00     3440.00
00535            -340.00     3920.00
00536             -20.00     4240.00
00537            -260.00     3760.00
00538            -300.00     4080.00
00539            -100.00     4320.00
00540            -340.00     4240.00
00541            -300.00     4240.00
00542            -180.00     4560.00
00543            -300.00     4480.00
00544            -300.00     4320.00
00545            -300.00     4720.00
00546            -300.00     4640.00
00547            -340.00     4560.00
00548            -240.00     4960.00
00549            -300.00     4880.00
00550            -420.00     4800.00
00551            -300.00     5040.00
00552            -380.00     4960.00
00553            -400.00     4960.00
00554            -300.00     5200.00
00555            -420.00     5280.00
00556            -460.00     5200.00
00557            -360.00     5200.00
00558            -380.00     5360.00
00559            -460.00     5280.00
00560            -400.00     5360.00
00561            -420.00     5520.00
00562            -500.00     5360.00
00563            -480.00     5520.00
00564            -480.00     5600.00
00565            -540.00     5440.00
00566            -500.00     5520.00
00567            -480.00     5600.00
00568            -560.00     5600.00
00569            -580.00     5600.00
00570            -580.00     5600.00
00571            -620.00     5680.00
00572            -580.00     5600.00
00573            -600.00     5680.00
00574            -660.00     5680.00
00575            -660.00     5680.00
00576            -680.00     5680.00
00577            -720.00     5680.00
00578            -740.00     5680.00
00579            -720.00     5680.00
00580            -780.00     5680.00
00581            -800.00     5680.00
00582            -780.00     5680.00
00583            -840.00     5680.00
00584            -880.00     5680.00
00585            -860.00     5680.00
00586            -880.00     5680.00
00587            -900.00     5600.00
00588            -900.00     5600.00
00589            -960.00     5600.00
00590            -960.00     5520.00
00591            -960.00     5520.00
00592            -960.00     5520.00
00593            -980.00     5440.00
00594            -960.00     5520.00
00595            -960.00     5440.00
00596            -980.00     5360.00
00597            -980.00     5360.00
00598            -980.00     5280.00
00599            -980.00     5280.00
00600            -960.00     5280.00
00601            -960.00     5200.00
00602            -960.00     5200.00
00603            -960.00     5040.00
00604            -920.00     5040.00
00605            -900.00     4960.00
00606            -900.00     4880.00
00607            -880.00     4880.00
00608            -860.00     4800.00
00609            -880.00     4720.00
00610            -820.00     4640.00
00611            -820.00     4640.00
00612            -800.00     4560.00
00613            -740.00     4560.00
00614            -740.00     4480.00
00615            -740.00     4400.00
00616            -740.00     4320.00
00617            -720.00     4240.00
00618            -660.00     4240.00
00619            -640.00     4160.00
00620            -640.00     4080.00
00621            -620.00     4000.00
00622            -620.00     3920.00
00623            -580.00     3760.00
00624            -560.00     3760.00
00625            -540.00     3680.00
00626            -500.00     3520.00
00627            -480.00     3520.00
00628            -460.00     3360.00
00629            -460.00     3280.00
00630            -460.00     3200.00
00631            -420.00     3120.00
00632            -400.00     3040.00
00633            -380.00     2960.00
00634            -380.00     2880.00
00635            -380.00     2720.00
00636            -340.00     2640.00
00637            -340.00     2560.00
00638            -320.00     2480.00
00639            -300.00     2400.00
00640            -300.00     2320.00
00641            -260.00     2160.00
00642            -260.00     2080.00
00643            -260.00     2000.00
00644            -260.00     1840.00
00645            -240.00     1760.00
00646            -240.00     1680.00
00647            -220.00     1600.00
00648            -180.00     1440.00
00649            -200.00     1360.00
00650            -180.00     1200.00
00651            -160.00     1120.00
00652            -160.00     1120.00
00653            -140.00      960.00
00654            -140.00      800.00
00655            -140.00      720.00
00656            -140.00      640.00
00657            -100.00      480.00
00658            -100.00      400.00
00659            -100.00      400.00
00660             -80.00      240.00
00661            -100.00      160.00
00662             -80.00        0.00
00663             -80.00      -80.00
00664             -20.00     -160.00
00665              20.00     -240.00
00666              40.00     -400.00
00667              20.00     -400.00
00668               0.00     -560.00
00669               0.00     -720.00
00670               0.00     -720.00
00671              20.00     -880.00
00672             180.00     -960.00
00673             640.00    -1120.00
00674             680.00    -1360.00
00675             -20.00    -1440.00
00676           -1140.00    -1440.00
00677           -1200.00    -1280.00
00678             480.00    -1680.00
00679             860.00    -1840.00
00680            -480.00    -1520.00
00681               0.00    -2080.00
00682             720.00    -2240.00
00683             -20.00    -1680.00
00684            -100.00    -2320.00
00685             220.00    -2720.00
00686              60.00    -2080.00
00687             320.00    -2480.00
00688             220.00    -3040.00
00689            -120.00    -2480.00
00690             100.00    -2640.00
00691              80.00    -3280.00
00692             180.00    -2720.00
00693             380.00    -2880.00
00694             -60.00    -3440.00
00695              60.00    -3120.00
00696             480.00    -3280.00
00697             100.00    -3600.00
00698              60.00    -3440.00
00699             340.00    -3440.00
00700             180.00    -3680.00
00701             220.00    -3760.00
00702             280.00    -3760.00
00703             100.00    -4000.00
00704             240.00    -4000.00
00705             400.00    -3920.00
00706             220.00    -4160.00
00707             180.00    -4240.00
00708             360.00    -4240.00
00709             260.00    -4320.00
00710             240.00    -4400.00
00711             340.00    -4480.00
00712             260.00    -4560.00
00713             240.00    -4640.00
00714             380.00    -4640.00
00715             320.00    -4640.00
00716             300.00    -4880.00
00717             380.00    -4880.00
00718             360.00    -4880.00
00719             320.00    -4960.00
00720             380.00    -5040.00
00721             400.00    -5040.00
00722             380.00    -5200.00
00723             400.00    -5120.00
00724             400.00    -5200.00
00725             380.00    -5280.00
00726             460.00    -5280.00
00727             480.00    -5280.00
00728             460.00    -5360.00
00729             480.00    -5360.00
00730             480.00    -5360.00
00731             480.00    -5440.00
00732             500.00    -5520.00
00733             540.00    -5360.00
00734             520.00    -5520.00
00735             580.00    -5600.00
00736             600.00    -5440.00
00737             560.00    -5600.00
00738             560.00    -5600.00
00739             640.00    -5600.00
00740             640.00    -5680.00
00741             640.00    -5680.00
00742             660.00    -5600.00
00743             700.00    -5680.00
00744             700.00    -5680.00
00745             720.00    -5680.00
00746             740.00    -5600.00
00747             780.00    -5680.00
00748             800.00    -5680.00
00749             860.00    -5680.00
00750             820.00    -5600.00
00751             860.00    -5600.00
00752             860.00    -5600.00
00753             880.00    -5600.00
00754             940.00    -5600.00
00755             940.00    -5520.00
00756             940.00    -5440.00
00757             960.00    -5520.00
00758             960.00    -5440.00
00759             960.00    -5440.00
00760             980.00    -5360.00
00761            1020.00    -5360.00
00762             980.00    -5360.00
00763             980.00    -5360.00
00764             980.00    -5280.00
00765             980.00    -5280.00
00766             960.00    -5200.00
00767             980.00    -5200.00
00768             980.00    -5120.00
00769             960.00    -5120.00
00770             940.00    -5040.00
00771             940.00    -5040.00
00772             920.00    -4960.00
00773             940.00    -4960.00
00774             920.00    -4880.00
00775             880.00    -4720.00
00776             860.00    -4720.00
00777             840.00    -4720.00
00778             800.00    -4640.00
00779             820.00    -4560.00
00780             780.00    -4560.00
00781             780.00    -4400.00
00782             760.00    -4400.00
00783             720.00    -4320.00
00784             700.00    -4240.00
00785             660.00    -4160.00
00786             640.00    -4080.00
00787             660.00    -4000.00
00788             620.00    -3920.00
00789             600.00    -3840.00
00790             560.00    -3760.00
00791             540.00    -3680.00
00792             540.00    -3680.00
00793             520.00    -3600.00
00794             500.00    -3440.00
00795             480.00    -3440.00
00796             460.00    -3280.00
00797             420.00    -3200.00
00798             420.00    -3120.00
00799             400.00    -2960.00
00800             400.00    -2880.00
00801             380.00    -2880.00
00802             380.00    -2720.00
00803             340.00    -2640.00
00804             320.00    -2560.00
00805             320.00    -2480.00
00806             320.00    -2400.00
00807             300.00    -2320.00
00808             300.00    -2160.00
00809             300.00    -2080.00
00810             260.00    -1920.00
00811             240.00    -1920.00
00812             240.00    -1760.00
00813             220.00    -1680.00
00814             220.00    -1520.00
00815             220.00    -1440.00
00816             200.00    -1360.00
00817             160.00    -1280.00
00818             160.00    -1120.00
00819             160.00    -1040.00
00820             160.00     -960.00
00821             160.00     -880.00
00822             140.00     -720.00
00823             140.00     -720.00
00824             120.00     -560.00
00825             120.00     -400.00
00826             100.00     -320.00
00827              80.00     -240.00
00828             100.00      -80.00
00829              80.00        0.00
00830              80.00       80.00
00831              80.00      240.00
00832             120.00      240.00
00833             160.00      400.00
00834             140.00      480.00
00835             100.00      560.00
00836              60.00      640.00
00837              60.00      800.00
00838              80.00      880.00
00839             320.00     1040.00
00840             860.00     1200.00
00841             620.00     1360.00
00842            -560.00     1360.00
00843           -1800.00     1120.00
00844            -660.00     1600.00
00845            1240.00     1840.00
00846             160.00     1680.00
00847            -860.00     1760.00
00848             540.00     1760.00
00849             480.00     2320.00
00850            -900.00     2160.00
00851             -60.00     1920.00
00852             460.00     2480.00
00853            -340.00     2640.00
00854              20.00     2080.00
00855               0.00     2800.00
00856            -460.00     3040.00
00857              20.00     2400.00
00858            -160.00     2960.00
00859            -220.00     3280.00
00860             160.00     2640.00
00861            -340.00     3440.00
00862            -220.00     3440.00
00863              60.00     2800.00
00864            -300.00     3840.00
00865            -180.00     3600.00
00866            -160.00     3120.00
00867            -160.00     4080.00
00868            -140.00     3680.00
00869            -420.00     3520.00
00870            -140.00     4320.00
00871            -100.00     3920.00
00872            -340.00     3920.00
00873            -140.00     4320.00
00874            -220.00     4240.00
00875            -380.00     4240.00
00876            -220.00     4320.00
00877            -260.00     4560.00
00878            -260.00     4400.00
00879            -300.00     4560.00
00880            -280.00     4880.00
00881            -320.00     4480.00
00882            -300.00     4800.00
00883            -260.00     4960.00
00884            -380.00     4720.00
00885            -340.00     4960.00
00886            -300.00     5040.00
00887            -420.00     4960.00
00888            -320.00     5040.00
00889            -320.00     5200.00
00890            -480.00     5200.00
00891            -420.00     5200.00
00892            -380.00     5360.00
00893            -420.00     5280.00
00894            -420.00     5280.00
00895            -400.00     5360.00
00896            -480.00     5360.00
00897            -500.00     5360.00
00898            -460.00     5520.00
00899            -500.00     5520.00
00900            -540.00     5520.00
00901            -480.00     5600.00
00902            -500.00     5600.00
00903            -580.00     5520.00
00904            -560.00     5600.00
00905            -620.00     5680.00
00906            -620.00     5600.00
00907            -600.00     5680.00
00908            -640.00     5680.00
00909            -700.00     5680.00
00910            -660.00     5680.00
00911            -720.00     5760.00
00912            -740.00     5680.00
00913            -740.00     5680.00
00914            -740.00     5680.00
00915            -800.00     5680.00
00916            -800.00     5680.00
00917            -800.00     5680.00
00918            -880.00     5680.00
00919            -880.00     5680.00
00920            -860.00     5680.00
00921            -900.00     5600.00
00922            -900.00     5600.00
00923            -940.00     5600.00
00924            -960.00     5520.00
00925            -960.00     5520.00
00926            -960.00     5520.00
00927            -960.00     5520.00
00928            -960.00     5520.00
00929            -980.00     5440.00
00930            -980.00     5440.00
00931            -980.00     5360.00
00932            -980.00     5360.00
00933            -980.00     5280.00
00934            -960.00     5280.00
00935            -960.00     5280.00
00936            -960.00     5200.00
00937            -960.00     5040.00
00938            -940.00     5040.00
00939            -900.00     5040.00
00940            -900.00     4960.00
00941            -880.00     4880.00
00942            -860.00     4880.00
00943            -880.00     4800.00
00944            -860.00     4720.00
00945            -820.00     4640.00
00946            -800.00     4560.00
00947            -780.00     4560.00
00948            -740.00     4560.00
00949            -720.00     4400.00
00950            -720.00     4400.00
00951            -720.00     4320.00
00952            -700.00     4240.00
00953            -640.00     4160.00
00954            -620.00     4080.00
00955            -620.00     4000.00
00956            -580.00     3920.00
00957            -580.00     3840.00
00958            -580.00     3760.00
00959            -540.00     3680.00
00960            -500.00     3600.00
00961            -480.00     3520.00
00962            -480.00     3360.00
00963            -480.00     3360.00
00964            -460.00     3280.00
00965            -420.00     3120.00
00966            -400.00     3120.00
00967            -380.00     2960.00
00968            -360.00     2800.00
00969            -360.00     2800.00
00970            -360.00     2720.00
00971            -340.00     2560.00
00972            -320.00     2480.00
00973            -300.00     2400.00
00974            -320.00     2320.00
00975            -260.00     2240.00
00976            -260.00     2160.00
00977            -260.00     2080.00
00978            -260.00     2000.00
00979            -260.00     1840.00
00980            -240.00     1680.00
00981            -220.00     1600.00
00982            -220.00     1520.00
00983            -220.00     1440.00
00984            -180.00     1360.00
00985            -160.00     1200.00
00986            -160.00     1120.00
00987            -160.00     1040.00
00988            -140.00      880.00
00989            -140.00      720.00
00990            -140.00      720.00
00991            -140.00      560.00
00992            -100.00      480.00
00993            -100.00      400.00
00994             -80.00      240.00
00995             -80.00      160.00
00996             -80.00       80.00
00997             -80.00      -80.00
00998             -60.00     -160.00
00999               0.00     -240.00
01000              60.00     -400.00
01001              40.00     -480.00
01002              20.00     -560.00
01003               0.00     -640.00
01004               0.00     -720.00
01005              20.00     -800.00
01006              80.00     -880.00
01007             400.00    -1040.00
01008             780.00    -1360.00
01009             380.00    -1440.00
01010            -640.00    -1520.00
01011           -1460.00    -1360.00
01012            -320.00    -1360.00
01013            1040.00    -1920.00
01014              20.00    -1680.00
01015            -420.00    -1680.00
01016             540.00    -2400.00
01017             400.00    -1840.00
01018            -180.00    -1840.00
01019             100.00    -2640.00
01020             160.00    -2320.00
01021             180.00    -2080.00
01022             340.00    -2880.00
01023             -20.00    -2720.00
01024             -40.00    -2320.00
01025             140.00    -3120.00
01026              80.00    -2880.00
01027             340.00    -2720.00
01028             160.00    -3280.00
01029            -140.00    -3280.00
01030             400.00    -3040.00
01031             300.00    -3440.00
01032             -20.00    -3520.00
01033             260.00    -3440.00
01034             300.00    -3600.00
01035             140.00    -3760.00
01036             300.00    -3680.00
01037             180.00    -3840.00
01038             100.00    -4080.00
01039             380.00    -4000.00
01040             320.00    -4080.00
01041             160.00    -4320.00
01042             300.00    -4240.00
01043             320.00    -4240.00
01044             220.00    -4400.00
01045             300.00    -4480.00
01046             320.00    -4400.00
01047             220.00    -4640.00
01048             340.00    -4640.00
01049             380.00    -4640.00
01050             280.00    -4800.00
01051             340.00    -4880.00
01052             380.00    -4720.00
01053             320.00    -4880.00
01054             340.00    -4960.00
01055             380.00    -4960.00
01056             400.00    -5040.00
01057             380.00    -5200.00
01058             420.00    -5120.00
01059             380.00    -5200.00
01060             420.00    -5360.00
01061             480.00    -5200.00
01062             480.00    -5280.00
01063             460.00    -5360.00
01064             500.00    -5360.00
01065             480.00    -5440.00
01066             480.00    -5440.00
01067             540.00    -5440.00
01068             540.00    -5440.00
01069             540.00    -5600.00
01070             620.00    -5520.00
01071             580.00    -5600.00
01072             560.00    -5600.00
01073             620.00    -5680.00
01074             660.00    -5600.00
01075             640.00    -5680.00
01076             680.00    -5600.00
01077             700.00    -5600.00
01078             700.00    -5680.00
01079             720.00    -5680.00
01080             740.00    -5680.00
01081             780.00    -5680.00
01082             800.00    -5680.00
01083             820.00    -5600.00
01084             820.00    -5600.00
01085             860.00    -5600.00
01086             860.00    -5600.00
01087             880.00    -5600.00
01088             900.00    -5520.00
01089             940.00    -5600.00
01090             940.00    -5520.00
01091             960.00    -5440.00
01092             980.00    -5440.00
01093             960.00    -5440.00
01094             980.00    -5440.00
01095             980.00    -5360.00
01096            1020.00    -5360.00
01097             980.00    -5360.00
01098            1000.00    -5280.00
01099             980.00    -5280.00
01100             960.00    -5200.00
01101             980.00    -5200.00
01102            1020.00    -5120.00
01103             980.00    -5120.00
01104             940.00    -5120.00
01105             940.00    -4960.00
01106             940.00    -4960.00
01107             940.00    -4960.00
01108             900.00    -4880.00
01109             880.00    -4880.00
01110             860.00    -4720.00
01111             860.00    -4720.00
01112             820.00    -4640.00
01113             800.00    -4560.00
01114             800.00    -4560.00
01115             780.00    -4400.00
01116             780.00    -4400.00
01117             720.00    -4320.00
01118             700.00    -4240.00
01119             660.00    -4240.00
01120             660.00    -4080.00
01121             640.00    -4000.00
01122             620.00    -3920.00
01123             620.00    -3920.00
01124             600.00    -3760.00
01125             560.00    -3760.00
01126             540.00    -3680.00
01127             500.00    -3520.00
01128             500.00    -3520.00
01129             480.00    -3360.00
01130             480.00    -3280.00
01131             460.00    -3280.00
01132             420.00    -3120.00
01133             400.00    -3040.00
01134             400.00    -3040.00
01135             400.00    -2880.00
01136             380.00    -2800.00
01137             380.00    -2720.00
01138             340.00    -2560.00
01139             320.00    -2480.00
01140             320.00    -2400.00
01141             320.00    -2320.00
01142             320.00    -2160.00
01143             300.00    -2080.00
01144             260.00    -2000.00
01145             260.00    -2000.00
01146             240.00    -1840.00
01147             240.00    -1680.00
01148             220.00    -1680.00
01149             220.00    -1520.00
01150             220.00    -1440.00
01151             180.00    -1280.00
01152             180.00    -1200.00
01153             180.00    -1040.00
01154             180.00    -1040.00
01155             160.00     -880.00
01156             160.00     -800.00
01157             140.00     -720.00
01158             140.00     -560.00
01159             100.00     -480.00
01160             100.00     -400.00
01161             100.00     -240.00
01162             100.00     -160.00
01163              80.00      -80.00
01164              80.00        0.00
01165              80.00      240.00
01166             100.00      240.00
01167             140.00      400.00
01168             140.00      480.00
01169             100.00      560.00
01170             100.00      720.00
01171              60.00      720.00
01172              60.00      800.00
01173             140.00      960.00
01174             620.00     1120.00
01175             860.00     1360.00
01176              80.00     1440.00
01177           -1420.00     1200.00
01178           -1460.00     1360.00
01179             540.00     1760.00
01180            1060.00     1840.00
01181            -780.00     1680.00
01182            -220.00     1760.00
01183             940.00     2080.00
01184            -500.00     2320.00
01185            -640.00     2000.00
01186             500.00     2240.00
01187            -100.00     2720.00
01188            -180.00     2240.00
01189             160.00     2400.00
01190            -380.00     3120.00
01191            -160.00     2640.00
01192               0.00     2640.00
01193            -320.00     3360.00
01194              60.00     2800.00
01195            -100.00     2960.00
01196            -400.00     3680.00
01197              40.00     2960.00
01198            -140.00     3360.00
01199            -260.00     3920.00
01200            -100.00     3120.00
01201            -180.00     3760.00
01202             -80.00     4080.00
01203            -320.00     3440.00
01204            -340.00     4000.00
01205             -20.00     4240.00
01206            -320.00     3760.00
01207            -280.00     4080.00
01208            -100.00     4320.00
01209            -340.00     4240.00
01210            -240.00     4320.00
01211            -140.00     4560.00
01212            -240.00     4560.00
01213            -260.00     4400.00
01214            -320.00     4800.00
01215            -380.00     4720.00
01216            -400.00     4560.00
01217            -300.00     4960.00
01218            -320.00     4800.00
01219            -340.00     4880.00
01220            -240.00     5040.00
01221            -300.00     4960.00
01222            -320.00     5040.00
01223            -260.00     5200.00
01224            -460.00     5200.00
01225            -500.00     5200.00
01226            -400.00     5280.00
01227            -440.00     5360.00
01228            -460.00     5280.00
01229            -380.00     5440.00
01230            -400.00     5440.00
01231            -460.00     5360.00
01232            -420.00     5520.00
01233            -460.00     5520.00
01234            -560.00     5440.00
01235            -540.00     5600.00
01236            -520.00     5600.00
01237            -600.00     5520.00
01238            -580.00     5680.00
01239            -580.00     5680.00
01240            -600.00     5680.00
01241            -540.00     5680.00
01242            -580.00     5760.00
01243            -640.00     5600.00
01244            -660.00     5680.00
01245            -700.00     5680.00
01246            -780.00     5680.00
01247            -800.00     5680.00
01248            -740.00     5680.00
01249            -780.00     5680.00
01250            -780.00     5680.00
01251            -720.00     5760.00
01252            -800.00     5680.00
01253            -860.00     5600.00
01254            -880.00     5680.00
01255            -900.00     5600.00
01256            -960.00     5600.00
01257            -940.00     5600.00
01258            -960.00     5600.00
01259            -940.00     5520.00
01260            -940.00     5520.00
01261            -900.00     5520.00
01262            -960.00     5440.00
01263            -960.00     5520.00
01264            -980.00     5360.00
01265           -1040.00     5360.00
01266           -1000.00     5360.00
01267            -980.00     5280.00
01268            -980.00     5280.00
01269            -920.00     5280.00
01270            -900.00     5200.00
01271            -940.00     5200.00
01272            -940.00     5040.00
01273            -900.00     5040.00
01274            -900.00     5040.00
01275            -900.00     4960.00
01276            -880.00     4880.00
01277            -880.00     4800.00
01278            -860.00     4800.00
01279            -820.00     4720.00
01280            -800.00     4720.00
01281            -780.00     4560.00
01282            -740.00     4560.00
01283            -740.00     4480.00
01284            -740.00     4400.00
01285            -720.00     4320.00
01286            -700.00     4240.00
01287            -680.00     4240.00
01288            -640.00     4080.00
01289            -620.00     4080.00
01290            -620.00     3920.00
01291            -560.00     3920.00
01292            -560.00     3840.00
01293            -540.00     3760.00
01294            -520.00     3600.00
01295            -500.00     3520.00
01296            -500.00     3440.00
01297            -460.00     3360.00
01298            -460.00     3360.00
01299            -420.00     3200.00
01300            -400.00     3120.00
01301            -400.00     3120.00
01302            -380.00     2960.00
01303            -380.00     2800.00
01304            -380.00     2720.00
01305            -380.00     2640.00
01306            -340.00     2560.00
01307            -320.00     2480.00
01308            -300.00     2320.00
01309            -300.00     2320.00
01310            -260.00     2160.00
01311            -260.00     2080.00
01312            -260.00     2000.00
01313            -260.00     1840.00
01314            -240.00     1760.00
01315            -240.00     1680.00
01316            -180.00     1520.00
01317            -200.00     1520.00
01318            -200.00     1360.00
01319            -160.00     1280.00
01320            -160.00     1200.00
01321            -160.00     1040.00
01322            -160.00      880.00
01323            -160.00      880.00
01324            -140.00      720.00
01325            -140.00      640.00
01326            -100.00      560.00
01327            -100.00      400.00
01328            -100.00      400.00
01329             -80.00      240.00
01330             -80.00       80.00
01331             -80.00       80.00
01332             -60.00     -160.00
01333             -20.00     -160.00
01334              20.00     -240.00
01335              60.00     -400.00
01336              20.00     -560.00
01337               0.00     -560.00
01338               0.00     -720.00
01339              20.00     -800.00
01340              40.00     -880.00
01341             220.00     -960.00
01342             680.00    -1200.00
01343             640.00    -1440.00
01344            -140.00    -1440.00
01345           -1260.00    -1440.00
01346           -1060.00    -1280.00
01347             620.00    -1680.00
01348             740.00    -1840.00
01349            -500.00    -1520.00
01350              80.00    -2160.00
01351             720.00    -2160.00
01352            -100.00    -1680.00
01353             -40.00    -2320.00
01354             220.00    -2640.00
01355              80.00    -2000.00
01356             340.00    -2480.00
01357             180.00    -2960.00
01358            -140.00    -2400.00
01359             140.00    -2720.00
01360              60.00    -3200.00
01361             220.00    -2720.00
01362             380.00    -2960.00
01363            -100.00    -3440.00
01364             140.00    -3040.00
01365             460.00    -3280.00
01366              60.00    -3520.00
01367             100.00    -3440.00
01368             340.00    -3520.00
01369             160.00    -3680.00
01370             220.00    -3760.00
01371             240.00    -3760.00
01372              80.00    -4000.00
01373             240.00    -4000.00
01374             400.00    -3920.00
01375             180.00    -4240.00
01376             220.00    -4240.00
01377             340.00    -4240.00
01378             240.00    -4400.00
01379             240.00    -4400.00
01380             340.00    -4400.00
01381             240.00    -4560.00
01382             260.00    -4640.00
01383             380.00    -4640.00
01384             320.00    -4720.00
01385             320.00    -4880.00
01386             400.00    -4720.00
01387             360.00    -4880.00
01388             320.00    -5040.00
01389             380.00    -4960.00
01390             380.00    -4960.00
01391             380.00    -5200.00
01392             400.00    -5120.00
01393             400.00    -5200.00
01394             380.00    -5280.00
01395             480.00    -5280.00
01396             480.00    -5360.00
01397             460.00    -5360.00
01398             480.00    -5360.00
01399             500.00    -5360.00
01400             480.00    -5520.00
01401             520.00    -5440.00
01402             540.00    -5360.00
01403             540.00    -5520.00
01404             580.00    -5520.00
01405             620.00    -5520.00
01406             580.00    -5440.00
01407             580.00    -5600.00
01408             640.00    -5600.00
01409             640.00    -5600.00
01410             660.00    -5680.00
01411             700.00    -5600.00
01412             700.00    -5680.00
01413             720.00    -5680.00
01414             740.00    -5600.00
01415             760.00    -5680.00
01416             780.00    -5680.00
01417             800.00    -5600.00
01418             840.00    -5600.00
01419             820.00    -5680.00
01420             860.00    -5600.00
01421             860.00    -5600.00
01422             880.00    -5600.00
01423             940.00    -5600.00
01424             940.00    -5520.00
01425             940.00    -5440.00
01426             960.00    -5520.00
01427             960.00    -5440.00
01428             960.00    -5440.00
01429             960.00    -5360.00
01430             980.00    -5360.00
01431             980.00    -5360.00
01432             980.00    -5360.00
01433             980.00    -5360.00
01434             960.00    -5280.00
01435             960.00    -5200.00
01436             980.00    -5200.00
01437             960.00    -5120.00
01438             960.00    -5040.00
01439             940.00    -5040.00
01440             900.00    -4960.00
01441             920.00    -4880.00
01442             920.00    -4880.00
01443             900.00    -4800.00
01444             880.00    -4880.00
01445             860.00    -4720.00
01446             820.00    -4720.00
01447             800.00    -4640.00
01448             800.00    -4560.00
01449             780.00    -4480.00
01450             780.00    -4400.00
01451             740.00    -4400.00
01452             720.00    -4320.00
01453             680.00    -4240.00
01454             660.00    -4160.00
01455             660.00    -4080.00
01456             640.00    -4000.00
01457             620.00    -3920.00
01458             580.00    -3920.00
01459             580.00    -3760.00
01460             560.00    -3680.00
01461             540.00    -3600.00
01462             540.00    -3600.00
01463             500.00    -3440.00
01464             480.00    -3360.00
01465             480.00    -3280.00
01466             460.00    -3200.00
01467             420.00    -3040.00
01468             400.00    -3040.00
01469             400.00    -2880.00
01470             400.00    -2800.00
01471             360.00    -2720.00
01472             360.00    -2640.00
01473             320.00    -2480.00
01474             320.00    -2480.00
01475             300.00    -2320.00
01476             300.00    -2320.00
01477             300.00    -2160.00
01478             260.00    -2080.00
01479             260.00    -2000.00
01480             240.00    -1920.00
01481             220.00    -1760.00
01482             240.00    -1680.00
01483             220.00    -1600.00
01484             220.00    -1520.00
01485             220.00    -1360.00
01486             180.00    -1280.00
01487             160.00    -1200.00
01488             160.00     -960.00
01489             160.00     -960.00
01490             160.00     -880.00
01491             140.00     -720.00
01492             140.00     -640.00
01493             140.00     -560.00
01494             100.00     -400.00
01495             100.00     -240.00
01496             100.00     -160.00
01497             100.00     -160.00
01498              80.00        0.00
01499              80.00       80.00
01500              80.00      240.00
01501             100.00      320.00
01502             160.00      400.00
01503             140.00      480.00
01504              80.00      560.00
01505              60.00      720.00
01506              60.00      800.00
01507              60.00      880.00
01508             340.00     1040.00
01509             880.00     1280.00
01510             540.00     1360.00
01511            -740.00     1360.00
01512           -1820.00     1200.00
01513            -480.00     1600.00
01514            1300.00     1840.00
01515             -60.00     1680.00
01516            -780.00     1760.00
01517             660.00     1760.00
01518             300.00     2320.00
01519            -900.00     2160.00
01520              60.00     2000.00
01521             380.00     2640.00
01522            -340.00     2480.00
01523              60.00     2080.00
01524             -80.00     2880.00
01525            -420.00     3040.00
01526              60.00     2400.00
01527            -220.00     3120.00
01528            -160.00     3200.00
01529             140.00     2720.00
01530            -360.00     3520.00
01531            -160.00     3360.00
01532              40.00     2960.00
01533            -320.00     3920.00
01534            -160.00     3440.00
01535            -180.00     3200.00
01536            -140.00     4160.00
01537            -160.00     3680.00
01538            -420.00     3600.00
01539            -100.00     4320.00
01540            -100.00     3920.00
01541            -360.00     3920.00
01542            -100.00     4320.00
01543            -260.00     4240.00
01544            -360.00     4240.00
01545            -180.00     4400.00
01546            -260.00     4560.00
01547            -300.00     4400.00
01548            -280.00     4560.00
01549            -300.00     4800.00
01550            -340.00     4560.00
01551            -300.00     4800.00
01552            -240.00     4960.00
01553            -400.00     4720.00
01554            -340.00     5040.00
01555            -320.00     5040.00
01556            -420.00     4960.00
01557            -320.00     5120.00
01558            -320.00     5200.00
01559            -480.00     5120.00
01560            -400.00     5200.00
01561            -360.00     5360.00
01562            -460.00     5280.00
01563            -420.00     5280.00
01564            -420.00     5520.00
01565            -480.00     5360.00
01566            -500.00     5360.00
01567            -460.00     5520.00
01568            -500.00     5520.00
01569            -540.00     5520.00
01570            -480.00     5600.00
01571            -540.00     5600.00
01572            -560.00     5600.00
01573            -580.00     5600.00
01574            -620.00     5680.00
01575            -620.00     5600.00
01576            -580.00     5680.00
01577            -660.00     5680.00
01578            -660.00     5680.00
01579            -660.00     5680.00
01580            -700.00     5680.00
01581            -740.00     5680.00
01582            -740.00     5680.00
01583            -740.00     5680.00
01584            -800.00     5680.00
01585            -780.00     5760.00
01586            -820.00     5680.00
01587            -900.00     5680.00
01588            -880.00     5680.00
01589            -860.00     5680.00
01590            -900.00     5680.00
01591            -900.00     5600.00
01592            -900.00     5600.00
01593            -960.00     5520.00
01594            -940.00     5520.00
01595            -940.00     5600.00
01596            -960.00     5520.00
01597            -960.00     5520.00
01598            -960.00     5520.00
01599            -980.00     5360.00
01600            -980.00     5360.00
01601            -980.00     5360.00
01602            -980.00     5280.00
01603            -960.00     5280.00
01604            -940.00     5200.00
01605            -940.00     5200.00
01606            -960.00     5200.00
01607            -900.00     5040.00
01608            -900.00     5040.00
01609            -900.00     4960.00
01610            -880.00     4880.00
01611            -880.00     4880.00
01612            -860.00     4800.00
01613            -820.00     4800.00
01614            -820.00     4720.00
01615            -800.00     4640.00
01616            -760.00     4560.00
01617            -740.00     4560.00
01618            -740.00     4400.00
01619            -720.00     4400.00
01620            -720.00     4240.00
01621            -660.00     4240.00
01622            -640.00     4080.00
01623            -620.00     4000.00
01624            -620.00     4000.00
01625            -580.00     3920.00
01626            -580.00     3840.00
01627            -560.00     3760.00
01628            -540.00     3680.00
01629            -520.00     3520.00
01630            -480.00     3440.00
01631            -480.00     3440.00
01632            -480.00     3360.00
01633            -460.00     3280.00
01634            -460.00     3120.00
01635            -420.00     3120.00
01636            -400.00     2960.00
01637            -380.00     2880.00
01638            -380.00     2800.00
01639            -340.00     2720.00
01640            -340.00     2640.00
01641            -320.00     2480.00
01642            -320.00     2480.00
01643            -300.00     2320.00
01644            -280.00     2160.00
01645            -260.00     2160.00
01646            -260.00     2080.00
01647            -240.00     1920.00
01648            -260.00     1840.00
01649            -220.00     1760.00
01650            -220.00     1600.00
01651            -220.00     1520.00
01652            -180.00     1360.00
01653            -180.00     1360.00
01654            -160.00     1200.00
01655            -160.00     1120.00
01656            -160.00      960.00
01657            -140.00      880.00
01658            -140.00      800.00
01659            -120.00      640.00
01660            -100.00      560.00
01661            -100.00      480.00
01662            -100.00      400.00
01663            -100.00      240.00
01664             -60.00      160.00
01665             -80.00       80.00
01666             -60.00      -80.00
01667             -60.00     -160.00
01668               0.00     -240.00
01669              40.00     -320.00
01670              60.00     -480.00
01671              20.00     -560.00
01672              20.00     -640.00
01673               0.00     -720.00
01674               0.00     -800.00
01675             120.00     -880.00
01676             480.00    -1040.00
01677             780.00    -1360.00
01678             300.00    -1360.00
01679            -740.00    -1440.00
01680           -1440.00    -1360.00
01681            -160.00    -1440.00
01682            1060.00    -1920.00
01683            -100.00    -1600.00
01684            -340.00    -1760.00
01685             620.00    -2400.00
01686             300.00    -1760.00
01687            -180.00    -1920.00
01688             140.00    -2640.00
01689             140.00    -2320.00
01690             220.00    -2000.00
01691             320.00    -2960.00
01692             -60.00    -2720.00
01693               0.00    -2320.00
01694             140.00    -3200.00
01695              80.00    -2880.00
01696             340.00    -2720.00
01697             140.00    -3360.00
01698            -100.00    -3280.00
01699             420.00    -3120.00
01700             260.00    -3440.00
01701             -40.00    -3520.00
01702             280.00    -3440.00
01703             240.00    -3600.00
01704             140.00    -3760.00
01705             300.00    -3760.00
01706             160.00    -3840.00
01707             140.00    -4080.00
01708             380.00    -3920.00
01709             300.00    -4080.00
01710             160.00    -4240.00
01711             320.00    -4240.00
01712             320.00    -4320.00
01713             220.00    -4400.00
01714             320.00    -4400.00
01715             320.00    -4400.00
01716             220.00    -4640.00
01717             340.00    -4640.00
01718             380.00    -4640.00
01719             280.00    -4800.00
01720             340.00    -4880.00
01721             380.00    -4720.00
01722             320.00    -4960.00
01723             360.00    -5040.00
01724             400.00    -4960.00
01725             380.00    -5040.00
01726             400.00    -5200.00
01727             400.00    -5040.00
01728             380.00    -5200.00
01729             420.00    -5280.00
01730             480.00    -5280.00
01731             460.00    -5280.00
01732             480.00    -5360.00
01733             500.00    -5360.00
01734             480.00    -5360.00
01735             500.00    -5440.00
01736             540.00    -5440.00
01737             540.00    -5520.00
01738             560.00    -5520.00
01739             620.00    -5520.00
01740             580.00    -5600.00
01741             560.00    -5520.00
01742             620.00    -5600.00
01743             640.00    -5600.00
01744             640.00    -5600.00
01745             700.00    -5680.00
01746             700.00    -5600.00
01747             700.00    -5680.00
01748             720.00    -5600.00
01749             740.00    -5600.00
01750             780.00    -5680.00
01751             800.00    -5600.00
01752             820.00    -5600.00
01753             820.00    -5680.00
01754             860.00    -5600.00
01755             860.00    -5600.00
01756             880.00    -5600.00
01757             900.00    -5520.00
01758             940.00    -5520.00
01759             940.00    -5520.00
01760             940.00    -5440.00
01761             960.00    -5440.00
01762             960.00    -5440.00
01763             960.00    -5440.00
01764             980.00    -5360.00
01765            1020.00    -5360.00
01766             980.00    -5360.00
01767             980.00    -5360.00
01768             960.00    -5280.00
01769             980.00    -5280.00
01770             980.00    -5200.00
01771             960.00    -5120.00
01772             960.00    -5200.00
01773             940.00    -5040.00
01774             920.00    -5040.00
01775             900.00    -4960.00
01776             940.00    -4960.00
01777             900.00    -4880.00
01778             860.00    -4880.00
01779             860.00    -4720.00
01780             840.00    -4720.00
01781             820.00    -4720.00
01782             800.00    -4560.00
01783             800.00    -4480.00
01784             780.00    -4480.00
01785             760.00    -4400.00
01786             720.00    -4320.00
01787             700.00    -4240.00
01788             680.00    -4240.00
01789             660.00    -4080.00
01790             660.00    -4080.00
01791             640.00    -3920.00
01792             620.00    -3920.00
01793             580.00    -3760.00
01794             560.00    -3680.00
01795             540.00    -3680.00
01796             540.00    -3600.00
01797             500.00    -3440.00
01798             500.00    -3360.00
01799             480.00    -3280.00
01800             480.00    -3280.00
01801             420.00    -3120.00
01802             420.00    -3040.00
01803             420.00    -2960.00
01804             400.00    -2800.00
01805             380.00    -2800.00
01806             380.00    -2720.00
01807             340.00    -2640.00
01808             320.00    -2480.00
01809             320.00    -2400.00
01810             320.00    -2240.00
01811             300.00    -2160.00
01812             300.00    -2080.00
01813             260.00    -2000.00
01814             240.00    -1920.00
01815             240.00    -1840.00
01816             240.00    -1680.00
01817             220.00    -1680.00
01818             220.00    -1520.00
01819             220.00    -1360.00
01820             180.00    -1280.00
01821             160.00    -1200.00
01822             160.00    -1120.00
01823             160.00     -960.00
01824             160.00     -880.00
01825             140.00     -800.00
01826             140.00     -720.00
01827             100.00     -560.00
01828             120.00     -480.00
01829             120.00     -320.00
01830             100.00     -240.00
01831              80.00      -80.00
01832             100.00      -80.00
01833              80.00       80.00
01834              80.00      160.00
01835             100.00      240.00
01836             140.00      400.00
01837             140.00      480.00
01838             100.00      560.00
01839              80.00      720.00
01840              60.00      720.00
01841              60.00      880.00
01842             140.00      960.00
01843             700.00     1200.00
01844             820.00     1360.00
01845             -60.00     1440.00
01846           -1540.00     1200.00
01847           -1340.00     1360.00
01848             720.00     1760.00
01849             880.00     1840.00
01850            -860.00     1680.00
01851             -60.00     1760.00
01852             940.00     2080.00
01853            -640.00     2320.00
01854            -500.00     2000.00
01855             560.00     2320.00
01856            -160.00     2720.00
01857            -160.00     2160.00
01858             140.00     2400.00
01859            -420.00     3120.00
01860            -100.00     2560.00
01861             -20.00     2640.00
01862            -300.00     3360.00
01863             100.00     2800.00
01864            -140.00     3040.00
01865            -340.00     3680.00
01866              60.00     2960.00
01867            -180.00     3440.00
01868            -260.00     3840.00
01869            -100.00     3120.00
01870            -180.00     3760.00
01871             -80.00     4000.00
01872            -320.00     3360.00
01873            -300.00     4080.00
01874             -20.00     4080.00
01875            -300.00     3760.00
01876            -220.00     4240.00
01877            -120.00     4320.00
01878            -380.00     4240.00
01879            -260.00     4320.00
01880            -220.00     4480.00
01881            -300.00     4560.00
01882            -260.00     4400.00
01883            -260.00     4800.00
01884            -320.00     4720.00
01885            -320.00     4640.00
01886            -240.00     5040.00
01887            -320.00     4800.00
01888            -380.00     4880.00
01889            -300.00     5040.00
01890            -400.00     4960.00
01891            -380.00     5040.00
01892            -320.00     5200.00
01893            -440.00     5200.00
01894            -460.00     5200.00
01895            -360.00     5280.00
01896            -400.00     5280.00
01897            -480.00     5280.00
01898            -420.00     5440.00
01899            -460.00     5440.00
01900            -500.00     5360.00
01901            -460.00     5520.00
01902            -480.00     5520.00
01903            -560.00     5440.00
01904            -500.00     5600.00
01905            -500.00     5600.00
01906            -560.00     5600.00
01907            -580.00     5600.00
01908            -620.00     5680.00
01909            -620.00     5600.00
01910            -580.00     5680.00
01911            -640.00     5680.00
01912            -700.00     5680.00
01913            -660.00     5680.00
01914            -700.00     5760.00
01915            -740.00     5680.00
01916            -740.00     5680.00
01917            -720.00     5680.00
01918            -800.00     5680.00
01919            -800.00     5680.00
01920            -780.00     5680.00
01921            -860.00     5680.00
01922            -880.00     5680.00
01923            -860.00     5680.00
01924            -880.00     5680.00
01925            -900.00     5600.00
01926            -900.00     5600.00
01927            -940.00     5600.00
01928            -960.00     5600.00
01929            -960.00     5520.00
01930            -960.00     5520.00
01931            -960.00     5440.00
01932            -960.00     5440.00
01933            -960.00     5360.00
01934            -980.00     5360.00
01935            -960.00     5360.00
01936            -960.00     5280.00
01937            -960.00     5280.00
01938            -940.00     5280.00
01939            -960.00     5200.00
01940            -960.00     5200.00
01941            -940.00     5040.00
01942            -900.00     5040.00
01943            -880.00     4960.00
01944            -880.00     4960.00
01945            -880.00     4880.00
01946            -880.00     4880.00
01947            -860.00     4800.00
01948            -820.00     4720.00
01949            -800.00     4640.00
01950            -780.00     4560.00
01951            -740.00     4480.00
01952            -740.00     4400.00
01953            -720.00     4400.00
01954            -720.00     4320.00
01955            -700.00     4240.00
01956            -660.00     4160.00
01957            -660.00     4080.00
01958            -640.00     4000.00
01959            -620.00     3920.00
01960            -580.00     3920.00
01961            -560.00     3760.00
01962            -560.00     3680.00
01963            -540.00     3600.00
01964            -500.00     3520.00
01965            -500.00     3440.00
01966            -480.00     3360.00
01967            -460.00     3280.00
01968            -460.00     3200.00
01969            -420.00     3120.00
01970            -400.00     3040.00
01971            -400.00     2960.00
01972            -380.00     2800.00
01973            -380.00     2720.00
01974            -340.00     2640.00
01975            -320.00     2560.00
01976            -320.00     2480.00
01977            -320.00     2400.00
01978            -300.00     2320.00
01979            -260.00     2160.00
01980            -260.00     2080.00
01981            -260.00     2000.00
01982            -260.00     1840.00
01983            -220.00     1760.00
01984            -220.00     1680.00
01985            -180.00     1600.00
01986            -200.00     1520.00
01987            -220.00     1360.00
01988            -160.00     1280.00
01989            -160.00     1200.00
01990            -160.00     1040.00
01991            -140.00      960.00
01992            -140.00      800.00
01993            -140.00      720.00
01994            -120.00      640.00
01995            -100.00      480.00
01996            -100.00      400.00
01997            -100.00      240.00
01998             -60.00      240.00
01999             -80.00      160.00
02000             -80.00        0.00
02001             -60.00      -80.00
02002             -20.00     -160.00
02003              20.00     -320.00
02004              40.00     -400.00
02005              20.00     -480.00
02006               0.00     -560.00
02007              20.00     -640.00
02008               0.00     -720.00
02009              60.00     -880.00
02010             260.00     -960.00
02011             720.00    -1200.00
02012             620.00    -1440.00
02013            -220.00    -1440.00
02014           -1300.00    -1440.00
02015            -940.00    -1280.00
02016             780.00    -1680.00
02017             620.00    -1840.00
02018            -540.00    -1520.00
02019             180.00    -2160.00
02020             660.00    -2080.00
02021            -140.00    -1760.00
02022             -20.00    -2400.00
02023             220.00    -2640.00
02024              80.00    -1920.00
02025             340.00    -2640.00
02026             140.00    -3040.00
02027            -140.00    -2320.00
02028             140.00    -2800.00
02029              40.00    -3120.00
02030             220.00    -2720.00
02031             340.00    -3120.00
02032            -140.00    -3360.00
02033             180.00    -3040.00
02034             460.00    -3280.00
02035              20.00    -3440.00
02036             140.00    -3440.00
02037             320.00    -3520.00
02038             140.00    -3760.00
02039             220.00    -3760.00
02040             240.00    -3760.00
02041              80.00    -4000.00
02042             300.00    -4000.00
02043             380.00    -3920.00
02044             160.00    -4240.00
02045             200.00    -4240.00
02046             340.00    -4240.00
02047             240.00    -4400.00
02048             240.00    -4400.00
02049             340.00    -4400.00
02050             240.00    -4560.00
02051             260.00    -4720.00
02052             380.00    -4640.00
02053             320.00    -4720.00
02054             320.00    -4880.00
02055             400.00    -4800.00
02056             340.00    -4880.00
02057             340.00    -5040.00
02058             380.00    -4960.00
02059             400.00    -5040.00
02060             380.00    -5120.00
02061             420.00    -5120.00
02062             400.00    -5200.00
02063             400.00    -5280.00
02064             480.00    -5280.00
02065             480.00    -5280.00
02066             460.00    -5360.00
02067             480.00    -5360.00
02068             480.00    -5360.00
02069             480.00    -5440.00
02070             540.00    -5440.00
02071             540.00    -5520.00
02072             540.00    -5440.00
02073             580.00    -5600.00
02074             580.00    -5520.00
02075             560.00    -5520.00
02076             580.00    -5600.00
02077             640.00    -5600.00
02078             640.00    -5600.00
02079             660.00    -5600.00
02080             700.00    -5600.00
02081             700.00    -5680.00
02082             700.00    -5680.00
02083             720.00    -5600.00
02084             740.00    -5680.00
02085             800.00    -5680.00
02086             800.00    -5600.00
02087             820.00    -5600.00
02088             820.00    -5600.00
02089             860.00    -5600.00
02090             860.00    -5520.00
02091             860.00    -5600.00
02092             940.00    -5520.00
02093             940.00    -5600.00
02094             940.00    -5440.00
02095             940.00    -5520.00
02096             960.00    -5440.00
02097             960.00    -5440.00
02098             980.00    -5440.00
02099             980.00    -5360.00
02100             980.00    -5360.00
02101             980.00    -5360.00
02102             960.00    -5280.00
02103             980.00    -5280.00
02104             980.00    -5200.00
02105             980.00    -5200.00
02106             960.00    -5120.00
02107             960.00    -5040.00
02108             940.00    -4960.00
02109             900.00    -4960.00
02110             900.00    -4960.00
02111             940.00    -4960.00
02112             900.00    -4880.00
02113             860.00    -4720.00
02114             860.00    -4720.00
02115             840.00    -4720.00
02116             820.00    -4560.00
02117             800.00    -4480.00
02118             780.00    -4400.00
02119             780.00    -4400.00
02120             760.00    -4400.00
02121             720.00    -4240.00
02122             700.00    -4240.00
02123             680.00    -4080.00
02124             660.00    -4000.00
02125             640.00    -4000.00
02126             640.00    -3920.00
02127             620.00    -3840.00
02128             560.00    -3760.00
02129             540.00    -3680.00
02130             540.00    -3600.00
02131             540.00    -3520.00
02132             500.00    -3440.00
02133             500.00    -3360.00
02134             480.00    -3360.00
02135             460.00    -3120.00
02136             420.00    -3040.00
02137             420.00    -3040.00
02138             400.00    -2880.00
02139             400.00    -2800.00
02140             380.00    -2720.00
02141             360.00    -2640.00
02142             340.00    -2560.00
02143             320.00    -2400.00
02144             320.00    -2320.00
02145             320.00    -2240.00
02146             300.00    -2160.00
02147             260.00    -2080.00
02148             260.00    -2000.00
02149             240.00    -1840.00
02150             240.00    -1760.00
02151             240.00    -1680.00
02152             220.00    -1520.00
02153             220.00    -1440.00
02154             180.00    -1360.00
02155             180.00    -1200.00
02156             160.00    -1200.00
02157             160.00    -1040.00
02158             160.00     -880.00
02159             160.00     -800.00
02160             160.00     -720.00
02161             120.00     -640.00
02162             140.00     -480.00
02163             100.00     -400.00
02164             100.00     -320.00
02165              80.00     -240.00
02166             100.00      -80.00
02167             100.00        0.00
02168              60.00      160.00
02169              80.00      160.00
02170             120.00      400.00
02171             140.00      400.00
02172             140.00      560.00
02173              80.00      560.00
02174              60.00      720.00
02175              40.00      800.00
02176              60.00      880.00
02177             400.00     1040.00
02178             880.00     1200.00
02179             460.00     1360.00
02180            -900.00     1360.00
02181           -1780.00     1120.00
02182            -240.00     1680.00
02183            1340.00     2000.00
02184            -260.00     1680.00
02185            -660.00     1760.00
02186             780.00     1840.00
02187             100.00     2320.00
02188            -880.00     2080.00
02189             180.00     2000.00
02190             300.00     2640.00
02191            -320.00     2480.00
02192             100.00     2160.00
02193            -140.00     2960.00
02194            -380.00     2960.00
02195              60.00     2400.00
02196            -240.00     3200.00
02197            -100.00     3120.00
02198             100.00     2720.00
02199            -400.00     3600.00
02200            -100.00     3280.00
02201               0.00     2960.00
02202            -320.00     3920.00
02203            -140.00     3440.00
02204            -180.00     3280.00
02205            -100.00     4240.00
02206            -160.00     3600.00
02207            -400.00     3680.00
02208             -80.00     4320.00
02209            -160.00     3840.00
02210            -340.00     3920.00
02211             -80.00     4320.00
02212            -260.00     4240.00
02213            -340.00     4240.00
02214            -180.00     4400.00
02215            -300.00     4560.00
02216            -300.00     4400.00
02217            -300.00     4640.00
02218            -300.00     4800.00
02219            -340.00     4560.00
02220            -300.00     4880.00
02221            -260.00     4960.00
02222            -400.00     4800.00
02223            -320.00     4960.00
02224            -340.00     5040.00
02225            -420.00     4960.00
02226            -300.00     5200.00
02227            -380.00     5200.00
02228            -480.00     5040.00
02229            -400.00     5200.00
02230            -380.00     5360.00
02231            -460.00     5280.00
02232            -420.00     5280.00
02233            -420.00     5440.00
02234            -500.00     5360.00
02235            -500.00     5440.00
02236            -460.00     5520.00
02237            -540.00     5520.00
02238            -540.00     5520.00
02239            -500.00     5600.00
02240            -540.00     5600.00
02241            -580.00     5520.00
02242            -580.00     5600.00
02243            -620.00     5680.00
02244            -620.00     5600.00
02245            -600.00     5680.00
02246            -660.00     5680.00
02247            -660.00     5600.00
02248            -660.00     5680.00
02249            -720.00     5680.00
02250            -740.00     5680.00
02251            -720.00     5680.00
02252            -740.00     5680.00
02253            -800.00     5680.00
02254            -780.00     5680.00
02255            -820.00     5760.00
02256            -880.00     5680.00
02257            -860.00     5600.00
02258            -860.00     5680.00
02259            -900.00     5600.00
02260            -900.00     5600.00
02261            -940.00     5520.00
02262            -960.00     5520.00
02263            -940.00     5600.00
02264            -960.00     5600.00
02265            -980.00     5440.00
02266            -960.00     5440.00
02267            -960.00     5520.00
02268            -980.00     5360.00
02269            -980.00     5360.00
02270            -960.00     5280.00
02271            -960.00     5280.00
02272            -960.00     5280.00
02273            -940.00     5200.00
02274            -960.00     5200.00
02275            -940.00     5120.00
02276            -920.00     5120.00
02277            -900.00     5040.00
02278            -880.00     4960.00
02279            -880.00     4880.00
02280            -880.00     4880.00
02281            -880.00     4720.00
02282            -860.00     4800.00
02283            -820.00     4640.00
02284            -820.00     4640.00
02285            -780.00     4560.00
02286            -760.00     4480.00
02287            -740.00     4320.00
02288            -740.00     4320.00
02289            -720.00     4240.00
02290            -680.00     4160.00
02291            -660.00     4160.00
02292            -640.00     4080.00
02293            -620.00     3920.00
02294            -620.00     3920.00
02295            -580.00     3760.00
02296            -580.00     3760.00
02297            -560.00     3680.00
02298            -500.00     3600.00
02299            -500.00     3520.00
02300            -480.00     3440.00
02301            -480.00     3280.00
02302            -460.00     3280.00
02303            -440.00     3120.00
02304            -420.00     3040.00
02305            -380.00     2960.00
02306            -380.00     2880.00
02307            -380.00     2800.00
02308            -340.00     2640.00
02309            -340.00     2640.00
02310            -320.00     2480.00
02311            -300.00     2480.00
02312            -280.00     2320.00
02313            -260.00     2240.00
02314            -260.00     2080.00
02315            -260.00     2000.00
02316            -260.00     1920.00
02317            -240.00     1760.00
02318            -220.00     1680.00
02319            -220.00     1600.00
02320            -220.00     1520.00
02321            -180.00     1440.00
02322            -180.00     1280.00
02323            -160.00     1200.00
02324            -160.00     1120.00
02325            -140.00     1040.00
02326            -140.00      880.00
02327            -140.00      720.00
02328            -120.00      720.00
02329            -100.00      560.00
02330            -100.00      480.00
02331            -100.00      400.00
02332             -80.00      240.00
02333             -80.00      160.00
02334             -60.00       80.00
02335             -60.00      -80.00
02336             -40.00     -160.00
02337               0.00     -240.00
02338              40.00     -400.00
02339              60.00     -480.00
02340              20.00     -560.00
02341              20.00     -640.00
02342               0.00     -800.00
02343              20.00     -800.00
02344             140.00     -880.00
02345             500.00    -1040.00
02346             760.00    -1360.00
02347             220.00    -1360.00
02348            -880.00    -1520.00
02349           -1380.00    -1360.00
02350               0.00    -1440.00
02351            1040.00    -2000.00
02352            -260.00    -1520.00
02353            -260.00    -1840.00
02354             660.00    -2320.00
02355             180.00    -1760.00
02356            -160.00    -2000.00
02357             160.00    -2720.00
02358             100.00    -2160.00
02359             220.00    -2160.00
02360             280.00    -2960.00
02361            -100.00    -2640.00
02362              20.00    -2400.00
02363             100.00    -3120.00
02364             100.00    -2800.00
02365             380.00    -2800.00
02366              60.00    -3280.00
02367             -80.00    -3200.00
02368             460.00    -3200.00
02369             220.00    -3440.00
02370             -20.00    -3520.00
02371             300.00    -3440.00
02372             220.00    -3600.00
02373             160.00    -3760.00
02374             300.00    -3680.00
02375             140.00    -3920.00
02376             160.00    -4000.00
02377             380.00    -3920.00
02378             260.00    -4080.00
02379             140.00    -4240.00
02380             320.00    -4240.00
02381             320.00    -4320.00
02382             220.00    -4400.00
02383             320.00    -4480.00
02384             300.00    -4480.00
02385             220.00    -4640.00
02386             380.00    -4640.00
02387             360.00    -4640.00
02388             300.00    -4800.00
02389             340.00    -4800.00
02390             380.00    -4800.00
02391             320.00    -4960.00
02392             380.00    -4960.00
02393             400.00    -4960.00
02394             380.00    -5200.00
02395             400.00    -5120.00
02396             420.00    -5040.00
02397             400.00    -5200.00
02398             460.00    -5280.00
02399             500.00    -5280.00
02400             480.00    -5280.00
02401             480.00    -5360.00
02402             500.00    -5360.00
02403             480.00    -5440.00
02404             480.00    -5440.00
02405             540.00    -5440.00
02406             540.00    -5440.00
02407             540.00    -5600.00
02408             620.00    -5520.00
02409             580.00    -5600.00
02410             580.00    -5600.00
02411             640.00    -5600.00
02412             640.00    -5600.00
02413             640.00    -5680.00
02414             680.00    -5600.00
02415             700.00    -5600.00
02416             700.00    -5680.00
02417             720.00    -5600.00
02418             740.00    -5600.00
02419             780.00    -5680.00
02420             800.00    -5600.00
02421             800.00    -5600.00
02422             820.00    -5600.00
02423             860.00    -5600.00
02424             860.00    -5600.00
02425             880.00    -5600.00
02426             900.00    -5440.00
02427             940.00    -5520.00
02428             940.00    -5600.00
02429             940.00    -5440.00
02430             960.00    -5440.00
02431             960.00    -5440.00
02432             960.00    -5360.00
02433             980.00    -5360.00
02434             980.00    -5360.00
02435             980.00    -5360.00
02436             980.00    -5360.00
02437             960.00    -5280.00
02438             980.00    -5280.00
02439             980.00    -5280.00
02440             980.00    -5120.00
02441             960.00    -5040.00
02442             960.00    -5040.00
02443             940.00    -5040.00
02444             940.00    -4960.00
02445             920.00    -4960.00
02446             900.00    -4880.00
02447             880.00    -4800.00
02448             860.00    -4720.00
02449             860.00    -4720.00
02450             820.00    -4640.00
02451             800.00    -4560.00
02452             800.00    -4560.00
02453             780.00    -4480.00
02454             780.00    -4400.00
02455             740.00    -4320.00
02456             700.00    -4240.00
02457             680.00    -4240.00
02458             660.00    -4080.00
02459             660.00    -4000.00
02460             640.00    -3920.00
02461             620.00    -3920.00
02462             580.00    -3760.00
02463             560.00    -3680.00
02464             540.00    -3680.00
02465             500.00    -3520.00
02466             500.00    -3520.00
02467             480.00    -3360.00
02468             480.00    -3280.00
02469             460.00    -3280.00
02470             420.00    -3120.00
02471             420.00    -3040.00
02472             420.00    -2880.00
02473             400.00    -2880.00
02474             380.00    -2800.00
02475             380.00    -2720.00
02476             320.00    -2560.00
02477             320.00    -2480.00
02478             320.00    -2400.00
02479             300.00    -2320.00
02480             300.00    -2160.00
02481             260.00    -2080.00
02482             240.00    -2000.00
02483             240.00    -1920.00
02484             240.00    -1760.00
02485             240.00    -1680.00
02486             220.00    -1680.00
02487             220.00    -1520.00
02488             200.00    -1360.00
02489             160.00    -1280.00
02490             160.00    -1200.00
02491             160.00    -1040.00
02492             160.00    -1040.00
02493             160.00     -880.00
02494             160.00     -800.00
02495             140.00     -640.00
02496             100.00     -560.00
02497             100.00     -480.00
02498             100.00     -320.00
02499             100.00     -240.00
02500              80.00     -160.00
02501              80.00      -80.00
02502              80.00       80.00
02503              80.00      160.00
02504             120.00      240.00
02505             140.00      400.00
02506             140.00      480.00
02507             100.00      560.00
02508              80.00      640.00
02509              60.00      720.00
02510              60.00      880.00
02511             180.00      960.00
02512             720.00     1200.00
02513             780.00     1360.00
02514            -160.00     1440.00
02515           -1660.00     1200.00
02516           -1140.00     1440.00
02517             900.00     1840.00
02518             720.00     1760.00
02519            -880.00     1680.00
02520             120.00     1680.00
02521             840.00     2160.00
02522            -740.00     2320.00
02523            -400.00     2000.00
02524             560.00     2400.00
02525            -240.00     2720.00
02526            -100.00     2160.00
02527             100.00     2480.00
02528            -460.00     3120.00
02529             -60.00     2480.00
02530             -60.00     2720.00
02531            -260.00     3360.00
02532             140.00     2720.00
02533            -180.00     3120.00
02534            -340.00     3600.00
02535              80.00     2880.00
02536            -220.00     3520.00
02537            -240.00     3840.00
02538            -140.00     3040.00
02539            -180.00     3920.00
02540            -100.00     4000.00
02541            -360.00     3440.00
02542            -240.00     4160.00
02543             -20.00     4080.00
02544            -340.00     3760.00
02545            -180.00     4240.00
02546            -160.00     4240.00
02547            -380.00     4240.00
02548            -240.00     4320.00
02549            -220.00     4560.00
02550            -300.00     4480.00
02551            -300.00     4400.00
02552            -300.00     4800.00
02553            -320.00     4640.00
02554            -340.00     4640.00
02555            -240.00     4960.00
02556            -340.00     4800.00
02557            -400.00     4880.00
02558            -300.00     5040.00
02559            -420.00     4960.00
02560            -380.00     5040.00
02561            -300.00     5200.00
02562            -460.00     5200.00
02563            -460.00     5120.00
02564            -340.00     5280.00
02565            -420.00     5360.00
02566            -480.00     5200.00
02567            -420.00     5440.00
02568            -460.00     5440.00
02569            -500.00     5360.00
02570            -480.00     5520.00
02571            -500.00     5520.00
02572            -560.00     5520.00
02573            -500.00     5600.00
02574            -500.00     5600.00
02575            -560.00     5520.00
02576            -580.00     5680.00
02577            -600.00     5680.00
02578            -640.00     5600.00
02579            -580.00     5680.00
02580            -640.00     5680.00
02581            -660.00     5600.00
02582            -660.00     5680.00
02583            -700.00     5680.00
02584            -740.00     5680.00
02585            -720.00     5680.00
02586            -740.00     5680.00
02587            -780.00     5680.00
02588            -800.00     5680.00
02589            -780.00     5680.00
02590            -860.00     5680.00
02591            -880.00     5600.00
02592            -860.00     5680.00
02593            -880.00     5600.00
02594            -900.00     5520.00
02595            -940.00     5600.00
02596            -940.00     5520.00
02597            -960.00     5520.00
02598            -960.00     5600.00
02599            -960.00     5520.00
02600            -980.00     5360.00
02601            -960.00     5440.00
02602            -960.00     5440.00
02603            -980.00     5360.00
02604            -980.00     5360.00
02605            -980.00     5360.00
02606            -960.00     5280.00
02607            -940.00     5280.00
02608            -940.00     5200.00
02609            -960.00     5120.00
02610            -960.00     5120.00
02611            -940.00     5040.00
02612            -900.00     4960.00
02613            -880.00     4960.00
02614            -880.00     4880.00
02615            -880.00     4800.00
02616            -860.00     4880.00
02617            -820.00     4640.00
02618            -820.00     4640.00
02619            -800.00     4560.00
02620            -780.00     4560.00
02621            -740.00     4480.00
02622            -740.00     4400.00
02623            -740.00     4240.00
02624            -700.00     4240.00
02625            -660.00     4160.00
02626            -640.00     4080.00
02627            -640.00     4000.00
02628            -620.00     3920.00
02629            -580.00     3840.00
02630            -560.00     3760.00
02631            -540.00     3680.00
02632            -520.00     3600.00
02633            -500.00     3520.00
02634            -500.00     3440.00
02635            -460.00     3360.00
02636            -460.00     3280.00
02637            -420.00     3120.00
02638            -420.00     3040.00
02639            -420.00     2960.00
02640            -380.00     2960.00
02641            -380.00     2800.00
02642            -340.00     2720.00
02643            -360.00     2640.00
02644            -340.00     2560.00
02645            -320.00     2480.00
02646            -300.00     2400.00
02647            -260.00     2320.00
02648            -260.00     2160.00
02649            -260.00     2080.00
02650            -260.00     2000.00
02651            -240.00     1840.00
02652            -240.00     1760.00
02653            -220.00     1680.00
02654            -220.00     1600.00
02655            -180.00     1440.00
02656            -180.00     1360.00
02657            -180.00     1360.00
02658            -160.00     1200.00
02659            -160.00     1040.00
02660            -140.00      880.00
02661            -140.00      800.00
02662            -140.00      720.00
02663            -120.00      560.00
02664            -100.00      560.00
02665            -100.00      400.00
02666             -80.00      320.00
02667             -80.00      240.00
02668             -80.00       80.00
02669             -80.00        0.00
02670             -60.00      -80.00
02671               0.00     -160.00
02672              40.00     -240.00
02673              20.00     -400.00
02674              20.00     -480.00
02675              20.00     -560.00
02676               0.00     -720.00
02677               0.00     -800.00
02678              60.00     -880.00
02679             300.00     -960.00
02680             740.00    -1200.00
02681             540.00    -1440.00
02682            -340.00    -1360.00
02683           -1380.00    -1440.00
02684            -780.00    -1280.00
02685             860.00    -1760.00
02686             440.00    -1760.00
02687            -540.00    -1600.00
02688             260.00    -2320.00
02689             620.00    -2080.00
02690            -180.00    -1680.00
02691              20.00    -2480.00
02692             200.00    -2560.00
02693              80.00    -2000.00
02694             340.00    -2720.00
02695             100.00    -2960.00
02696            -100.00    -2320.00
02697             160.00    -2880.00
02698              60.00    -3120.00
02699             240.00    -2720.00
02700             320.00    -3040.00
02701            -160.00    -3360.00
02702             240.00    -3040.00
02703             400.00    -3280.00
02704               0.00    -3520.00
02705             160.00    -3440.00
02706             320.00    -3520.00
02707             140.00    -3760.00
02708             240.00    -3760.00
02709             220.00    -3760.00
02710              80.00    -4000.00
02711             320.00    -4000.00
02712             380.00    -3920.00
02713             160.00    -4240.00
02714             240.00    -4240.00
02715             380.00    -4240.00
02716             220.00    -4400.00
02717             300.00    -4400.00
02718             340.00    -4400.00
02719             220.00    -4560.00
02720             300.00    -4640.00
02721             400.00    -4560.00
02722             320.00    -4720.00
02723             320.00    -4880.00
02724             400.00    -4800.00
02725             340.00    -4880.00
02726             320.00    -4960.00
02727             380.00    -4960.00
02728             400.00    -5040.00
02729             400.00    -5200.00
02730             420.00    -5040.00
02731             400.00    -5200.00
02732             400.00    -5280.00
02733             480.00    -5280.00
02734             480.00    -5280.00
02735             480.00    -5360.00
02736             480.00    -5280.00
02737             480.00    -5360.00
02738             480.00    -5440.00
02739             500.00    -5440.00
02740             540.00    -5440.00
02741             540.00    -5520.00
02742             580.00    -5440.00
02743             580.00    -5520.00
02744             560.00    -5600.00
02745             580.00    -5600.00
02746             640.00    -5440.00
02747             640.00    -5600.00
02748             660.00    -5680.00
02749             700.00    -5600.00
02750             700.00    -5680.00
02751             700.00    -5600.00
02752             720.00    -5680.00
02753             740.00    -5600.00
02754             780.00    -5680.00
02755             800.00    -5600.00
02756             820.00    -5600.00
02757             840.00    -5680.00
02758             860.00    -5600.00
02759             860.00    -5600.00
02760             900.00    -5520.00
02761             940.00    -5520.00
02762             940.00    -5520.00
02763             940.00    -5440.00
02764             960.00    -5520.00
02765             960.00    -5440.00
02766             960.00    -5440.00
02767             980.00    -5360.00
02768            1000.00    -5360.00
02769             980.00    -5360.00
02770             980.00    -5280.00
02771             960.00    -5280.00
02772             960.00    -5280.00
02773             960.00    -5280.00
02774             980.00    -5120.00
02775             980.00    -5040.00
02776             960.00    -5120.00
02777             960.00    -5040.00
02778             940.00    -4960.00
02779             940.00    -4960.00
02780             900.00    -4880.00
02781             900.00    -4800.00
02782             880.00    -4720.00
02783             860.00    -4720.00
02784             860.00    -4640.00
02785             800.00    -4560.00
02786             800.00    -4480.00
02787             780.00    -4560.00
02788             780.00    -4400.00
02789             740.00    -4320.00
02790             720.00    -4240.00
02791             700.00    -4240.00
02792             660.00    -4080.00
02793             660.00    -4000.00
02794             640.00    -3920.00
02795             620.00    -3920.00
02796             580.00    -3920.00
02797             560.00    -3760.00
02798             540.00    -3680.00
02799             540.00    -3520.00
02800             540.00    -3520.00
02801             500.00    -3440.00
02802             480.00    -3280.00
02803             480.00    -3280.00
02804             420.00    -3200.00
02805             420.00    -3040.00
02806             400.00    -2960.00
02807             400.00    -2880.00
02808             380.00    -2800.00
02809             380.00    -2640.00
02810             340.00    -2640.00
02811             320.00    -2480.00
02812             320.00    -2400.00
02813             320.00    -2400.00
02814             300.00    -2160.00
02815             300.00    -2160.00
02816             280.00    -2080.00
02817             240.00    -2000.00
02818             240.00    -1840.00
02819             220.00    -1760.00
02820             220.00    -1680.00
02821             220.00    -1520.00
02822             220.00    -1440.00
02823             180.00    -1360.00
02824             180.00    -1200.00
02825             160.00    -1120.00
02826             160.00    -1040.00
02827             160.00     -880.00
02828             160.00     -800.00
02829             140.00     -720.00
02830             120.00     -640.00
02831             120.00     -480.00
02832             100.00     -320.00
02833             100.00     -240.00
02834             100.00     -160.00
02835              80.00      -80.00
02836              80.00      -80.00
02837              60.00      160.00
02838             100.00      240.00
02839             120.00      400.00
02840             140.00      400.00
02841             140.00      480.00
02842              80.00      560.00
02843              80.00      720.00
02844              60.00      800.00
02845              80.00      880.00
02846             480.00     1040.00
02847             900.00     1360.00
02848             380.00     1360.00
02849           -1020.00     1360.00
02850           -1700.00     1200.00
02851             -40.00     1680.00
02852            1320.00     1840.00
02853            -420.00     1680.00
02854            -580.00     1760.00
02855             880.00     1840.00
02856             -60.00     2320.00
02857            -820.00     2080.00
02858             300.00     2000.00
02859             180.00     2640.00
02860            -300.00     2400.00
02861             120.00     2160.00
02862            -180.00     3040.00
02863            -320.00     2800.00
02864              60.00     2400.00
02865            -260.00     3280.00
02866             -80.00     3040.00
02867              60.00     2800.00
02868            -400.00     3680.00
02869             -80.00     3120.00
02870             -40.00     2960.00
02871            -320.00     4000.00
02872            -140.00     3360.00
02873            -180.00     3360.00
02874            -100.00     4240.00
02875            -220.00     3520.00
02876            -400.00     3760.00
02877             -60.00     4320.00
02878            -200.00     3760.00
02879            -320.00     4000.00
02880            -100.00     4320.00
02881            -320.00     4240.00
02882            -320.00     4240.00
02883            -180.00     4400.00
02884            -300.00     4560.00
02885            -300.00     4400.00
02886            -300.00     4640.00
02887            -300.00     4720.00
02888            -340.00     4560.00
02889            -260.00     4880.00
02890            -280.00     4880.00
02891            -420.00     4800.00
02892            -320.00     5040.00
02893            -340.00     4960.00
02894            -420.00     4960.00
02895            -300.00     5200.00
02896            -380.00     5200.00
02897            -480.00     5200.00
02898            -380.00     5200.00
02899            -380.00     5360.00
02900            -460.00     5280.00
02901            -420.00     5280.00
02902            -420.00     5520.00
02903            -500.00     5360.00
02904            -500.00     5440.00
02905            -460.00     5520.00
02906            -520.00     5440.00
02907            -540.00     5520.00
02908            -500.00     5680.00
02909            -540.00     5600.00
02910            -580.00     5600.00
02911            -560.00     5680.00
02912            -620.00     5600.00
02913            -580.00     5680.00
02914            -580.00     5680.00
02915            -660.00     5680.00
02916            -660.00     5680.00
02917            -660.00     5680.00
02918            -720.00     5680.00
02919            -740.00     5680.00
02920            -720.00     5760.00
02921            -760.00     5680.00
02922            -800.00     5680.00
02923            -780.00     5680.00
02924            -820.00     5680.00
02925            -880.00     5600.00
02926            -880.00     5680.00
02927            -860.00     5680.00
02928            -900.00     5680.00
02929            -900.00     5600.00
02930            -940.00     5600.00
02931            -960.00     5520.00
02932            -940.00     5520.00
02933            -940.00     5600.00
02934            -960.00     5520.00
02935            -960.00     5520.00
02936            -960.00     5360.00
02937            -980.00     5360.00
02938            -980.00     5360.00
02939            -980.00     5280.00
02940            -980.00     5280.00
02941            -940.00     5280.00
02942            -960.00     5200.00
02943            -960.00     5200.00
02944            -960.00     5040.00
02945            -920.00     5040.00
02946            -900.00     4960.00
02947            -900.00     4960.00
02948            -900.00     4880.00
02949            -880.00     4800.00
02950            -860.00     4720.00
02951            -820.00     4720.00
02952            -820.00     4640.00
02953            -800.00     4640.00
02954            -760.00     4560.00
02955            -740.00     4560.00
02956            -740.00     4400.00
02957            -740.00     4320.00
02958            -720.00     4240.00
02959            -680.00     4160.00
02960            -660.00     4080.00
02961            -640.00     4080.00
02962            -620.00     3920.00
02963            -580.00     3920.00
02964            -560.00     3760.00
02965            -560.00     3760.00
02966            -540.00     3680.00
02967            -500.00     3600.00
02968            -500.00     3440.00
02969            -480.00     3440.00
02970            -480.00     3360.00
02971            -460.00     3280.00
02972            -420.00     3120.00
02973            -400.00     3040.00
02974            -400.00     2960.00
02975            -380.00     2800.00
02976            -360.00     2720.00
02977            -340.00     2640.00
02978            -340.00     2640.00
02979            -320.00     2480.00
02980            -320.00     2400.00
02981            -300.00     2320.00
02982            -260.00     2160.00
02983            -260.00     2080.00
02984            -260.00     2000.00
02985            -240.00     1840.00
02986            -240.00     1760.00
02987            -240.00     1680.00
02988            -180.00     1680.00
02989            -220.00     1440.00
02990            -200.00     1360.00
02991            -180.00     1200.00
02992            -160.00     1200.00
02993            -160.00     1120.00
02994            -160.00     1040.00
02995            -140.00      880.00
02996            -140.00      800.00
02997            -140.00      720.00
02998            -100.00      560.00
02999            -100.00      480.00
03000            -100.00      400.00
03001             -80.00      240.00
03002             -80.00      160.00
03003             -80.00        0.00
03004             -80.00      -80.00
03005             -20.00     -160.00
03006               0.00     -240.00
03007              60.00     -320.00
03008              20.00     -400.00
03009               0.00     -560.00
03010               0.00     -640.00
03011               0.00     -720.00
03012              20.00     -800.00
03013             140.00     -880.00
03014             560.00    -1040.00
03015             740.00    -1360.00
03016             140.00    -1440.00
03017            -980.00    -1520.00
03018           -1360.00    -1360.00
03019             160.00    -1440.00
03020            1020.00    -1920.00
03021            -340.00    -1440.00
03022            -180.00    -1840.00
03023             700.00    -2320.00
03024              80.00    -1680.00
03025            -140.00    -2160.00
03026             160.00    -2720.00
03027              80.00    -2080.00
03028             300.00    -2160.00
03029             260.00    -2960.00
03030            -100.00    -2480.00
03031              60.00    -2480.00
03032              80.00    -3200.00
03033             140.00    -2800.00
03034             380.00    -2800.00
03035              20.00    -3360.00
03036             -20.00    -3120.00
03037             460.00    -3200.00
03038             180.00    -3440.00
03039               0.00    -3440.00
03040             320.00    -3440.00
03041             220.00    -3680.00
03042             160.00    -3760.00
03043             300.00    -3760.00
03044             140.00    -3920.00
03045             180.00    -4000.00
03046             400.00    -3920.00
03047             260.00    -4080.00
03048             160.00    -4320.00
03049             340.00    -4240.00
03050             300.00    -4320.00
03051             220.00    -4400.00
03052             340.00    -4400.00
03053             300.00    -4480.00
03054             240.00    -4640.00
03055             380.00    -4640.00
03056             340.00    -4640.00
03057             300.00    -4800.00
03058             380.00    -4800.00
03059             380.00    -4800.00
03060             320.00    -4960.00
03061             360.00    -4880.00
03062             400.00    -4880.00
03063             380.00    -5040.00
03064             400.00    -5120.00
03065             420.00    -5040.00
03066             380.00    -5200.00
03067             420.00    -5280.00
03068             480.00    -5280.00
03069             460.00    -5360.00
03070             480.00    -5360.00
03071             500.00    -5360.00
03072             480.00    -5360.00
03073             500.00    -5520.00
03074             540.00    -5440.00
03075             540.00    -5440.00
03076             560.00    -5520.00
03077             580.00    -5440.00
03078             560.00    -5520.00
03079             580.00    -5600.00
03080             620.00    -5600.00
03081             640.00    -5520.00
03082             640.00    -5680.00
03083             680.00    -5600.00
03084             700.00    -5680.00
03085             700.00    -5600.00
03086             720.00    -5600.00
03087             720.00    -5600.00
03088             780.00    -5600.00
03089             800.00    -5600.00
03090             800.00    -5600.00
03091             820.00    -5600.00
03092             860.00    -5600.00
03093             860.00    -5520.00
03094             900.00    -5600.00
03095             940.00    -5600.00
03096             960.00    -5520.00
03097             940.00    -5600.00
03098             960.00    -5520.00
03099             960.00    -5520.00
03100             960.00    -5440.00
03101             980.00    -5440.00
03102            1000.00    -5360.00
03103             980.00    -5360.00
03104            1020.00    -5360.00
03105             960.00    -5360.00
03106             980.00    -5200.00
03107             960.00    -5280.00
03108             980.00    -5200.00
03109             980.00    -5120.00
03110             960.00    -5200.00
03111             940.00    -5040.00
03112             940.00    -5040.00
03113             900.00    -4960.00
03114             900.00    -4880.00
03115             900.00    -4800.00
03116             880.00    -4800.00
03117             860.00    -4720.00
03118             840.00    -4640.00
03119             800.00    -4560.00
03120             800.00    -4560.00
03121             800.00    -4560.00
03122             780.00    -4400.00
03123             760.00    -4320.00
03124             740.00    -4320.00
03125             700.00    -4240.00
03126             680.00    -4160.00
03127             660.00    -4080.00
03128             640.00    -4000.00
03129             640.00    -3920.00
03130             600.00    -3840.00
03131             560.00    -3760.00
03132             560.00    -3680.00
03133             540.00    -3600.00
03134             540.00    -3520.00
03135             520.00    -3440.00
03136             500.00    -3360.00
03137             460.00    -3360.00
03138             460.00    -3120.00
03139             420.00    -3120.00
03140             400.00    -3040.00
03141             400.00    -2880.00
03142             400.00    -2800.00
03143             380.00    -2720.00
03144             340.00    -2640.00
03145             320.00    -2560.00
03146             320.00    -2480.00
03147             300.00    -2400.00
03148             300.00    -2320.00
03149             300.00    -2240.00
03150             300.00    -2080.00
03151             260.00    -2000.00
03152             240.00    -1840.00
03153             220.00    -1760.00
03154             220.00    -1680.00
03155             220.00    -1520.00
03156             220.00    -1520.00
03157             200.00    -1360.00
03158             180.00    -1280.00
03159             160.00    -1120.00
03160             160.00    -1040.00
03161             160.00    -1040.00
03162             160.00     -880.00
03163             140.00     -800.00
03164             140.00     -720.00
03165             100.00     -560.00
03166             120.00     -400.00
03167             100.00     -240.00
03168             100.00     -240.00
03169             100.00      -80.00
03170              80.00        0.00
03171              80.00       80.00
03172              80.00      240.00
03173             100.00      240.00
03174             140.00      400.00
03175             140.00      480.00
03176             120.00      560.00
03177              80.00      720.00
03178              60.00      720.00
03179              60.00      880.00
03180             220.00     1040.00
03181             780.00     1200.00
03182             720.00     1360.00
03183            -320.00     1360.00
03184           -1740.00     1200.00
03185            -980.00     1440.00
03186            1040.00     1760.00
03187             540.00     1760.00
03188            -900.00     1680.00
03189             260.00     1760.00
03190             740.00     2160.00
03191            -800.00     2320.00
03192            -260.00     1920.00
03193             540.00     2480.00
03194            -300.00     2640.00
03195             -80.00     2160.00
03196              80.00     2640.00
03197            -480.00     3120.00
03198             -20.00     2480.00
03199            -100.00     2800.00
03200            -260.00     3280.00
03201             140.00     2720.00
03202            -260.00     3280.00
03203            -300.00     3600.00
03204              80.00     2800.00
03205            -240.00     3680.00
03206            -240.00     3760.00
03207            -140.00     3120.00
03208            -180.00     4000.00
03209            -100.00     3920.00
03210            -400.00     3440.00
03211            -220.00     4240.00
03212             -20.00     4000.00
03213            -340.00     3760.00
03214            -180.00     4240.00
03215            -160.00     4240.00
03216            -380.00     4240.00
03217            -220.00     4320.00
03218            -220.00     4560.00
03219            -320.00     4400.00
03220            -280.00     4480.00
03221            -300.00     4880.00
03222            -320.00     4560.00
03223            -320.00     4640.00
03224            -260.00     5040.00
03225            -340.00     4720.00
03226            -380.00     4880.00
03227            -320.00     5040.00
03228            -420.00     4960.00
03229            -340.00     5120.00
03230            -320.00     5200.00
03231            -460.00     5200.00
03232            -420.00     5200.00
03233            -360.00     5360.00
03234            -420.00     5280.00
03235            -460.00     5200.00
03236            -400.00     5440.00
03237            -480.00     5360.00
03238            -500.00     5360.00
03239            -460.00     5520.00
03240            -500.00     5520.00
03241            -560.00     5440.00
03242            -500.00     5600.00
03243            -500.00     5600.00
03244            -580.00     5520.00
03245            -580.00     5600.00
03246            -620.00     5680.00
03247            -620.00     5600.00
03248            -580.00     5680.00
03249            -620.00     5680.00
03250            -660.00     5600.00
03251            -660.00     5680.00
03252            -700.00     5760.00
03253            -740.00     5680.00
03254            -720.00     5680.00
03255            -740.00     5680.00
03256            -800.00     5680.00
03257            -780.00     5680.00
03258            -800.00     5680.00
03259            -880.00     5600.00
03260            -880.00     5680.00
03261            -880.00     5680.00
03262            -880.00     5680.00
03263            -900.00     5520.00
03264            -940.00     5600.00
03265            -960.00     5520.00
03266            -960.00     5520.00
03267            -960.00     5520.00
03268            -980.00     5520.00
03269            -980.00     5520.00
03270            -960.00     5440.00
03271            -980.00     5520.00
03272            -980.00     5360.00
03273            -980.00     5360.00
03274            -980.00     5360.00
03275            -960.00     5280.00
03276            -940.00     5200.00
03277            -960.00     5200.00
03278            -960.00     5040.00
03279            -960.00     5040.00
03280            -900.00     5040.00
03281            -940.00     4960.00
03282            -900.00     4960.00
03283            -880.00     4880.00
03284            -880.00     4800.00
03285            -860.00     4720.00
03286            -860.00     4720.00
03287            -800.00     4640.00
03288            -780.00     4560.00
03289            -740.00     4480.00
03290            -740.00     4400.00
03291            -740.00     4400.00
03292            -720.00     4320.00
03293            -700.00     4240.00
03294            -660.00     4240.00
03295            -640.00     4080.00
03296            -640.00     4000.00
03297            -620.00     3920.00
03298            -580.00     3920.00
03299            -580.00     3760.00
03300            -540.00     3680.00
03301            -500.00     3600.00
03302            -500.00     3520.00
03303            -480.00     3440.00
03304            -460.00     3360.00
03305            -460.00     3280.00
03306            -420.00     3120.00
03307            -420.00     3120.00
03308            -380.00     3040.00
03309            -380.00     2960.00
03310            -380.00     2800.00
03311            -380.00     2720.00
03312            -340.00     2640.00
03313            -320.00     2560.00
03314            -300.00     2400.00
03315            -300.00     2320.00
03316            -280.00     2240.00
03317            -260.00     2160.00
03318            -260.00     2080.00
03319            -260.00     2000.00
03320            -240.00     1840.00
03321            -240.00     1680.00
03322            -220.00     1680.00
03323            -200.00     1520.00
03324            -180.00     1440.00
03325            -180.00     1360.00
03326            -180.00     1200.00
03327            -160.00     1200.00
03328            -160.00     1040.00
03329            -140.00      880.00
03330            -140.00      800.00
03331            -160.00      720.00
03332            -100.00      640.00
03333            -100.00      480.00
03334            -100.00      400.00
03335            -100.00      240.00
03336             -80.00      240.00
03337             -80.00       80.00
03338             -80.00        0.00
03339             -40.00     -160.00
03340             -20.00     -240.00
03341              20.00     -320.00
03342              40.00     -400.00
03343              20.00     -560.00
03344               0.00     -640.00
03345               0.00     -720.00
03346               0.00     -800.00
03347              80.00     -880.00
03348             320.00     -960.00
03349             760.00    -1200.00
03350             500.00    -1440.00
03351            -460.00    -1440.00
03352           -1420.00    -1360.00
03353            -620.00    -1280.00
03354             940.00    -1840.00
03355             320.00    -1760.00
03356            -500.00    -1520.00
03357             380.00    -2320.00
03358             560.00    -2000.00
03359            -180.00    -1760.00
03360              60.00    -2560.00
03361             180.00    -2480.00
03362             100.00    -2000.00
03363             380.00    -2720.00
03364              40.00    -2800.00
03365             -80.00    -2320.00
03366             160.00    -2960.00
03367              20.00    -3040.00
03368             300.00    -2640.00
03369             300.00    -3200.00
03370            -140.00    -3360.00
03371             300.00    -3120.00
03372             380.00    -3280.00
03373             -20.00    -3600.00
03374             200.00    -3440.00
03375             320.00    -3600.00
03376             140.00    -3760.00
03377             260.00    -3760.00
03378             220.00    -3760.00
03379              80.00    -4000.00
03380             320.00    -3920.00
03381             340.00    -4000.00
03382             160.00    -4240.00
03383             260.00    -4240.00
03384             380.00    -4240.00
03385             220.00    -4400.00
03386             300.00    -4400.00
03387             340.00    -4400.00
03388             220.00    -4560.00
03389             300.00    -4640.00
03390             380.00    -4640.00
03391             300.00    -4720.00
03392             320.00    -4880.00
03393             380.00    -4720.00
03394             320.00    -4880.00
03395             340.00    -4960.00
03396             400.00    -4960.00
03397             400.00    -5040.00
03398             380.00    -5200.00
03399             400.00    -5120.00
03400             380.00    -5200.00
03401             400.00    -5200.00
03402             480.00    -5200.00
03403             480.00    -5280.00
03404             460.00    -5360.00
03405             500.00    -5360.00
03406             480.00    -5360.00
03407             480.00    -5440.00
03408             500.00    -5440.00
03409             540.00    -5440.00
03410             540.00    -5600.00
03411             580.00    -5520.00
03412             580.00    -5520.00
03413             560.00    -5600.00
03414             600.00    -5520.00
03415             640.00    -5600.00
03416             640.00    -5600.00
03417             660.00    -5680.00
03418             700.00    -5600.00
03419             700.00    -5680.00
03420             720.00    -5680.00
03421             740.00    -5600.00
03422             740.00    -5600.00
03423             780.00    -5600.00
03424             820.00    -5600.00
03425             820.00    -5600.00
03426             820.00    -5600.00
03427             860.00    -5520.00
03428             860.00    -5600.00
03429             900.00    -5600.00
03430             940.00    -5520.00
03431             940.00    -5520.00
03432             940.00    -5520.00
03433             960.00    -5440.00
03434             960.00    -5440.00
03435             980.00    -5440.00
03436             980.00    -5360.00
03437            1000.00    -5360.00
03438             980.00    -5360.00
03439             980.00    -5360.00
03440             960.00    -5280.00
03441             980.00    -5280.00
03442             980.00    -5200.00
03443             980.00    -5200.00
03444             980.00    -5120.00
03445             960.00    -5040.00
03446             940.00    -5040.00
03447             920.00    -4960.00
03448             920.00    -4880.00
03449             940.00    -4880.00
03450             900.00    -4800.00
03451             860.00    -4800.00
03452             860.00    -4640.00
03453             820.00    -4640.00
03454             800.00    -4560.00
03455             800.00    -4560.00
03456             780.00    -4400.00
03457             780.00    -4400.00
03458             740.00    -4320.00
03459             700.00    -4240.00
03460             660.00    -4240.00
03461             660.00    -4080.00
03462             660.00    -4080.00
03463             640.00    -4000.00
03464             620.00    -3920.00
03465             580.00    -3840.00
03466             560.00    -3680.00
03467             560.00    -3680.00
03468             540.00    -3600.00
03469             500.00    -3520.00
03470             480.00    -3440.00
03471             480.00    -3360.00
03472             460.00    -3280.00
03473             420.00    -3120.00
03474             400.00    -3040.00
03475             380.00    -2960.00
03476             400.00    -2880.00
03477             380.00    -2800.00
03478             340.00    -2720.00
03479             340.00    -2640.00
03480             320.00    -2480.00
03481             320.00    -2400.00
03482             320.00    -2400.00
03483             300.00    -2240.00
03484             260.00    -2160.00
03485             260.00    -2080.00
03486             240.00    -2000.00
03487             240.00    -1840.00
03488             240.00    -1760.00
03489             240.00    -1680.00
03490             220.00    -1520.00
03491             220.00    -1440.00
03492             180.00    -1360.00
03493             180.00    -1200.00
03494             160.00    -1120.00
03495             160.00    -1040.00
03496             160.00     -880.00
03497             160.00     -800.00
03498             160.00     -720.00
03499             140.00     -560.00
03500             100.00     -480.00
03501             140.00     -400.00
03502             100.00     -240.00
03503             100.00     -160.00
03504             100.00      -80.00
03505              80.00       80.00
03506              80.00      160.00
03507             100.00      240.00
03508             140.00      400.00
03509             140.00      400.00
03510             140.00      480.00
03511             100.00      560.00
03512              80.00      720.00
03513              60.00      800.00
03514             100.00      880.00
03515             540.00     1120.00
03516             900.00     1360.00
03517             280.00     1440.00
03518           -1180.00     1280.00
03519           -1660.00     1200.00
03520             160.00     1760.00
03521            1260.00     1840.00
03522            -560.00     1680.00
03523            -480.00     1760.00
03524             920.00     1920.00
03525            -220.00     2320.00
03526            -780.00     2000.00
03527             380.00     2080.00
03528              80.00     2720.00
03529            -260.00     2320.00
03530             140.00     2240.00
03531            -260.00     3040.00
03532            -260.00     2800.00
03533              40.00     2480.00
03534            -280.00     3280.00
03535             -20.00     2960.00
03536               0.00     2800.00
03537            -400.00     3680.00
03538             -20.00     3120.00
03539             -80.00     3120.00
03540            -320.00     4000.00
03541            -140.00     3280.00
03542            -220.00     3440.00
03543            -100.00     4160.00
03544            -240.00     3440.00
03545            -380.00     3920.00
03546             -20.00     4320.00
03547            -240.00     3760.00
03548            -300.00     4080.00
03549            -100.00     4320.00
03550            -320.00     4240.00
03551            -320.00     4240.00
03552            -180.00     4400.00
03553            -300.00     4560.00
03554            -260.00     4400.00
03555            -300.00     4720.00
03556            -300.00     4800.00
03557            -340.00     4560.00
03558            -260.00     4880.00
03559            -280.00     4880.00
03560            -400.00     4800.00
03561            -320.00     5040.00
03562            -340.00     4960.00
03563            -420.00     4960.00
03564            -280.00     5200.00
03565            -400.00     5200.00
03566            -460.00     5200.00
03567            -380.00     5200.00
03568            -400.00     5360.00
03569            -460.00     5200.00
03570            -420.00     5360.00
03571            -420.00     5520.00
03572            -500.00     5280.00
03573            -480.00     5520.00
03574            -460.00     5600.00
03575            -540.00     5520.00
03576            -500.00     5520.00
03577            -480.00     5680.00
03578            -560.00     5600.00
03579            -580.00     5600.00
03580            -560.00     5600.00
03581            -620.00     5600.00
03582            -580.00     5680.00
03583            -580.00     5680.00
03584            -660.00     5680.00
03585            -660.00     5680.00
03586            -660.00     5680.00
03587            -740.00     5680.00
03588            -740.00     5680.00
03589            -740.00     5760.00
03590            -760.00     5680.00
03591            -800.00     5680.00
03592            -780.00     5760.00
03593            -860.00     5680.00
03594            -880.00     5600.00
03595            -860.00     5680.00
03596            -880.00     5600.00
03597            -900.00     5680.00
03598            -940.00     5600.00
03599            -940.00     5520.00
03600            -960.00     5520.00
03601            -960.00     5520.00
03602            -960.00     5520.00
03603            -960.00     5520.00
03604            -980.00     5440.00
03605            -960.00     5440.00
03606            -980.00     5360.00
03607            -980.00     5360.00
03608            -980.00     5360.00
03609            -980.00     5280.00
03610            -940.00     5280.00
03611            -960.00     5200.00
03612            -960.00     5200.00
03613            -960.00     5120.00
03614            -920.00     5040.00
03615            -900.00     4960.00
03616            -900.00     4880.00
03617            -880.00     4880.00
03618            -880.00     4880.00
03619            -860.00     4720.00
03620            -820.00     4800.00
03621            -820.00     4640.00
03622            -800.00     4560.00
03623            -780.00     4560.00
03624            -740.00     4560.00
03625            -740.00     4400.00
03626            -720.00     4320.00
03627            -700.00     4240.00
03628            -660.00     4240.00
03629            -640.00     4160.00
03630            -640.00     4000.00
03631            -620.00     3920.00
03632            -580.00     3920.00
03633            -580.00     3760.00
03634            -560.00     3680.00
03635            -540.00     3600.00
03636            -500.00     3520.00
03637            -500.00     3440.00
03638            -460.00     3360.00
03639            -460.00     3360.00
03640            -460.00     3200.00
03641            -420.00     3120.00
03642            -400.00     3040.00
03643            -380.00     2960.00
03644            -380.00     2880.00
03645            -380.00     2800.00
03646            -340.00     2640.00
03647            -340.00     2560.00
03648            -320.00     2480.00
03649            -320.00     2400.00
03650            -300.00     2320.00
03651            -280.00     2160.00
03652            -260.00     2080.00
03653            -260.00     2000.00
03654            -260.00     1840.00
03655            -240.00     1840.00
03656            -240.00     1680.00
03657            -220.00     1600.00
03658            -220.00     1440.00
03659            -220.00     1360.00
03660            -180.00     1280.00
03661            -160.00     1200.00
03662            -160.00     1040.00
03663            -140.00      880.00
03664            -160.00      800.00
03665            -140.00      720.00
03666            -140.00      720.00
03667            -120.00      560.00
03668            -100.00      480.00
03669            -100.00      320.00
03670            -100.00      240.00
03671             -80.00      160.00
03672             -80.00       80.00
03673             -60.00      -80.00
03674             -60.00     -160.00
03675               0.00     -240.00
03676              40.00     -320.00
03677              40.00     -480.00
03678              20.00     -560.00
03679               0.00     -720.00
03680               0.00     -720.00
03681              40.00     -800.00
03682             180.00     -960.00
03683             580.00    -1120.00
03684             700.00    -1360.00
03685              60.00    -1440.00
03686           -1060.00    -1440.00
03687           -1280.00    -1280.00
03688             340.00    -1520.00
03689             960.00    -2000.00
03690            -420.00    -1520.00
03691            -100.00    -2000.00
03692             740.00    -2320.00
03693              20.00    -1680.00
03694            -100.00    -2160.00
03695             180.00    -2720.00
03696              80.00    -2080.00
03697             300.00    -2320.00
03698             220.00    -3040.00
03699            -120.00    -2480.00
03700             100.00    -2560.00
03701              80.00    -3280.00
03702             160.00    -2800.00
03703             420.00    -2880.00
03704             -20.00    -3360.00
03705               0.00    -3120.00
03706             480.00    -3120.00
03707             140.00    -3520.00
03708              20.00    -3520.00
03709             340.00    -3520.00
03710             180.00    -3680.00
03711             200.00    -3760.00
03712             260.00    -3760.00
03713             100.00    -3920.00
03714             180.00    -4000.00
03715             400.00    -4000.00
03716             220.00    -4160.00
03717             160.00    -4320.00
03718             320.00    -4240.00
03719             260.00    -4400.00
03720             220.00    -4480.00
03721             340.00    -4400.00
03722             260.00    -4560.00
03723             240.00    -4720.00
03724             380.00    -4640.00
03725             320.00    -4640.00
03726             300.00    -4880.00
03727             380.00    -4880.00
03728             380.00    -4800.00
03729             320.00    -4960.00
03730             380.00    -4960.00
03731             400.00    -4960.00
03732             380.00    -5120.00
03733             400.00    -5040.00
03734             400.00    -5040.00
03735             380.00    -5280.00
03736             440.00    -5200.00
03737             480.00    -5280.00
03738             460.00    -5360.00
03739             480.00    -5360.00
03740             500.00    -5360.00
03741             460.00    -5440.00
03742             500.00    -5520.00
03743             540.00    -5440.00
03744             540.00    -5440.00
03745             560.00    -5680.00
03746             620.00    -5600.00
03747             560.00    -5520.00
03748             580.00    -5600.00
03749             640.00    -5600.00
03750             640.00    -5600.00
03751             660.00    -5680.00
03752             660.00    -5600.00
03753             700.00    -5600.00
03754             700.00    -5680.00
03755             740.00    -5680.00
03756             740.00    -5600.00
03757             780.00    -5600.00
03758             820.00    -5680.00
03759             820.00    -5680.00
03760             840.00    -5600.00
03761             860.00    -5600.00
03762             880.00    -5520.00
03763             880.00    -5440.00
03764             940.00    -5600.00
03765             940.00    -5520.00
03766             940.00    -5600.00
03767             960.00    -5440.00
03768             960.00    -5440.00
03769             960.00    -5520.00
03770             980.00    -5440.00
03771             980.00    -5440.00
03772             980.00    -5360.00
03773             980.00    -5360.00
03774             980.00    -5280.00
03775             980.00    -5280.00
03776             960.00    -5200.00
03777             980.00    -5200.00
03778             980.00    -5200.00
03779             960.00    -5040.00
03780             940.00    -5040.00
03781             940.00    -4960.00
03782             900.00    -4960.00
03783             900.00    -4960.00
03784             900.00    -4800.00
03785             880.00    -4800.00
03786             860.00    -4720.00
03787             840.00    -4720.00
03788             800.00    -4640.00
03789             800.00    -4560.00
03790             800.00    -4480.00
03791             780.00    -4400.00
03792             740.00    -4400.00
03793             720.00    -4320.00
03794             700.00    -4240.00
03795             660.00    -4240.00
03796             640.00    -4080.00
03797             640.00    -4080.00
03798             620.00    -3920.00
03799             600.00    -3920.00
03800             580.00    -3760.00
03801             540.00    -3760.00
03802             540.00    -3680.00
03803             540.00    -3600.00
03804             520.00    -3520.00
03805             480.00    -3360.00
03806             480.00    -3280.00
03807             460.00    -3280.00
03808             420.00    -3120.00
03809             400.00    -2960.00
03810             400.00    -2880.00
03811             400.00    -2880.00
03812             380.00    -2720.00
03813             360.00    -2640.00
03814             340.00    -2640.00
03815             320.00    -2480.00
03816             320.00    -2400.00
03817             300.00    -2320.00
03818             300.00    -2160.00
03819             300.00    -2080.00
03820             260.00    -2000.00
03821             240.00    -1840.00
03822             240.00    -1760.00
03823             240.00    -1680.00
03824             220.00    -1520.00
03825             220.00    -1440.00
03826             220.00    -1360.00
03827             180.00    -1200.00
03828             180.00    -1120.00
03829             160.00    -1040.00
03830             160.00     -960.00
03831             160.00     -880.00
03832             160.00     -800.00
03833             140.00     -640.00
03834             140.00     -560.00
03835             140.00     -480.00
03836             100.00     -320.00
03837             100.00     -240.00
03838             100.00     -160.00
03839              80.00       80.00
03840              80.00       80.00
03841             100.00      160.00
03842             100.00      240.00
03843             140.00      400.00
03844             140.00      480.00
03845             100.00      560.00
03846              80.00      720.00
03847              60.00      720.00
03848              60.00      880.00
03849             240.00      960.00
03850             800.00     1200.00
03851             660.00     1360.00
03852            -420.00     1360.00
03853           -1780.00     1120.00
03854            -860.00     1520.00
03855            1180.00     1840.00
03856             320.00     1760.00
03857            -880.00     1680.00
03858             400.00     1760.00
03859             620.00     2240.00
03860            -880.00     2160.00
03861            -160.00     1920.00
03862             500.00     2480.00
03863            -320.00     2640.00
03864             -20.00     2080.00
03865              60.00     2640.00
03866            -460.00     3040.00
03867               0.00     2400.00
03868            -140.00     2960.00
03869            -260.00     3280.00
03870             160.00     2640.00
03871            -300.00     3360.00
03872            -260.00     3440.00
03873              60.00     2800.00
03874            -280.00     3760.00
03875            -220.00     3680.00
03876            -160.00     3040.00
03877            -160.00     4080.00
03878            -100.00     3760.00
03879            -400.00     3440.00
03880            -180.00     4320.00
03881             -60.00     4000.00
03882            -340.00     3920.00
03883            -140.00     4320.00
03884            -180.00     4240.00
03885            -380.00     4240.00
03886            -220.00     4320.00
03887            -240.00     4560.00
03888            -280.00     4400.00
03889            -280.00     4560.00
03890            -280.00     4880.00
03891            -340.00     4560.00
03892            -320.00     4720.00
03893            -260.00     4960.00
03894            -340.00     4800.00
03895            -340.00     4880.00
03896            -320.00     5040.00
03897            -420.00     4960.00
03898            -340.00     5040.00
03899            -300.00     5200.00
03900            -480.00     5200.00
03901            -420.00     5200.00
03902            -340.00     5360.00
03903            -420.00     5280.00
03904            -440.00     5280.00
03905            -400.00     5440.00
03906            -480.00     5440.00
03907            -500.00     5360.00
03908            -460.00     5600.00
03909            -500.00     5520.00
03910            -560.00     5440.00
03911            -500.00     5600.00
03912            -500.00     5600.00
03913            -580.00     5600.00
03914            -580.00     5600.00
03915            -620.00     5600.00
03916            -620.00     5680.00
03917            -580.00     5680.00
03918            -640.00     5680.00
03919            -700.00     5600.00
03920            -660.00     5680.00
03921            -700.00     5680.00
03922            -740.00     5600.00
03923            -740.00     5680.00
03924            -740.00     5680.00
03925            -800.00     5680.00
03926            -800.00     5680.00
03927            -800.00     5680.00
03928            -880.00     5680.00
03929            -880.00     5600.00
03930            -860.00     5680.00
03931            -900.00     5680.00
03932            -900.00     5600.00
03933            -920.00     5600.00
03934            -960.00     5600.00
03935            -960.00     5520.00
03936            -960.00     5520.00
03937            -980.00     5520.00
03938            -980.00     5440.00
03939            -960.00     5520.00
03940            -960.00     5360.00
03941            -980.00     5360.00
03942            -980.00     5360.00
03943            -980.00     5360.00
03944            -960.00     5280.00
03945            -940.00     5200.00
03946            -960.00     5280.00
03947            -960.00     5040.00
03948            -940.00     5040.00
03949            -900.00     5040.00
03950            -900.00     4960.00
03951            -900.00     4880.00
03952            -880.00     4880.00
03953            -860.00     4800.00
03954            -820.00     4720.00
03955            -820.00     4640.00
03956            -800.00     4640.00
03957            -780.00     4480.00
03958            -740.00     4560.00
03959            -740.00     4480.00
03960            -740.00     4320.00
03961            -720.00     4240.00
03962            -700.00     4240.00
03963            -660.00     4080.00
03964            -640.00     4080.00
03965            -640.00     4000.00
03966            -600.00     3920.00
03967            -580.00     3920.00
03968            -560.00     3760.00
03969            -540.00     3680.00
03970            -500.00     3600.00
03971            -500.00     3440.00
03972            -480.00     3440.00
03973            -460.00     3360.00
03974            -460.00     3200.00
03975            -440.00     3120.00
03976            -420.00     3040.00
03977            -400.00     2960.00
03978            -400.00     2880.00
03979            -380.00     2800.00
03980            -380.00     2720.00
03981            -340.00     2640.00
03982            -320.00     2480.00
03983            -320.00     2480.00
03984            -320.00     2320.00
03985            -300.00     2240.00
03986            -260.00     2160.00
03987            -260.00     2080.00
03988            -260.00     1920.00
03989            -240.00     1840.00
03990            -240.00     1680.00
03991            -220.00     1680.00
03992            -200.00     1520.00
03993            -220.00     1440.00
03994            -180.00     1360.00
03995            -180.00     1280.00
03996            -160.00     1120.00
03997            -160.00     1040.00
03998            -160.00      880.00
03999            -160.00      800.00
04000            -120.00      720.00
04001            -140.00      560.00
04002            -120.00      480.00
04003            -100.00      400.00
04004            -100.00      240.00
04005             -80.00      160.00
04006             -60.00       80.00
04007             -80.00      -80.00
04008             -80.00     -160.00
04009              20.00     -240.00
04010              60.00     -320.00
04011              60.00     -400.00
04012              20.00     -480.00
04013               0.00     -640.00
04014               0.00     -720.00
04015              20.00     -800.00
04016             100.00     -880.00
04017             380.00    -1040.00
04018             780.00    -1280.00
04019             420.00    -1440.00
04020            -540.00    -1440.00
04021           -1440.00    -1360.00
04022            -460.00    -1360.00
04023            1000.00    -1840.00
04024             160.00    -1680.00
04025            -480.00    -1680.00
04026             460.00    -2320.00
04027             500.00    -2000.00
04028            -180.00    -1840.00
04029              80.00    -2640.00
04030             160.00    -2480.00
04031             120.00    -2000.00
04032             340.00    -2800.00
04033               0.00    -2880.00
04034             -60.00    -2320.00
04035             140.00    -3040.00
04036              60.00    -3040.00
04037             320.00    -2720.00
04038             240.00    -3280.00
04039            -140.00    -3280.00
04040             320.00    -3040.00
04041             360.00    -3360.00
04042             -60.00    -3520.00
04043             220.00    -3440.00
04044             300.00    -3520.00
04045             140.00    -3760.00
04046             260.00    -3760.00
04047             180.00    -3840.00
04048             100.00    -4000.00
04049             340.00    -3920.00
04050             320.00    -4000.00
04051             160.00    -4240.00
04052             260.00    -4240.00
04053             320.00    -4240.00
04054             220.00    -4400.00
04055             300.00    -4400.00
04056             320.00    -4400.00
04057             220.00    -4640.00
04058             320.00    -4640.00
04059             380.00    -4560.00
04060             300.00    -4800.00
04061             320.00    -4880.00
04062             400.00    -4880.00
04063             320.00    -4960.00
04064             320.00    -5040.00
04065             400.00    -4960.00
04066             400.00    -5120.00
04067             400.00    -5120.00
04068             400.00    -5040.00
04069             400.00    -5200.00
04070             400.00    -5280.00
04071             480.00    -5280.00
04072             480.00    -5280.00
04073             480.00    -5360.00
04074             500.00    -5360.00
04075             480.00    -5360.00
04076             480.00    -5440.00
04077             540.00    -5440.00
04078             540.00    -5520.00
04079             540.00    -5600.00
04080             580.00    -5600.00
04081             580.00    -5520.00
04082             560.00    -5520.00
04083             620.00    -5600.00
04084             660.00    -5600.00
04085             640.00    -5680.00
04086             680.00    -5600.00
04087             700.00    -5600.00
04088             700.00    -5680.00
04089             720.00    -5680.00
04090             740.00    -5600.00
04091             780.00    -5680.00
04092             800.00    -5680.00
04093             860.00    -5680.00
04094             820.00    -5600.00
04095             820.00    -5680.00
04096             880.00    -5600.00
04097             880.00    -5520.00
04098             900.00    -5600.00
04099             940.00    -5440.00
04100             940.00    -5520.00
04101             940.00    -5520.00
04102             960.00    -5440.00
04103             960.00    -5440.00
04104             960.00    -5440.00
04105             980.00    -5360.00
04106            1000.00    -5360.00
04107             980.00    -5360.00
04108             980.00    -5280.00
04109             960.00    -5360.00
04110             960.00    -5200.00
04111             980.00    -5200.00
04112             980.00    -5120.00
04113             960.00    -5120.00
04114             940.00    -5040.00
04115             920.00    -4960.00
04116             900.00    -4960.00
04117             940.00    -4880.00
04118             900.00    -4880.00
04119             900.00    -4880.00
04120             860.00    -4800.00
04121             840.00    -4720.00
04122             820.00    -4640.00
04123             800.00    -4560.00
04124             800.00    -4560.00
04125             780.00    -4400.00
04126             760.00    -4400.00
04127             720.00    -4320.00
04128             700.00    -4320.00
04129             660.00    -4240.00
04130             660.00    -4080.00
04131             660.00    -4000.00
04132             640.00    -4000.00
04133             620.00    -3920.00
04134             560.00    -3840.00
04135             560.00    -3760.00
04136             540.00    -3680.00
04137             540.00    -3600.00
04138             520.00    -3440.00
04139             500.00    -3440.00
04140             480.00    -3360.00
04141             480.00    -3280.00
04142             420.00    -3200.00
04143             420.00    -3040.00
04144             400.00    -2960.00
04145             400.00    -2880.00
04146             380.00    -2800.00
04147             360.00    -2640.00
04148             340.00    -2640.00
04149             320.00    -2480.00
04150             320.00    -2480.00
04151             300.00    -2320.00
04152             300.00    -2240.00
04153             260.00    -2080.00
04154             260.00    -2080.00
04155             260.00    -1920.00
04156             240.00    -1840.00
04157             220.00    -1760.00
04158             220.00    -1680.00
04159             220.00    -1520.00
04160             200.00    -1440.00
04161             180.00    -1360.00
04162             180.00    -1200.00
04163             160.00    -1120.00
04164             160.00    -1040.00
04165             160.00     -880.00
04166             160.00     -800.00
04167             140.00     -720.00
04168             140.00     -560.00
04169             120.00     -480.00
04170             120.00     -320.00
04171             100.00     -240.00
04172             100.00     -240.00
04173              80.00        0.00
04174              80.00       80.00
04175              60.00      160.00
04176              80.00      240.00
04177             100.00      400.00
04178             140.00      400.00
04179             140.00      480.00
04180              80.00      560.00
04181              60.00      720.00
04182              60.00      800.00
04183             120.00      880.00
04184             560.00     1120.00
04185             880.00     1360.00
04186             180.00     1360.00
04187           -1300.00     1200.00
04188           -1600.00     1200.00
04189             320.00     1760.00
04190            1180.00     1840.00
04191            -680.00     1600.00
04192            -340.00     1760.00
04193             940.00     2000.00
04194            -380.00     2320.00
04195            -720.00     2000.00
04196             460.00     2160.00
04197               0.00     2720.00
04198            -240.00     2320.00
04199             140.00     2320.00
04200            -320.00     3120.00
04201            -240.00     2720.00
04202               0.00     2480.00
04203            -280.00     3360.00
04204              20.00     2960.00
04205             -20.00     2880.00
04206            -400.00     3680.00
04207               0.00     2960.00
04208            -100.00     3280.00
04209            -300.00     4000.00
04210            -100.00     3200.00
04211            -200.00     3600.00
04212             -80.00     4080.00
04213            -260.00     3440.00
04214            -360.00     3920.00
04215               0.00     4240.00
04216            -240.00     3760.00
04217            -260.00     4080.00
04218            -100.00     4320.00
04219            -340.00     4240.00
04220            -300.00     4240.00
04221            -180.00     4400.00
04222            -300.00     4560.00
04223            -280.00     4400.00
04224            -300.00     4720.00
04225            -300.00     4720.00
04226            -340.00     4560.00
04227            -240.00     4960.00
04228            -300.00     4880.00
04229            -400.00     4800.00
04230            -320.00     5040.00
04231            -380.00     4960.00
04232            -400.00     4960.00
04233            -300.00     5200.00
04234            -400.00     5200.00
04235            -460.00     5200.00
04236            -340.00     5280.00
04237            -400.00     5360.00
04238            -460.00     5280.00
04239            -420.00     5360.00
04240            -420.00     5440.00
04241            -520.00     5360.00
04242            -480.00     5520.00
04243            -480.00     5600.00
04244            -560.00     5440.00
04245            -520.00     5520.00
04246            -480.00     5600.00
04247            -560.00     5520.00
04248            -580.00     5600.00
04249            -620.00     5680.00
04250            -640.00     5600.00
04251            -620.00     5680.00
04252            -620.00     5680.00
04253            -660.00     5600.00
04254            -680.00     5680.00
04255            -660.00     5680.00
04256            -740.00     5680.00
04257            -720.00     5600.00
04258            -740.00     5680.00
04259            -780.00     5600.00
04260            -800.00     5680.00
04261            -800.00     5680.00
04262            -860.00     5600.00
04263            -900.00     5680.00
04264            -860.00     5680.00
04265            -880.00     5600.00
04266            -900.00     5600.00
04267            -900.00     5600.00
04268            -940.00     5600.00
04269            -960.00     5520.00
04270            -940.00     5600.00
04271            -960.00     5520.00
04272            -980.00     5520.00
04273            -960.00     5440.00
04274            -960.00     5440.00
04275            -980.00     5360.00
04276            -980.00     5360.00
04277            -980.00     5280.00
04278            -980.00     5280.00
04279            -940.00     5200.00
04280            -960.00     5280.00
04281            -960.00     5200.00
04282            -940.00     5040.00
04283            -920.00     5040.00
04284            -900.00     4960.00
04285            -900.00     4960.00
04286            -880.00     4880.00
04287            -880.00     4800.00
04288            -860.00     4800.00
04289            -820.00     4720.00
04290            -820.00     4640.00
04291            -800.00     4640.00
04292            -760.00     4560.00
04293            -740.00     4480.00
04294            -740.00     4400.00
04295            -720.00     4320.00
04296            -720.00     4240.00
04297            -660.00     4160.00
04298            -640.00     4160.00
04299            -620.00     4000.00
04300            -620.00     4000.00
04301            -580.00     3920.00
04302            -580.00     3760.00
04303            -560.00     3760.00
04304            -540.00     3600.00
04305            -500.00     3520.00
04306            -480.00     3440.00
04307            -480.00     3360.00
04308            -480.00     3360.00
04309            -460.00     3200.00
04310            -420.00     3120.00
04311            -400.00     3040.00
04312            -400.00     2960.00
04313            -380.00     2800.00
04314            -380.00     2720.00
04315            -340.00     2640.00
04316            -340.00     2560.00
04317            -320.00     2480.00
04318            -320.00     2400.00
04319            -300.00     2320.00
04320            -260.00     2160.00
04321            -260.00     2080.00
04322            -260.00     2000.00
04323            -260.00     1840.00
04324            -240.00     1760.00
04325            -240.00     1680.00
04326            -220.00     1520.00
04327            -220.00     1440.00
04328            -200.00     1360.00
04329            -180.00     1280.00
04330            -160.00     1200.00
04331            -160.00     1120.00
04332            -160.00     1040.00
04333            -140.00      880.00
04334            -140.00      720.00
04335            -120.00      640.00
04336            -100.00      560.00
04337            -100.00      480.00
04338            -100.00      400.00
04339             -80.00      240.00
04340             -80.00      160.00
04341             -80.00        0.00
04342             -60.00      -80.00
04343             -20.00     -240.00
04344              20.00     -240.00
04345              60.00     -400.00
04346              20.00     -480.00
04347              20.00     -560.00
04348               0.00     -720.00
04349               0.00     -800.00
04350              20.00     -880.00
04351             180.00     -880.00
04352             640.00    -1120.00
04353             700.00    -1360.00
04354             -20.00    -1360.00
04355           -1160.00    -1440.00
04356           -1180.00    -1200.00
04357             480.00    -1600.00
04358             860.00    -1840.00
04359            -480.00    -1440.00
04360             -20.00    -2080.00
04361             720.00    -2240.00
04362             -20.00    -1680.00
04363             -80.00    -2320.00
04364             220.00    -2720.00
04365              80.00    -2000.00
04366             320.00    -2400.00
04367             200.00    -3040.00
04368            -140.00    -2400.00
04369             120.00    -2640.00
04370              60.00    -3120.00
04371             160.00    -2720.00
04372             380.00    -2880.00
04373             -80.00    -3440.00
04374              60.00    -3120.00
04375             460.00    -3280.00
04376              80.00    -3520.00
04377              60.00    -3520.00
04378             340.00    -3440.00
04379             160.00    -3760.00
04380             200.00    -3760.00
04381             240.00    -3760.00
04382             100.00    -4000.00
04383             220.00    -4000.00
04384             400.00    -3920.00
04385             220.00    -4160.00
04386             180.00    -4320.00
04387             340.00    -4240.00
04388             260.00    -4400.00
04389             240.00    -4400.00
04390             340.00    -4400.00
04391             260.00    -4560.00
04392             240.00    -4640.00
04393             380.00    -4640.00
04394             320.00    -4720.00
04395             300.00    -4880.00
04396             380.00    -4800.00
04397             380.00    -4880.00
04398             320.00    -5040.00
04399             380.00    -4960.00
04400             400.00    -5040.00
04401             380.00    -5200.00
04402             400.00    -5040.00
04403             400.00    -5200.00
04404             400.00    -5280.00
04405             460.00    -5280.00
04406             480.00    -5280.00
04407             460.00    -5360.00
04408             480.00    -5360.00
04409             500.00    -5360.00
04410             480.00    -5440.00
04411             520.00    -5440.00
04412             540.00    -5520.00
04413             540.00    -5520.00
04414             580.00    -5600.00
04415             620.00    -5520.00
04416             560.00    -5600.00
04417             580.00    -5600.00
04418             640.00    -5600.00
04419             640.00    -5600.00
04420             660.00    -5680.00
04421             680.00    -5600.00
04422             700.00    -5600.00
04423             700.00    -5680.00
04424             720.00    -5680.00
04425             760.00    -5680.00
04426             800.00    -5600.00
04427             820.00    -5600.00
04428             820.00    -5600.00
04429             860.00    -5680.00
04430             860.00    -5600.00
04431             880.00    -5520.00
04432             880.00    -5600.00
04433             920.00    -5520.00
04434             940.00    -5440.00
04435             940.00    -5600.00
04436             940.00    -5440.00
04437             960.00    -5440.00
04438             960.00    -5440.00
04439             980.00    -5360.00
04440             980.00    -5440.00
04441            1000.00    -5360.00
04442             960.00    -5360.00
04443             960.00    -5280.00
04444             960.00    -5280.00
04445             960.00    -5280.00
04446             980.00    -5200.00
04447             960.00    -5200.00
04448             960.00    -5200.00
04449             940.00    -5040.00
04450             920.00    -5040.00
04451             900.00    -4960.00
04452             920.00    -4880.00
04453             900.00    -4880.00
04454             860.00    -4800.00
04455             860.00    -4720.00
04456             820.00    -4720.00
04457             800.00    -4640.00
04458             800.00    -4560.00
04459             780.00    -4480.00
04460             780.00    -4400.00
04461             760.00    -4400.00
04462             720.00    -4320.00
04463             700.00    -4240.00
04464             660.00    -4160.00
04465             660.00    -4080.00
04466             640.00    -4000.00
04467             640.00    -4000.00
04468             580.00    -3840.00
04469             560.00    -3760.00
04470             540.00    -3760.00
04471             540.00    -3600.00
04472             540.00    -3600.00
04473             520.00    -3440.00
04474             480.00    -3360.00
04475             480.00    -3280.00
04476             460.00    -3280.00
04477             420.00    -3040.00
04478             400.00    -3040.00
04479             400.00    -2880.00
04480             380.00    -2800.00
04481             380.00    -2720.00
04482             340.00    -2640.00
04483             320.00    -2480.00
04484             320.00    -2480.00
04485             300.00    -2400.00
04486             320.00    -2320.00
04487             300.00    -2160.00
04488             300.00    -2080.00
04489             260.00    -2000.00
04490             240.00    -1840.00
04491             240.00    -1760.00
04492             220.00    -1680.00
04493             220.00    -1600.00
04494             220.00    -1440.00
04495             180.00    -1360.00
04496             160.00    -1200.00
04497             180.00    -1200.00
04498             160.00    -1040.00
04499             160.00     -960.00
04500             160.00     -800.00
04501             140.00     -720.00
04502             140.00     -560.00
04503             100.00     -560.00
04504             100.00     -320.00
04505             100.00     -320.00
04506              80.00     -160.00
04507             100.00      -80.00
04508              80.00        0.00
04509              80.00      160.00
04510              80.00      240.00
04511             100.00      240.00
04512             140.00      400.00
04513             140.00      480.00
04514             100.00      560.00
04515              60.00      640.00
04516              60.00      800.00
04517              60.00      880.00
04518             280.00     1040.00
04519             820.00     1280.00
04520             620.00     1360.00
04521            -580.00     1360.00
04522           -1780.00     1120.00
04523            -660.00     1520.00
04524            1260.00     1840.00
04525             160.00     1680.00
04526            -860.00     1760.00
04527             540.00     1760.00
04528             460.00     2240.00
04529            -900.00     2160.00
04530             -60.00     1920.00
04531             460.00     2480.00
04532            -340.00     2640.00
04533              20.00     2080.00
04534               0.00     2800.00
04535            -420.00     3040.00
04536              40.00     2400.00
04537            -160.00     2960.00
04538            -220.00     3280.00
04539             160.00     2640.00
04540            -320.00     3440.00
04541            -220.00     3440.00
04542              60.00     2880.00
04543            -280.00     3840.00
04544            -180.00     3600.00
04545            -160.00     3120.00
04546            -160.00     4080.00
04547            -140.00     3680.00
04548            -420.00     3520.00
04549            -140.00     4320.00
04550            -100.00     3920.00
04551            -380.00     3920.00
04552            -100.00     4320.00
04553            -220.00     4240.00
04554            -360.00     4240.00
04555            -180.00     4320.00
04556            -260.00     4640.00
04557            -300.00     4400.00
04558            -260.00     4560.00
04559            -300.00     4800.00
04560            -320.00     4560.00
04561            -320.00     4800.00
04562            -240.00     4960.00
04563            -380.00     4720.00
04564            -360.00     4960.00
04565            -320.00     5040.00
04566            -420.00     4960.00
04567            -340.00     5120.00
04568            -320.00     5200.00
04569            -480.00     5200.00
04570            -420.00     5200.00
04571            -380.00     5360.00
04572            -440.00     5280.00
04573            -460.00     5280.00
04574            -420.00     5520.00
04575            -480.00     5360.00
04576            -520.00     5360.00
04577            -460.00     5520.00
04578            -500.00     5520.00
04579            -560.00     5520.00
04580            -500.00     5600.00
04581            -500.00     5600.00
04582            -580.00     5520.00
04583            -580.00     5680.00
04584            -620.00     5600.00
04585            -620.00     5680.00
04586            -580.00     5680.00
04587            -640.00     5680.00
04588            -660.00     5680.00
04589            -660.00     5680.00
04590            -700.00     5680.00
04591            -740.00     5680.00
04592            -720.00     5680.00
04593            -740.00     5680.00
04594            -800.00     5680.00
04595            -800.00     5680.00
04596            -820.00     5680.00
04597            -880.00     5600.00
04598            -860.00     5680.00
04599            -880.00     5600.00
04600            -880.00     5600.00
04601            -900.00     5600.00
04602            -940.00     5600.00
04603            -940.00     5600.00
04604            -960.00     5520.00
04605            -960.00     5520.00
04606            -960.00     5520.00
04607            -960.00     5440.00
04608            -960.00     5440.00
04609            -980.00     5360.00
04610            -980.00     5360.00
04611            -980.00     5360.00
04612            -980.00     5280.00
04613            -960.00     5280.00
04614            -940.00     5200.00
04615            -960.00     5200.00
04616            -960.00     5040.00
04617            -940.00     5040.00
04618            -900.00     5040.00
04619            -900.00     4960.00
04620            -880.00     4960.00
04621            -860.00     4880.00
04622            -860.00     4800.00
04623            -820.00     4720.00
04624            -820.00     4720.00
04625            -800.00     4560.00
04626            -780.00     4560.00
04627            -740.00     4480.00
04628            -720.00     4400.00
04629            -720.00     4400.00
04630            -720.00     4320.00
04631            -700.00     4240.00
04632            -660.00     4160.00
04633            -640.00     4080.00
04634            -620.00     3920.00
04635            -620.00     3920.00
04636            -580.00     3920.00
04637            -560.00     3760.00
04638            -540.00     3680.00
04639            -500.00     3600.00
04640            -500.00     3440.00
04641            -480.00     3360.00
04642            -480.00     3360.00
04643            -460.00     3280.00
04644            -460.00     3120.00
04645            -420.00     3120.00
04646            -400.00     2960.00
04647            -380.00     2880.00
04648            -380.00     2800.00
04649            -380.00     2640.00
04650            -340.00     2640.00
04651            -320.00     2480.00
04652            -320.00     2480.00
04653            -300.00     2320.00
04654            -300.00     2320.00
04655            -260.00     2160.00
04656            -260.00     2080.00
04657            -260.00     1920.00
04658            -260.00     1840.00
04659            -240.00     1760.00
04660            -220.00     1680.00
04661            -200.00     1520.00
04662            -180.00     1440.00
04663            -180.00     1360.00
04664            -160.00     1200.00
04665            -140.00     1200.00
04666            -160.00     1040.00
04667            -140.00      880.00
04668            -140.00      800.00
04669            -140.00      720.00
04670            -100.00      560.00
04671            -100.00      480.00
04672            -100.00      400.00
04673             -80.00      320.00
04674             -80.00      160.00
04675             -60.00       80.00
04676             -80.00      -80.00
04677             -80.00     -160.00
04678               0.00     -240.00
04679              60.00     -320.00
04680              60.00     -400.00
04681              20.00     -480.00
04682              20.00     -640.00
04683              20.00     -720.00
04684               0.00     -800.00
04685              80.00     -880.00
04686             420.00    -1040.00
04687             780.00    -1280.00
04688             380.00    -1360.00
04689            -640.00    -1440.00
04690           -1440.00    -1360.00
04691            -340.00    -1440.00
04692            1040.00    -1840.00
04693              20.00    -1680.00
04694            -420.00    -1680.00
04695             540.00    -2400.00
04696             400.00    -1840.00
04697            -200.00    -1920.00
04698             100.00    -2640.00
04699             160.00    -2320.00
04700             160.00    -2000.00
04701             340.00    -2960.00
04702             -40.00    -2800.00
04703             -60.00    -2320.00
04704             140.00    -3120.00
04705              60.00    -2960.00
04706             340.00    -2720.00
04707             180.00    -3280.00
04708            -140.00    -3280.00
04709             380.00    -3120.00
04710             320.00    -3360.00
04711             -40.00    -3520.00
04712             240.00    -3440.00
04713             260.00    -3600.00
04714             140.00    -3760.00
04715             260.00    -3760.00
04716             180.00    -3920.00
04717             120.00    -4000.00
04718             380.00    -3920.00
04719             300.00    -4080.00
04720             160.00    -4320.00
04721             300.00    -4240.00
04722             320.00    -4320.00
04723             220.00    -4400.00
04724             320.00    -4480.00
04725             320.00    -4400.00
04726             220.00    -4640.00
04727             320.00    -4720.00
04728             380.00    -4640.00
04729             300.00    -4720.00
04730             340.00    -4880.00
04731             400.00    -4800.00
04732             320.00    -4880.00
04733             380.00    -4960.00
04734             400.00    -4960.00
04735             400.00    -5040.00
04736             400.00    -5200.00
04737             420.00    -5040.00
04738             380.00    -5200.00
04739             420.00    -5280.00
04740             480.00    -5200.00
04741             480.00    -5280.00
04742             480.00    -5360.00
04743             500.00    -5360.00
04744             480.00    -5360.00
04745             480.00    -5520.00
04746             540.00    -5440.00
04747             540.00    -5440.00
04748             540.00    -5600.00
04749             600.00    -5600.00
04750             580.00    -5520.00
04751             560.00    -5600.00
04752             620.00    -5520.00
04753             640.00    -5600.00
04754             640.00    -5680.00
04755             700.00    -5600.00
04756             700.00    -5600.00
04757             700.00    -5680.00
04758             720.00    -5680.00
04759             740.00    -5520.00
04760             780.00    -5680.00
04761             800.00    -5680.00
04762             820.00    -5600.00
04763             820.00    -5680.00
04764             840.00    -5600.00
04765             860.00    -5600.00
04766             880.00    -5600.00
04767             900.00    -5600.00
04768             940.00    -5600.00
04769             940.00    -5520.00
04770             940.00    -5520.00
04771             960.00    -5440.00
04772             960.00    -5440.00
04773             980.00    -5440.00
04774             980.00    -5440.00
04775             980.00    -5360.00
04776             980.00    -5360.00
04777             980.00    -5280.00
04778             960.00    -5280.00
04779             960.00    -5280.00
04780             980.00    -5200.00
04781             980.00    -5200.00
04782             960.00    -5200.00
04783             960.00    -5040.00
04784             940.00    -5040.00
04785             900.00    -4960.00
04786             940.00    -4960.00
04787             900.00    -4880.00
04788             880.00    -4800.00
04789             880.00    -4720.00
04790             840.00    -4720.00
04791             820.00    -4720.00
04792             800.00    -4640.00
04793             800.00    -4560.00
04794             780.00    -4480.00
04795             760.00    -4400.00
04796             740.00    -4320.00
04797             700.00    -4240.00
04798             700.00    -4240.00
04799             660.00    -4080.00
04800             660.00    -4000.00
04801             640.00    -4000.00
04802             620.00    -3920.00
04803             580.00    -3840.00
04804             560.00    -3760.00
04805             560.00    -3600.00
04806             540.00    -3600.00
04807             540.00    -3520.00
04808             500.00    -3440.00
04809             480.00    -3360.00
04810             460.00    -3280.00
04811             440.00    -3120.00
04812             420.00    -3040.00
04813             400.00    -2960.00
04814             400.00    -2880.00
04815             380.00    -2800.00
04816             340.00    -2720.00
04817             340.00    -2640.00
04818             320.00    -2480.00
04819             320.00    -2400.00
04820             320.00    -2320.00
04821             300.00    -2240.00
04822             300.00    -2160.00
04823             260.00    -2000.00
04824             260.00    -1920.00
04825             220.00    -1840.00
04826             220.00    -1760.00
04827             240.00    -1680.00
04828             220.00    -1520.00
04829             220.00    -1440.00
04830             160.00    -1280.00
04831             160.00    -1200.00
04832             180.00    -1120.00
04833             160.00    -1040.00
04834             140.00     -880.00
04835             140.00     -800.00
04836             140.00     -720.00
04837             120.00     -640.00
04838             100.00     -480.00
04839             120.00     -320.00
04840             100.00     -240.00
04841              80.00     -160.00
04842              80.00      -80.00
04843              80.00       80.00
04844              60.00      160.00
04845             100.00      240.00
04846             140.00      320.00
04847             140.00      480.00
04848             120.00      560.00
04849              80.00      640.00
04850              80.00      720.00
04851              80.00      880.00
04852             140.00     1040.00
04853             620.00     1200.00
04854             880.00     1360.00
04855              60.00     1440.00
04856           -1500.00     1200.00
04857           -1540.00     1360.00
04858             520.00     1760.00
04859            1100.00     1840.00
04860            -700.00     1680.00
04861            -140.00     1680.00
04862            1020.00     2080.00
04863            -480.00     2320.00
04864            -660.00     2000.00
04865             460.00     2240.00
04866            -160.00     2720.00
04867            -220.00     2320.00
04868             160.00     2320.00
04869            -320.00     3120.00
04870            -100.00     2640.00
04871              20.00     2560.00
04872            -260.00     3360.00
04873              80.00     2800.00
04874            -100.00     2960.00
04875            -420.00     3680.00
04876               0.00     2960.00
04877            -180.00     3280.00
04878            -300.00     3920.00
04879            -100.00     3120.00
04880            -160.00     3680.00
04881             -60.00     4080.00
04882            -260.00     3360.00
04883            -320.00     4000.00
04884             -20.00     4240.00
04885            -320.00     3760.00
04886            -300.00     4080.00
04887            -160.00     4320.00
04888            -380.00     4240.00
04889            -260.00     4320.00
04890            -160.00     4560.00
04891            -240.00     4480.00
04892            -240.00     4400.00
04893            -260.00     4800.00
04894            -320.00     4640.00
04895            -380.00     4560.00
04896            -300.00     4960.00
04897            -340.00     4800.00
04898            -420.00     4880.00
04899            -300.00     5040.00
04900            -380.00     4960.00
04901            -380.00     5040.00
04902            -260.00     5120.00
04903            -420.00     5120.00
04904            -480.00     5120.00
04905            -400.00     5280.00
04906            -460.00     5360.00
04907            -480.00     5280.00
04908            -400.00     5520.00
04909            -420.00     5440.00
04910            -480.00     5360.00
04911            -460.00     5520.00
04912            -480.00     5520.00
04913            -560.00     5440.00
04914            -540.00     5520.00
04915            -500.00     5680.00
04916            -580.00     5600.00
04917            -580.00     5600.00
04918            -620.00     5600.00
04919            -620.00     5680.00
04920            -580.00     5680.00
04921            -580.00     5760.00
04922            -660.00     5680.00
04923            -660.00     5680.00
04924            -660.00     5760.00
04925            -740.00     5680.00
04926            -740.00     5680.00
04927            -720.00     5840.00
04928            -780.00     5680.00
04929            -800.00     5680.00
04930            -780.00     5680.00
04931            -860.00     5600.00
04932            -860.00     5680.00
04933            -860.00     5600.00
04934            -900.00     5680.00
04935            -900.00     5600.00
04936            -920.00     5680.00
04937            -940.00     5600.00
04938            -960.00     5520.00
04939            -940.00     5520.00
04940            -960.00     5520.00
04941            -960.00     5440.00
04942            -960.00     5520.00
04943            -960.00     5360.00
04944            -980.00     5360.00
04945            -980.00     5360.00
04946            -960.00     5360.00
04947            -960.00     5280.00
04948            -940.00     5200.00
04949            -940.00     5200.00
04950            -960.00     5200.00
04951            -940.00     5040.00
04952            -920.00     5040.00
04953            -900.00     4960.00
04954            -900.00     4960.00
04955            -880.00     4880.00
04956            -880.00     4880.00
04957            -860.00     4800.00
04958            -820.00     4720.00
04959            -800.00     4640.00
04960            -800.00     4560.00
04961            -760.00     4480.00
04962            -740.00     4400.00
04963            -740.00     4400.00
04964            -740.00     4320.00
04965            -700.00     4240.00
04966            -660.00     4160.00
04967            -640.00     4080.00
04968            -620.00     4000.00
04969            -620.00     3920.00
04970            -580.00     3840.00
04971            -560.00     3840.00
04972            -560.00     3680.00
04973            -520.00     3600.00
04974            -500.00     3600.00
04975            -500.00     3440.00
04976            -480.00     3360.00
04977            -460.00     3280.00
04978            -460.00     3280.00
04979            -420.00     3120.00
04980            -400.00     2960.00
04981            -400.00     2960.00
04982            -380.00     2800.00
04983            -380.00     2720.00
04984            -340.00     2640.00
04985            -340.00     2560.00
04986            -320.00     2480.00
04987            -300.00     2400.00
04988            -300.00     2320.00
04989            -280.00     2160.00
04990            -260.00     2080.00
04991            -260.00     2000.00
04992            -240.00     1840.00
04993            -240.00     1760.00
04994            -220.00     1680.00
04995            -180.00     1520.00
04996            -180.00     1440.00
04997            -180.00     1360.00
04998            -180.00     1280.00
04999            -140.00     1200.00
05000            -160.00     1120.00
