Unit:(mV)
                     CH1         CH2
Frequency              ? 299.016 kHz
00001             240.00    -1800.00
00002             780.00    -2200.00
00003             640.00    -2600.00
00004            -180.00    -2800.00
00005            -700.00    -3000.00
00006            -620.00    -2800.00
00007            -640.00    -3000.00
00008            -100.00    -3000.00
00009             460.00    -3800.00
00010            -100.00    -3600.00
00011             140.00    -4000.00
00012             140.00    -4400.00
00013            -100.00    -4200.00
00014             180.00    -4600.00
00015               0.00    -4800.00
00016             100.00    -5000.00
00017             160.00    -5200.00
00018            -100.00    -5400.00
00019             -60.00    -5800.00
00020             -60.00    -5600.00
00021              60.00    -6000.00
00022              20.00    -6200.00
00023              40.00    -6200.00
00024              40.00    -6600.00
00025             -20.00    -6400.00
00026             100.00    -6800.00
00027              20.00    -7000.00
00028              20.00    -7000.00
00029             100.00    -7400.00
00030              20.00    -7200.00
00031               0.00    -7800.00
00032              60.00    -7600.00
00033               0.00    -8200.00
00034              60.00    -8200.00
00035             100.00    -8200.00
00036              20.00    -8600.00
00037              20.00    -8600.00
00038              80.00    -8800.00
00039              60.00    -9000.00
00040              20.00    -9200.00
00041              20.00    -9000.00
00042              40.00    -9200.00
00043              20.00    -9400.00
00044              80.00    -9400.00
00045              60.00    -9800.00
00046              40.00    -9800.00
00047              80.00    -9800.00
00048              60.00   -10000.00
00049              60.00   -10200.00
00050              60.00   -10200.00
00051              80.00   -10200.00
00052              60.00   -10600.00
00053              80.00   -10400.00
00054              60.00   -10600.00
00055              60.00   -10600.00
00056              80.00   -10800.00
00057              80.00   -10800.00
00058              80.00   -10800.00
00059              80.00   -11000.00
00060              80.00   -10800.00
00061              60.00   -11000.00
00062              60.00   -11000.00
00063              80.00   -11000.00
00064              80.00   -11200.00
00065             100.00   -11400.00
00066              80.00   -11400.00
00067              80.00   -11400.00
00068              80.00   -11400.00
00069             100.00   -11400.00
00070             100.00   -11400.00
00071             100.00   -11400.00
00072             100.00   -11400.00
00073              80.00   -11400.00
00074              80.00   -11400.00
00075             100.00   -11400.00
00076              80.00   -11400.00
00077             100.00   -11600.00
00078             100.00   -11400.00
00079             100.00   -11400.00
00080             100.00   -11400.00
00081             100.00   -11400.00
00082             100.00   -11400.00
00083             100.00   -11400.00
00084             140.00   -11000.00
00085             120.00   -11200.00
00086             100.00   -11200.00
00087             100.00   -11000.00
00088             100.00   -11200.00
00089             100.00   -11000.00
00090             120.00   -11000.00
00091             140.00   -11000.00
00092             140.00   -10800.00
00093             100.00   -11000.00
00094             100.00   -10800.00
00095             100.00   -10600.00
00096             120.00   -10600.00
00097             140.00   -10200.00
00098             120.00   -10600.00
00099             120.00   -10200.00
00100             100.00   -10200.00
00101             100.00   -10000.00
00102             120.00    -9800.00
00103             140.00    -9800.00
00104             120.00    -9800.00
00105             120.00    -9600.00
00106             100.00    -9600.00
00107             100.00    -9600.00
00108             100.00    -9200.00
00109             100.00    -9200.00
00110             120.00    -9000.00
00111             100.00    -9000.00
00112             100.00    -8800.00
00113             100.00    -8600.00
00114             100.00    -8600.00
00115             100.00    -8400.00
00116             100.00    -8200.00
00117             100.00    -8200.00
00118             100.00    -7800.00
00119             100.00    -7600.00
00120             100.00    -7600.00
00121             100.00    -7200.00
00122             100.00    -7400.00
00123             100.00    -7200.00
00124             100.00    -6800.00
00125             100.00    -6800.00
00126              80.00    -6600.00
00127              80.00    -6600.00
00128              80.00    -6200.00
00129             100.00    -6200.00
00130             100.00    -6000.00
00131              80.00    -5800.00
00132              80.00    -5400.00
00133              80.00    -5200.00
00134              80.00    -5200.00
00135              80.00    -5000.00
00136              80.00    -4800.00
00137              80.00    -4600.00
00138             100.00    -4200.00
00139              80.00    -4200.00
00140              80.00    -3800.00
00141              80.00    -3800.00
00142              80.00    -3400.00
00143             100.00    -3400.00
00144              80.00    -3200.00
00145              80.00    -2800.00
00146              80.00    -2800.00
00147              80.00    -2600.00
00148              60.00    -2200.00
00149              80.00    -2000.00
00150              80.00    -1800.00
00151              80.00    -1800.00
00152              80.00    -1600.00
00153              60.00    -1200.00
00154              60.00     -800.00
00155              60.00     -800.00
00156              60.00     -600.00
00157              60.00     -400.00
00158              60.00     -200.00
00159              60.00        0.00
00160              60.00      200.00
00161             140.00      600.00
00162             180.00      600.00
00163             180.00     1000.00
00164             160.00     1000.00
00165             140.00     1200.00
00166             120.00     1400.00
00167             160.00     1600.00
00168             540.00     1800.00
00169            1100.00     2200.00
00170             560.00     2400.00
00171            -480.00     2600.00
00172            -820.00     2600.00
00173            -820.00     3000.00
00174            -240.00     3400.00
00175             740.00     3400.00
00176               0.00     3400.00
00177            -100.00     4000.00
00178             300.00     3600.00
00179            -220.00     4400.00
00180              60.00     4600.00
00181              60.00     4200.00
00182             100.00     5200.00
00183             220.00     4600.00
00184            -140.00     5200.00
00185               0.00     5600.00
00186            -100.00     5400.00
00187               0.00     6000.00
00188             120.00     5800.00
00189             -60.00     6200.00
00190              80.00     6400.00
00191             -40.00     6200.00
00192               0.00     6800.00
00193               0.00     6400.00
00194              20.00     7200.00
00195               0.00     7200.00
00196             -60.00     7200.00
00197              60.00     7600.00
00198             -80.00     7600.00
00199             -40.00     7800.00
00200               0.00     7800.00
00201              60.00     8200.00
00202             -20.00     8200.00
00203               0.00     8400.00
00204             -20.00     8600.00
00205             -80.00     8600.00
00206               0.00     9000.00
00207             -20.00     9000.00
00208             -60.00     9200.00
00209             -60.00     9400.00
00210             -20.00     9400.00
00211             -60.00     9400.00
00212               0.00     9600.00
00213             -20.00     9800.00
00214             -80.00     9800.00
00215             -60.00    10000.00
00216             -20.00    10200.00
00217             -60.00    10200.00
00218             -60.00    10200.00
00219             -60.00    10400.00
00220            -100.00    10600.00
00221             -60.00    10600.00
00222             -20.00    10600.00
00223             -60.00    10600.00
00224             -60.00    10600.00
00225             -60.00    10800.00
00226             -80.00    11000.00
00227            -100.00    11000.00
00228             -80.00    11200.00
00229             -80.00    11000.00
00230             -60.00    11200.00
00231             -60.00    11200.00
00232             -60.00    11200.00
00233            -100.00    11200.00
00234             -80.00    11400.00
00235            -100.00    11400.00
00236             -80.00    11400.00
00237             -80.00    11400.00
00238             -80.00    11400.00
00239            -100.00    11400.00
00240            -100.00    11600.00
00241            -100.00    11400.00
00242            -100.00    11200.00
00243            -100.00    11400.00
00244            -100.00    11400.00
00245            -100.00    11400.00
00246            -100.00    11400.00
00247            -100.00    11400.00
00248            -120.00    11400.00
00249            -100.00    11400.00
00250            -100.00    11400.00
00251            -100.00    11200.00
00252            -100.00    11200.00
00253            -100.00    11000.00
00254            -100.00    11000.00
00255            -100.00    11000.00
00256            -120.00    11000.00
00257            -100.00    11000.00
00258            -100.00    11000.00
00259            -100.00    11000.00
00260            -100.00    10800.00
00261            -120.00    10800.00
00262            -100.00    10600.00
00263            -100.00    10600.00
00264            -100.00    10600.00
00265            -100.00    10400.00
00266            -100.00    10200.00
00267            -100.00    10200.00
00268            -120.00    10200.00
00269            -100.00    10200.00
00270            -100.00    10000.00
00271            -100.00     9800.00
00272            -100.00     9800.00
00273            -100.00     9600.00
00274            -100.00     9400.00
00275            -120.00     9400.00
00276            -100.00     9200.00
00277            -100.00     9200.00
00278            -100.00     9000.00
00279            -100.00     9000.00
00280            -100.00     8600.00
00281            -100.00     8400.00
00282            -100.00     8400.00
00283            -100.00     8400.00
00284            -100.00     8200.00
00285            -100.00     8000.00
00286            -100.00     7800.00
00287            -100.00     7600.00
00288            -100.00     7400.00
00289            -100.00     7400.00
00290            -100.00     7000.00
00291            -100.00     7000.00
00292            -100.00     6800.00
00293            -100.00     6600.00
00294            -100.00     6600.00
00295            -100.00     6400.00
00296            -100.00     6000.00
00297             -80.00     5800.00
00298            -100.00     5800.00
00299            -100.00     5600.00
00300            -100.00     5400.00
00301            -100.00     5000.00
00302            -100.00     5000.00
00303            -100.00     4600.00
00304            -100.00     4600.00
00305            -100.00     4400.00
00306            -100.00     4200.00
00307            -100.00     4000.00
00308            -100.00     3600.00
00309             -80.00     3600.00
00310            -100.00     3400.00
00311             -80.00     3000.00
00312             -80.00     3000.00
00313             -80.00     2800.00
00314            -100.00     2400.00
00315            -100.00     2200.00
00316             -80.00     2000.00
00317             -80.00     1800.00
00318             -80.00     1600.00
00319             -80.00     1400.00
00320             -80.00     1200.00
00321             -80.00     1000.00
00322             -60.00      800.00
00323             -80.00      600.00
00324             -60.00      400.00
00325             -60.00      200.00
00326             -80.00     -200.00
00327             -20.00     -200.00
00328               0.00     -400.00
00329              80.00     -600.00
00330              80.00     -800.00
00331              60.00    -1000.00
00332              20.00    -1200.00
00333               0.00    -1400.00
00334              20.00    -1600.00
00335             140.00    -1800.00
00336             540.00    -2200.00
00337             860.00    -2600.00
00338             180.00    -2600.00
00339            -560.00    -2800.00
00340            -660.00    -3000.00
00341            -620.00    -3000.00
00342            -440.00    -3000.00
00343             380.00    -3600.00
00344             140.00    -3800.00
00345             -80.00    -3600.00
00346             260.00    -4400.00
00347            -100.00    -4200.00
00348              80.00    -4400.00
00349             120.00    -5000.00
00350               0.00    -4600.00
00351             220.00    -5200.00
00352               0.00    -5200.00
00353             -80.00    -5600.00
00354             -60.00    -5600.00
00355               0.00    -5800.00
00356              60.00    -6200.00
00357               0.00    -5800.00
00358              80.00    -6600.00
00359             -20.00    -6600.00
00360              80.00    -6600.00
00361              80.00    -7000.00
00362               0.00    -7000.00
00363              80.00    -7200.00
00364              60.00    -7400.00
00365               0.00    -7600.00
00366              40.00    -7800.00
00367              20.00    -7800.00
00368              20.00    -8200.00
00369              80.00    -8200.00
00370              80.00    -8400.00
00371              20.00    -8600.00
00372              60.00    -8600.00
00373              60.00    -8800.00
00374              20.00    -9000.00
00375              40.00    -9200.00
00376              60.00    -9200.00
00377              20.00    -9400.00
00378              60.00    -9600.00
00379              80.00    -9600.00
00380              60.00    -9800.00
00381              80.00    -9800.00
00382              60.00    -9800.00
00383              60.00   -10000.00
00384              60.00   -10200.00
00385              80.00   -10200.00
00386              60.00   -10400.00
00387              60.00   -10400.00
00388              60.00   -10600.00
00389              60.00   -10600.00
00390              80.00   -10800.00
00391             100.00   -10800.00
00392              80.00   -10800.00
00393              80.00   -11000.00
00394              80.00   -11000.00
00395              60.00   -11000.00
00396              80.00   -11200.00
00397              80.00   -11200.00
00398              80.00   -11200.00
00399             100.00   -11000.00
00400             100.00   -11400.00
00401              80.00   -11000.00
00402              80.00   -11400.00
00403              80.00   -11200.00
00404             100.00   -11400.00
00405             100.00   -11400.00
00406             100.00   -11400.00
00407              80.00   -11400.00
00408              80.00   -11400.00
00409              80.00   -11400.00
00410             100.00   -11400.00
00411             100.00   -11400.00
00412             120.00   -11400.00
00413             120.00   -11400.00
00414             100.00   -11400.00
00415              80.00   -11200.00
00416             100.00   -11400.00
00417             120.00   -11400.00
00418             120.00   -11400.00
00419             120.00   -11200.00
00420             100.00   -11400.00
00421             100.00   -11200.00
00422             100.00   -11000.00
00423             100.00   -11000.00
00424             100.00   -11200.00
00425             140.00   -11000.00
00426             140.00   -10800.00
00427             120.00   -10800.00
00428             100.00   -10800.00
00429             100.00   -10800.00
00430             100.00   -10600.00
00431             140.00   -10600.00
00432             140.00   -10600.00
00433             100.00   -10400.00
00434             100.00   -10200.00
00435              80.00   -10200.00
00436             100.00   -10000.00
00437             100.00   -10000.00
00438             120.00   -10000.00
00439             100.00    -9800.00
00440             100.00    -9600.00
00441             100.00    -9400.00
00442             100.00    -9400.00
00443             100.00    -9200.00
00444             100.00    -9200.00
00445             100.00    -9000.00
00446             100.00    -9000.00
00447              80.00    -8600.00
00448              80.00    -8600.00
00449             100.00    -8400.00
00450             100.00    -8400.00
00451             140.00    -8200.00
00452             100.00    -8200.00
00453              80.00    -7800.00
00454              80.00    -7600.00
00455             100.00    -7600.00
00456             100.00    -7200.00
00457             100.00    -7000.00
00458             100.00    -7000.00
00459             100.00    -6800.00
00460              80.00    -6800.00
00461              80.00    -6400.00
00462             100.00    -6200.00
00463             100.00    -6200.00
00464              80.00    -6000.00
00465             100.00    -5800.00
00466              80.00    -5400.00
00467              80.00    -5400.00
00468              80.00    -5200.00
00469              80.00    -5000.00
00470              80.00    -4800.00
00471             100.00    -4600.00
00472              80.00    -4400.00
00473              80.00    -4200.00
00474              80.00    -4000.00
00475              80.00    -3600.00
00476              80.00    -3400.00
00477              80.00    -3400.00
00478              80.00    -3000.00
00479              80.00    -3000.00
00480              80.00    -2600.00
00481              80.00    -2600.00
00482              60.00    -2200.00
00483              80.00    -2000.00
00484              80.00    -2000.00
00485              80.00    -1800.00
00486              80.00    -1400.00
00487              60.00    -1400.00
00488              60.00    -1000.00
00489              60.00     -800.00
00490              80.00     -600.00
00491              80.00     -600.00
00492              60.00     -200.00
00493              60.00      200.00
00494              80.00      200.00
00495              80.00      400.00
00496             160.00      600.00
00497             180.00      800.00
00498             160.00     1000.00
00499             140.00     1200.00
00500             140.00     1400.00
00501             120.00     1400.00
00502             300.00     1800.00
00503             900.00     2200.00
00504             920.00     2200.00
00505             -80.00     2400.00
00506            -800.00     2600.00
00507            -800.00     2800.00
00508            -660.00     3200.00
00509             460.00     3400.00
00510             480.00     3400.00
00511            -280.00     3600.00
00512             240.00     3800.00
00513             -20.00     4000.00
00514            -140.00     4600.00
00515             180.00     4200.00
00516               0.00     5000.00
00517             260.00     5000.00
00518             -20.00     4600.00
00519             -80.00     5800.00
00520             -20.00     5200.00
00521            -120.00     5600.00
00522             160.00     6000.00
00523             -20.00     5800.00
00524              20.00     6400.00
00525              60.00     6200.00
00526             -60.00     6600.00
00527              20.00     6600.00
00528             -20.00     6800.00
00529              60.00     7400.00
00530             -60.00     7000.00
00531              60.00     7800.00
00532             -20.00     7600.00
00533             -80.00     7800.00
00534               0.00     7800.00
00535              60.00     8200.00
00536               0.00     8200.00
00537             -60.00     8200.00
00538              20.00     9000.00
00539             -80.00     8400.00
00540               0.00     9000.00
00541               0.00     9000.00
00542             -20.00     9200.00
00543             -60.00     9200.00
00544             -20.00     9400.00
00545             -20.00     9600.00
00546             -20.00     9400.00
00547               0.00     9800.00
00548             -60.00    10000.00
00549             -80.00    10000.00
00550             -20.00    10200.00
00551             -60.00    10200.00
00552             -60.00    10200.00
00553             -20.00    10600.00
00554             -80.00    10400.00
00555            -100.00    10600.00
00556             -20.00    10600.00
00557             -60.00    10600.00
00558             -40.00    10800.00
00559             -60.00    10800.00
00560             -80.00    11000.00
00561            -100.00    10800.00
00562             -80.00    11000.00
00563             -80.00    11000.00
00564            -100.00    11000.00
00565             -80.00    11400.00
00566             -60.00    11200.00
00567            -100.00    11200.00
00568            -100.00    11400.00
00569             -80.00    11400.00
00570             -80.00    11400.00
00571             -80.00    11400.00
00572            -100.00    11600.00
00573            -100.00    11600.00
00574            -100.00    11600.00
00575            -100.00    11400.00
00576            -100.00    11600.00
00577            -100.00    11400.00
00578             -80.00    11600.00
00579            -100.00    11400.00
00580            -100.00    11600.00
00581            -100.00    11400.00
00582            -140.00    11400.00
00583            -100.00    11400.00
00584            -100.00    11400.00
00585             -80.00    11400.00
00586            -100.00    11400.00
00587            -100.00    11400.00
00588            -100.00    11000.00
00589            -100.00    11000.00
00590            -100.00    11000.00
00591            -100.00    11000.00
00592            -100.00    11000.00
00593             -80.00    11000.00
00594            -100.00    11000.00
00595            -100.00    10800.00
00596            -100.00    10600.00
00597            -100.00    10600.00
00598            -100.00    10600.00
00599            -100.00    10400.00
00600            -100.00    10200.00
00601            -100.00    10400.00
00602            -100.00    10200.00
00603            -100.00    10200.00
00604            -100.00    10000.00
00605            -100.00    10000.00
00606            -100.00     9800.00
00607            -100.00     9800.00
00608            -100.00     9600.00
00609            -120.00     9400.00
00610            -100.00     9400.00
00611            -100.00     9200.00
00612            -100.00     9000.00
00613            -100.00     9000.00
00614            -100.00     8600.00
00615            -100.00     8600.00
00616            -100.00     8400.00
00617            -100.00     8400.00
00618            -100.00     8200.00
00619            -100.00     8000.00
00620            -100.00     7800.00
00621            -100.00     7800.00
00622            -100.00     7600.00
00623            -100.00     7400.00
00624            -100.00     7000.00
00625            -100.00     7000.00
00626            -100.00     6800.00
00627            -100.00     6600.00
00628            -100.00     6600.00
00629            -100.00     6200.00
00630            -100.00     6200.00
00631            -100.00     6000.00
00632            -100.00     5800.00
00633            -100.00     5600.00
00634            -100.00     5400.00
00635            -100.00     5200.00
00636            -100.00     5200.00
00637            -100.00     4800.00
00638            -100.00     4600.00
00639            -100.00     4600.00
00640            -100.00     4400.00
00641            -100.00     4200.00
00642            -100.00     3800.00
00643            -100.00     3600.00
00644             -80.00     3600.00
00645             -80.00     3400.00
00646             -80.00     3000.00
00647            -100.00     2800.00
00648            -100.00     2600.00
00649            -100.00     2400.00
00650             -80.00     2200.00
00651             -80.00     2000.00
00652             -80.00     1800.00
00653             -80.00     1400.00
00654             -60.00     1400.00
00655             -60.00     1000.00
00656             -80.00     1000.00
00657             -60.00      600.00
00658             -60.00      400.00
00659             -60.00      400.00
00660             -60.00      200.00
00661             -60.00     -400.00
00662             -20.00     -400.00
00663              60.00     -400.00
00664              80.00     -600.00
00665              80.00     -800.00
00666              20.00    -1200.00
00667              20.00    -1200.00
00668              20.00    -1400.00
00669              80.00    -1600.00
00670             320.00    -1800.00
00671             820.00    -2200.00
00672             560.00    -2600.00
00673            -300.00    -2800.00
00674            -700.00    -3000.00
00675            -600.00    -3000.00
00676            -620.00    -3000.00
00677              20.00    -3200.00
00678             400.00    -3800.00
00679            -140.00    -3400.00
00680             180.00    -4200.00
00681              80.00    -4400.00
00682             -80.00    -4000.00
00683             180.00    -4800.00
00684             -20.00    -4600.00
00685             160.00    -5000.00
00686             140.00    -5200.00
00687            -100.00    -5400.00
00688             -60.00    -5800.00
00689             -20.00    -5400.00
00690              60.00    -6200.00
00691               0.00    -6000.00
00692              60.00    -6000.00
00693               0.00    -6600.00
00694               0.00    -6400.00
00695             100.00    -7000.00
00696             -20.00    -7000.00
00697              60.00    -7200.00
00698              60.00    -7400.00
00699               0.00    -7400.00
00700              20.00    -7800.00
00701              20.00    -7800.00
00702               0.00    -8200.00
00703              60.00    -8200.00
00704             100.00    -8400.00
00705              20.00    -8600.00
00706              20.00    -8600.00
00707              60.00    -8800.00
00708              60.00    -9000.00
00709              20.00    -9000.00
00710              60.00    -9400.00
00711              20.00    -9400.00
00712              40.00    -9400.00
00713              80.00    -9400.00
00714              60.00    -9800.00
00715              60.00    -9800.00
00716              60.00    -9800.00
00717              40.00   -10000.00
00718              60.00   -10200.00
00719              80.00   -10000.00
00720              60.00   -10200.00
00721              60.00   -10400.00
00722              60.00   -10200.00
00723              40.00   -10600.00
00724              80.00   -10600.00
00725             100.00   -10600.00
00726             100.00   -10800.00
00727             100.00   -11000.00
00728              80.00   -10800.00
00729              80.00   -11000.00
00730              60.00   -11200.00
00731              80.00   -11000.00
00732             100.00   -11200.00
00733              80.00   -11400.00
00734             100.00   -11200.00
00735             100.00   -11200.00
00736              80.00   -11400.00
00737              80.00   -11400.00
00738             100.00   -11400.00
00739             100.00   -11400.00
00740             100.00   -11400.00
00741             100.00   -11400.00
00742              80.00   -11400.00
00743              80.00   -11400.00
00744             100.00   -11400.00
00745             100.00   -11400.00
00746             100.00   -11600.00
00747             100.00   -11400.00
00748             100.00   -11400.00
00749             100.00   -11400.00
00750             100.00   -11400.00
00751             120.00   -11400.00
00752             100.00   -11200.00
00753             100.00   -11400.00
00754             100.00   -11200.00
00755             100.00   -11200.00
00756             100.00   -11200.00
00757             100.00   -11000.00
00758             120.00   -11000.00
00759             100.00   -10800.00
00760             140.00   -11000.00
00761             100.00   -10800.00
00762             100.00   -11000.00
00763             100.00   -10800.00
00764             100.00   -10600.00
00765             100.00   -10600.00
00766             140.00   -10600.00
00767             100.00   -10600.00
00768             120.00   -10200.00
00769             100.00   -10200.00
00770             100.00   -10000.00
00771             100.00   -10000.00
00772             140.00   -10000.00
00773             100.00    -9800.00
00774             100.00    -9600.00
00775             100.00    -9400.00
00776             100.00    -9400.00
00777             100.00    -9400.00
00778             100.00    -9200.00
00779             100.00    -9200.00
00780             140.00    -9000.00
00781             100.00    -8800.00
00782              80.00    -8600.00
00783             100.00    -8400.00
00784             100.00    -8400.00
00785             100.00    -8400.00
00786             100.00    -8200.00
00787             100.00    -7800.00
00788              80.00    -7600.00
00789             100.00    -7600.00
00790             100.00    -7600.00
00791             100.00    -7200.00
00792             100.00    -7000.00
00793             100.00    -7000.00
00794             100.00    -6800.00
00795              80.00    -6600.00
00796              80.00    -6400.00
00797              80.00    -6200.00
00798             100.00    -6000.00
00799             100.00    -5800.00
00800             100.00    -5800.00
00801              80.00    -5400.00
00802              80.00    -5400.00
00803              80.00    -5200.00
00804              80.00    -4800.00
00805             100.00    -4600.00
00806              80.00    -4600.00
00807              80.00    -4400.00
00808              80.00    -4200.00
00809              80.00    -3800.00
00810              60.00    -3600.00
00811              80.00    -3600.00
00812              80.00    -3400.00
00813              80.00    -3000.00
00814              80.00    -2800.00
00815              80.00    -2600.00
00816              60.00    -2400.00
00817              80.00    -2200.00
00818              80.00    -2000.00
00819              60.00    -2000.00
00820              60.00    -1800.00
00821              60.00    -1400.00
00822              60.00    -1200.00
00823              60.00    -1000.00
00824              60.00     -800.00
00825              60.00     -600.00
00826              60.00     -400.00
00827              60.00     -200.00
00828              40.00      200.00
00829              80.00      200.00
00830             140.00      400.00
00831             160.00      600.00
00832             160.00      800.00
00833             160.00     1000.00
00834             140.00     1200.00
00835             100.00     1400.00
00836             180.00     1800.00
00837             620.00     2000.00
00838            1100.00     2200.00
00839             380.00     2200.00
00840            -580.00     2600.00
00841            -820.00     2600.00
00842            -820.00     3000.00
00843             -80.00     3400.00
00844             740.00     3400.00
00845            -120.00     3600.00
00846             -20.00     3800.00
00847             240.00     3600.00
00848            -240.00     4600.00
00849             100.00     4600.00
00850              40.00     4200.00
00851             140.00     5200.00
00852             180.00     4600.00
00853            -160.00     5200.00
00854              20.00     5600.00
00855            -120.00     5200.00
00856              60.00     6000.00
00857              80.00     5800.00
00858             -40.00     6200.00
00859              80.00     6200.00
00860             -60.00     6400.00
00861              40.00     6800.00
00862             -20.00     6600.00
00863              60.00     7200.00
00864               0.00     7000.00
00865             -20.00     7400.00
00866              20.00     7600.00
00867             -80.00     7400.00
00868             -20.00     8000.00
00869               0.00     7800.00
00870              60.00     8200.00
00871             -60.00     8200.00
00872               0.00     8600.00
00873             -20.00     8600.00
00874             -60.00     8600.00
00875              20.00     9000.00
00876             -20.00     9000.00
00877             -60.00     9200.00
00878             -60.00     9400.00
00879             -20.00     9600.00
00880             -20.00     9400.00
00881               0.00     9800.00
00882             -40.00     9800.00
00883             -80.00     9800.00
00884             -40.00    10000.00
00885             -40.00    10200.00
00886             -60.00    10200.00
00887             -40.00    10200.00
00888             -80.00    10400.00
00889            -100.00    10400.00
00890             -60.00    10600.00
00891             -20.00    10600.00
00892             -60.00    10600.00
00893             -80.00    10800.00
00894             -80.00    10800.00
00895            -100.00    10800.00
00896            -100.00    10800.00
00897             -80.00    11200.00
00898             -80.00    11000.00
00899             -80.00    11000.00
00900             -60.00    11200.00
00901             -80.00    11200.00
00902            -100.00    11200.00
00903            -100.00    11400.00
00904            -100.00    11400.00
00905             -80.00    11400.00
00906             -80.00    11400.00
00907            -100.00    11400.00
00908            -100.00    11400.00
00909            -100.00    11600.00
00910            -100.00    11400.00
00911            -100.00    11400.00
00912             -80.00    11400.00
00913            -100.00    11600.00
00914            -100.00    11600.00
00915            -100.00    11400.00
00916            -100.00    11400.00
00917            -100.00    11400.00
00918            -100.00    11400.00
00919            -100.00    11400.00
00920            -100.00    11400.00
00921            -100.00    11400.00
00922            -100.00    11400.00
00923            -100.00    11200.00
00924            -100.00    11200.00
00925            -100.00    11000.00
00926            -100.00    11000.00
00927            -100.00    11000.00
00928            -100.00    11000.00
00929            -100.00    10800.00
00930            -100.00    10800.00
00931            -120.00    10600.00
00932            -100.00    10600.00
00933            -100.00    10600.00
00934            -100.00    10600.00
00935            -140.00    10200.00
00936            -100.00    10200.00
00937            -100.00    10200.00
00938            -100.00    10000.00
00939            -100.00    10000.00
00940            -100.00    10000.00
00941            -100.00     9800.00
00942            -100.00     9400.00
00943            -120.00     9400.00
00944            -100.00     9400.00
00945            -100.00     9200.00
00946            -100.00     9200.00
00947            -100.00     9000.00
00948            -120.00     8600.00
00949            -140.00     8600.00
00950            -100.00     8400.00
00951            -100.00     8400.00
00952            -100.00     8200.00
00953            -100.00     8200.00
00954            -100.00     7800.00
00955            -140.00     7800.00
00956            -120.00     7600.00
00957            -100.00     7400.00
00958            -100.00     7200.00
00959            -100.00     7000.00
00960            -100.00     7000.00
00961            -100.00     6600.00
00962            -100.00     6600.00
00963            -120.00     6600.00
00964            -100.00     6200.00
00965            -100.00     6000.00
00966            -100.00     5800.00
00967            -100.00     5800.00
00968            -100.00     5400.00
00969            -100.00     5400.00
00970            -100.00     5000.00
00971            -100.00     5000.00
00972            -100.00     4600.00
00973            -100.00     4600.00
00974            -100.00     4200.00
00975            -100.00     4200.00
00976            -100.00     4000.00
00977             -80.00     3800.00
00978            -100.00     3600.00
00979             -80.00     3200.00
00980             -80.00     3000.00
00981             -80.00     3000.00
00982            -100.00     2600.00
00983             -80.00     2600.00
00984             -80.00     2200.00
00985             -60.00     2000.00
00986             -80.00     2000.00
00987             -60.00     1800.00
00988             -80.00     1400.00
00989             -80.00     1200.00
00990             -80.00     1000.00
00991             -60.00      800.00
00992             -60.00      600.00
00993             -60.00      400.00
00994             -40.00      200.00
00995             -60.00        0.00
00996             -20.00     -400.00
00997              20.00     -600.00
00998              80.00     -600.00
00999              80.00     -800.00
01000              20.00     -800.00
01001              40.00    -1200.00
01002              20.00    -1400.00
01003              60.00    -1600.00
01004             180.00    -1800.00
01005             640.00    -2200.00
01006             800.00    -2400.00
01007              80.00    -2600.00
01008            -620.00    -3000.00
01009            -620.00    -3000.00
01010            -640.00    -3000.00
01011            -340.00    -2800.00
01012             420.00    -3600.00
01013              20.00    -3600.00
01014             -20.00    -3600.00
01015             240.00    -4600.00
01016            -140.00    -4000.00
01017             140.00    -4400.00
01018              60.00    -5000.00
01019              20.00    -4800.00
01020             220.00    -5200.00
01021             -60.00    -5200.00
01022             -80.00    -5800.00
01023             -40.00    -5400.00
01024               0.00    -6000.00
01025              20.00    -6200.00
01026              20.00    -5800.00
01027              60.00    -6800.00
01028             -20.00    -6400.00
01029              80.00    -6600.00
01030              60.00    -7000.00
01031               0.00    -6800.00
01032              80.00    -7200.00
01033               0.00    -7400.00
01034               0.00    -7600.00
01035              40.00    -7600.00
01036              20.00    -8000.00
01037              20.00    -8200.00
01038              80.00    -8200.00
01039              60.00    -8600.00
01040               0.00    -8600.00
01041              80.00    -8600.00
01042              60.00    -8800.00
01043              20.00    -9000.00
01044              40.00    -9200.00
01045              60.00    -9200.00
01046              20.00    -9400.00
01047              80.00    -9400.00
01048              80.00    -9600.00
01049              60.00    -9800.00
01050              60.00    -9800.00
01051              60.00   -10000.00
01052              60.00   -10000.00
01053              60.00   -10200.00
01054              80.00   -10200.00
01055              60.00   -10400.00
01056              60.00   -10600.00
01057              60.00   -10600.00
01058              60.00   -10600.00
01059              80.00   -10600.00
01060             100.00   -10600.00
01061              80.00   -10800.00
01062              80.00   -11000.00
01063              80.00   -11000.00
01064              60.00   -11000.00
01065              80.00   -11000.00
01066             100.00   -11000.00
01067             100.00   -11200.00
01068             100.00   -11400.00
01069              80.00   -11200.00
01070              80.00   -11400.00
01071              80.00   -11400.00
01072             100.00   -11400.00
01073             100.00   -11400.00
01074             100.00   -11400.00
01075             100.00   -11400.00
01076             100.00   -11400.00
01077              80.00   -11400.00
01078             100.00   -11400.00
01079             100.00   -11400.00
01080             120.00   -11400.00
01081             100.00   -11400.00
01082             100.00   -11400.00
01083             100.00   -11400.00
01084              80.00   -11400.00
01085             100.00   -11400.00
01086             100.00   -11400.00
01087             120.00   -11400.00
01088             100.00   -11400.00
01089              80.00   -11200.00
01090             100.00   -11400.00
01091             100.00   -11200.00
01092             100.00   -11000.00
01093             100.00   -11000.00
01094             120.00   -11000.00
01095             100.00   -10800.00
01096             100.00   -10800.00
01097             100.00   -10800.00
01098             120.00   -10800.00
01099             100.00   -10600.00
01100             120.00   -10600.00
01101             100.00   -10600.00
01102             140.00   -10600.00
01103             100.00   -10400.00
01104             100.00   -10200.00
01105             100.00   -10000.00
01106             100.00   -10000.00
01107             100.00   -10000.00
01108             100.00    -9800.00
01109             100.00    -9800.00
01110             100.00    -9400.00
01111             100.00    -9400.00
01112             100.00    -9200.00
01113             120.00    -9200.00
01114             140.00    -9000.00
01115             100.00    -8800.00
01116             100.00    -8600.00
01117             100.00    -8600.00
01118             120.00    -8600.00
01119             100.00    -8400.00
01120             100.00    -8200.00
01121              80.00    -8200.00
01122             100.00    -7800.00
01123             100.00    -7600.00
01124             100.00    -7400.00
01125             100.00    -7200.00
01126             100.00    -7000.00
01127             100.00    -7000.00
01128             100.00    -6800.00
01129             100.00    -6600.00
01130             100.00    -6600.00
01131             100.00    -6200.00
01132             100.00    -6000.00
01133             100.00    -6000.00
01134              80.00    -5800.00
01135             100.00    -5400.00
01136             100.00    -5400.00
01137              80.00    -5200.00
01138              80.00    -5000.00
01139             100.00    -4800.00
01140              80.00    -4600.00
01141             100.00    -4400.00
01142              80.00    -4200.00
01143              80.00    -4000.00
01144              60.00    -3800.00
01145              80.00    -3600.00
01146              80.00    -3400.00
01147              80.00    -3400.00
01148              80.00    -3000.00
01149              80.00    -2800.00
01150              80.00    -2600.00
01151              80.00    -2400.00
01152              60.00    -2200.00
01153              80.00    -2000.00
01154              60.00    -1800.00
01155              60.00    -1600.00
01156              60.00    -1200.00
01157              60.00    -1000.00
01158              60.00     -800.00
01159              60.00     -600.00
01160              60.00     -400.00
01161              60.00     -200.00
01162              60.00        0.00
01163              60.00      200.00
01164              80.00      400.00
01165             160.00      600.00
01166             180.00      800.00
01167             160.00     1000.00
01168             140.00     1200.00
01169             100.00     1400.00
01170             140.00     1400.00
01171             340.00     2000.00
01172             980.00     2200.00
01173             820.00     2200.00
01174            -220.00     2600.00
01175            -820.00     2600.00
01176            -800.00     2800.00
01177            -560.00     3200.00
01178             600.00     3400.00
01179             320.00     3400.00
01180            -260.00     3800.00
01181             300.00     3800.00
01182             -80.00     4200.00
01183             -80.00     4600.00
01184             160.00     4000.00
01185              20.00     5000.00
01186             280.00     5000.00
01187             -80.00     4600.00
01188             -60.00     5800.00
01189             -20.00     5200.00
01190            -100.00     5800.00
01191             160.00     6000.00
01192             -60.00     6000.00
01193              60.00     6400.00
01194              20.00     6200.00
01195             -20.00     6800.00
01196              20.00     6400.00
01197             -20.00     7000.00
01198              40.00     7200.00
01199             -60.00     7000.00
01200              60.00     7800.00
01201             -20.00     7400.00
01202             -60.00     7800.00
01203               0.00     8000.00
01204              60.00     8200.00
01205               0.00     8200.00
01206             -20.00     8200.00
01207               0.00     8600.00
01208            -100.00     8600.00
01209               0.00     9000.00
01210             -20.00     9000.00
01211             -20.00     9000.00
01212             -60.00     9200.00
01213             -60.00     9400.00
01214             -40.00     9400.00
01215             -40.00     9600.00
01216             -20.00     9800.00
01217             -80.00     9800.00
01218             -80.00     9800.00
01219             -60.00    10000.00
01220             -60.00    10200.00
01221             -60.00    10200.00
01222             -60.00    10200.00
01223            -100.00    10400.00
01224            -100.00    10600.00
01225             -40.00    10400.00
01226             -60.00    10600.00
01227             -80.00    10800.00
01228             -60.00    10800.00
01229             -80.00    11000.00
01230            -100.00    10800.00
01231            -100.00    11000.00
01232             -80.00    11000.00
01233            -100.00    11000.00
01234             -60.00    11200.00
01235             -80.00    11400.00
01236            -100.00    11400.00
01237            -100.00    11200.00
01238            -100.00    11400.00
01239            -100.00    11400.00
01240             -80.00    11400.00
01241            -100.00    11400.00
01242            -100.00    11600.00
01243            -100.00    11400.00
01244            -100.00    11600.00
01245            -100.00    11600.00
01246             -80.00    11600.00
01247             -80.00    11400.00
01248            -100.00    11400.00
01249            -100.00    11600.00
01250            -100.00    11400.00
01251            -140.00    11400.00
01252            -100.00    11400.00
01253            -100.00    11400.00
01254            -100.00    11400.00
01255            -100.00    11400.00
01256            -100.00    11200.00
01257            -100.00    11400.00
01258            -100.00    11200.00
01259            -100.00    11000.00
01260            -100.00    11000.00
01261            -100.00    11000.00
01262            -100.00    11000.00
01263            -100.00    10800.00
01264            -120.00    10800.00
01265            -100.00    10800.00
01266            -100.00    10600.00
01267            -100.00    10600.00
01268            -100.00    10600.00
01269            -100.00    10200.00
01270            -100.00    10200.00
01271            -120.00    10200.00
01272            -100.00    10000.00
01273            -100.00    10000.00
01274            -100.00     9800.00
01275            -100.00     9800.00
01276            -100.00     9600.00
01277            -120.00     9600.00
01278            -100.00     9400.00
01279            -100.00     9400.00
01280            -100.00     9200.00
01281            -100.00     9000.00
01282            -100.00     9000.00
01283            -120.00     8600.00
01284            -140.00     8600.00
01285            -100.00     8400.00
01286            -100.00     8200.00
01287            -100.00     8000.00
01288            -100.00     7800.00
01289            -100.00     7800.00
01290            -100.00     7600.00
01291            -100.00     7600.00
01292            -100.00     7400.00
01293            -100.00     7200.00
01294            -100.00     7000.00
01295            -100.00     6800.00
01296            -100.00     6600.00
01297            -100.00     6600.00
01298            -100.00     6200.00
01299            -100.00     6000.00
01300            -100.00     6000.00
01301            -100.00     5800.00
01302            -100.00     5600.00
01303            -100.00     5400.00
01304            -100.00     5200.00
01305            -100.00     5000.00
01306            -100.00     4800.00
01307             -80.00     4600.00
01308            -100.00     4400.00
01309            -100.00     4200.00
01310            -100.00     4000.00
01311            -100.00     3800.00
01312             -80.00     3600.00
01313             -80.00     3600.00
01314             -80.00     3400.00
01315             -80.00     3000.00
01316            -100.00     2800.00
01317            -100.00     2600.00
01318             -80.00     2200.00
01319             -80.00     2200.00
01320             -80.00     2000.00
01321             -80.00     1800.00
01322             -60.00     1600.00
01323             -80.00     1400.00
01324             -60.00     1200.00
01325             -80.00     1000.00
01326             -40.00      600.00
01327             -80.00      400.00
01328             -40.00      400.00
01329             -60.00      200.00
01330             -20.00     -200.00
01331             -20.00     -400.00
01332              80.00     -600.00
01333             100.00     -800.00
01334              60.00    -1000.00
01335              20.00    -1200.00
01336               0.00    -1400.00
01337              20.00    -1400.00
01338              80.00    -1800.00
01339             380.00    -2000.00
01340             860.00    -2200.00
01341             460.00    -2600.00
01342            -400.00    -2600.00
01343            -700.00    -3000.00
01344            -580.00    -3000.00
01345            -600.00    -3000.00
01346             160.00    -3400.00
01347             320.00    -4000.00
01348            -160.00    -3400.00
01349             220.00    -4400.00
01350              20.00    -4400.00
01351             -20.00    -4000.00
01352             160.00    -5000.00
01353             -40.00    -4600.00
01354             160.00    -5000.00
01355              80.00    -5200.00
01356            -140.00    -5400.00
01357             -60.00    -5600.00
01358             -40.00    -5400.00
01359              60.00    -6200.00
01360               0.00    -6000.00
01361              60.00    -6200.00
01362             -20.00    -6600.00
01363               0.00    -6600.00
01364             100.00    -7000.00
01365             -20.00    -7000.00
01366              60.00    -7200.00
01367              60.00    -7400.00
01368             -20.00    -7400.00
01369              20.00    -7600.00
01370              20.00    -7800.00
01371               0.00    -8200.00
01372              60.00    -8200.00
01373              80.00    -8200.00
01374               0.00    -8400.00
01375              60.00    -8600.00
01376              60.00    -8800.00
01377              60.00    -8800.00
01378              20.00    -9200.00
01379              60.00    -9000.00
01380              20.00    -9400.00
01381              60.00    -9400.00
01382              80.00    -9600.00
01383              60.00    -9800.00
01384              60.00    -9800.00
01385              60.00    -9800.00
01386              60.00   -10000.00
01387              60.00   -10000.00
01388              80.00   -10000.00
01389              80.00   -10200.00
01390              60.00   -10600.00
01391              60.00   -10400.00
01392              60.00   -10600.00
01393              80.00   -10800.00
01394             100.00   -10800.00
01395             100.00   -10800.00
01396              80.00   -11000.00
01397              80.00   -11000.00
01398              60.00   -11000.00
01399              60.00   -11000.00
01400              80.00   -11000.00
01401              80.00   -11000.00
01402             100.00   -11000.00
01403             100.00   -11200.00
01404             100.00   -11400.00
01405              80.00   -11400.00
01406              80.00   -11400.00
01407             100.00   -11400.00
01408             100.00   -11400.00
01409              80.00   -11400.00
01410             100.00   -11400.00
01411              80.00   -11400.00
01412             100.00   -11400.00
01413              80.00   -11400.00
01414             100.00   -11400.00
01415             100.00   -11400.00
01416             100.00   -11400.00
01417             100.00   -11600.00
01418              80.00   -11400.00
01419             100.00   -11400.00
01420             100.00   -11200.00
01421             100.00   -11400.00
01422             100.00   -11400.00
01423             100.00   -11200.00
01424              80.00   -11200.00
01425             100.00   -11400.00
01426             100.00   -11000.00
01427             120.00   -11000.00
01428             100.00   -11000.00
01429             100.00   -10800.00
01430             120.00   -11000.00
01431              80.00   -10800.00
01432             100.00   -10800.00
01433             100.00   -10600.00
01434             100.00   -10600.00
01435             140.00   -10600.00
01436             120.00   -10600.00
01437             120.00   -10400.00
01438             100.00   -10200.00
01439              80.00   -10000.00
01440             120.00    -9800.00
01441             140.00    -9800.00
01442             100.00    -9800.00
01443             100.00    -9600.00
01444             120.00    -9400.00
01445             100.00    -9400.00
01446             100.00    -9200.00
01447             100.00    -9200.00
01448             120.00    -9000.00
01449             100.00    -9000.00
01450             100.00    -9000.00
01451             100.00    -8800.00
01452             100.00    -8600.00
01453             100.00    -8400.00
01454             120.00    -8200.00
01455             140.00    -8200.00
01456             100.00    -7800.00
01457             100.00    -7600.00
01458             100.00    -7400.00
01459             100.00    -7200.00
01460             100.00    -7200.00
01461             100.00    -7000.00
01462             100.00    -6800.00
01463             100.00    -6800.00
01464             100.00    -6600.00
01465              80.00    -6400.00
01466             100.00    -6200.00
01467             100.00    -6000.00
01468             100.00    -5800.00
01469             100.00    -5600.00
01470              80.00    -5400.00
01471              80.00    -5200.00
01472              80.00    -5000.00
01473              80.00    -5000.00
01474             100.00    -4600.00
01475              80.00    -4400.00
01476              80.00    -4400.00
01477             100.00    -4200.00
01478              80.00    -3800.00
01479              60.00    -3600.00
01480              60.00    -3400.00
01481              80.00    -3200.00
01482              80.00    -3000.00
01483              80.00    -2800.00
01484              60.00    -2600.00
01485              60.00    -2400.00
01486              60.00    -2200.00
01487              80.00    -2000.00
01488              60.00    -1800.00
01489              60.00    -1800.00
01490              60.00    -1200.00
01491              60.00    -1200.00
01492              60.00     -800.00
01493              60.00     -600.00
01494              60.00     -400.00
01495              60.00     -400.00
01496              60.00     -200.00
01497              60.00      200.00
01498              60.00      200.00
01499             140.00      600.00
01500             160.00      800.00
01501             160.00     1000.00
01502             140.00     1000.00
01503             120.00     1400.00
01504             120.00     1400.00
01505             220.00     1600.00
01506             700.00     2000.00
01507            1060.00     2600.00
01508             260.00     2600.00
01509            -660.00     2400.00
01510            -820.00     2600.00
01511            -780.00     3000.00
01512             100.00     3600.00
01513             720.00     3400.00
01514            -200.00     3600.00
01515             100.00     3800.00
01516             180.00     3600.00
01517            -220.00     4600.00
01518             140.00     4200.00
01519              20.00     4600.00
01520             180.00     5200.00
01521             140.00     4600.00
01522            -140.00     5400.00
01523              40.00     5600.00
01524            -140.00     5400.00
01525             100.00     6200.00
01526              60.00     5800.00
01527             -20.00     6400.00
01528              80.00     6200.00
01529             -40.00     6600.00
01530              60.00     6800.00
01531             -20.00     6600.00
01532              60.00     7400.00
01533             -20.00     7000.00
01534               0.00     7400.00
01535               0.00     7600.00
01536            -100.00     7600.00
01537             -20.00     8000.00
01538              20.00     8000.00
01539              40.00     8200.00
01540             -60.00     8200.00
01541               0.00     8600.00
01542             -60.00     8600.00
01543             -60.00     8600.00
01544               0.00     9000.00
01545             -60.00     9000.00
01546             -60.00     9200.00
01547             -80.00     9400.00
01548             -20.00     9400.00
01549             -60.00     9400.00
01550               0.00     9800.00
01551             -60.00    10000.00
01552            -100.00     9800.00
01553             -60.00    10000.00
01554             -60.00    10000.00
01555             -60.00    10200.00
01556             -60.00    10400.00
01557             -80.00    10200.00
01558            -100.00    10600.00
01559             -60.00    10600.00
01560             -60.00    10600.00
01561             -60.00    10800.00
01562             -60.00    10800.00
01563             -80.00    10800.00
01564            -100.00    11000.00
01565            -100.00    11000.00
01566             -80.00    11200.00
01567            -100.00    11200.00
01568             -60.00    11000.00
01569             -60.00    11400.00
01570             -80.00    11200.00
01571             -80.00    11400.00
01572            -100.00    11200.00
01573             -80.00    11400.00
01574             -80.00    11400.00
01575             -80.00    11600.00
01576            -100.00    11400.00
01577            -100.00    11400.00
01578             -80.00    11600.00
01579            -100.00    11400.00
01580            -100.00    11600.00
01581             -80.00    11400.00
01582             -80.00    11600.00
01583            -100.00    11600.00
01584             -80.00    11600.00
01585            -100.00    11400.00
01586            -100.00    11400.00
01587            -100.00    11400.00
01588             -80.00    11400.00
01589            -100.00    11400.00
01590             -80.00    11400.00
01591            -100.00    11200.00
01592            -100.00    11000.00
01593            -100.00    11000.00
01594            -100.00    11000.00
01595            -100.00    11000.00
01596            -100.00    11000.00
01597            -100.00    11000.00
01598            -100.00    10800.00
01599            -100.00    10600.00
01600            -100.00    10600.00
01601            -100.00    10600.00
01602            -100.00    10600.00
01603            -100.00    10200.00
01604            -100.00    10200.00
01605            -100.00    10200.00
01606            -100.00    10200.00
01607            -100.00    10000.00
01608            -120.00     9800.00
01609            -100.00     9800.00
01610            -120.00     9600.00
01611            -100.00     9600.00
01612            -120.00     9400.00
01613            -100.00     9400.00
01614            -100.00     9400.00
01615            -100.00     9000.00
01616            -120.00     9000.00
01617            -100.00     8600.00
01618            -100.00     8600.00
01619            -100.00     8600.00
01620            -100.00     8400.00
01621            -100.00     8200.00
01622            -100.00     8200.00
01623            -100.00     7800.00
01624            -100.00     7600.00
01625            -100.00     7600.00
01626            -100.00     7400.00
01627            -100.00     7400.00
01628            -100.00     7000.00
01629            -100.00     6800.00
01630            -100.00     6800.00
01631            -100.00     6600.00
01632            -100.00     6400.00
01633            -100.00     6200.00
01634            -100.00     6000.00
01635            -100.00     6000.00
01636            -100.00     5600.00
01637            -100.00     5400.00
01638            -100.00     5200.00
01639            -100.00     5200.00
01640            -100.00     5000.00
01641             -80.00     4600.00
01642            -100.00     4600.00
01643            -100.00     4200.00
01644            -100.00     4200.00
01645            -100.00     3800.00
01646            -100.00     3800.00
01647             -80.00     3400.00
01648             -80.00     3400.00
01649             -80.00     3000.00
01650             -80.00     2800.00
01651             -80.00     2800.00
01652             -80.00     2600.00
01653             -80.00     2400.00
01654             -60.00     2000.00
01655             -60.00     1800.00
01656             -80.00     1800.00
01657             -60.00     1400.00
01658             -60.00     1200.00
01659             -80.00     1000.00
01660             -60.00      600.00
01661             -60.00      600.00
01662             -60.00      400.00
01663             -60.00      200.00
01664             -60.00     -200.00
01665             -40.00     -200.00
01666              40.00     -400.00
01667             100.00     -600.00
01668              80.00     -800.00
01669              20.00    -1000.00
01670              20.00    -1200.00
01671              20.00    -1400.00
01672              60.00    -1600.00
01673             200.00    -1800.00
01674             700.00    -2200.00
01675             740.00    -2600.00
01676             -60.00    -2600.00
01677            -660.00    -3000.00
01678            -620.00    -3000.00
01679            -640.00    -3000.00
01680            -260.00    -3000.00
01681             460.00    -3800.00
01682             -60.00    -3600.00
01683              20.00    -3800.00
01684             220.00    -4600.00
01685            -140.00    -4000.00
01686             160.00    -4600.00
01687              20.00    -5000.00
01688              60.00    -4800.00
01689             180.00    -5200.00
01690            -100.00    -5200.00
01691             -80.00    -5800.00
01692             -80.00    -5400.00
01693              20.00    -5800.00
01694              20.00    -6200.00
01695              20.00    -6000.00
01696              60.00    -6600.00
01697             -60.00    -6400.00
01698              80.00    -6800.00
01699              20.00    -7000.00
01700               0.00    -7000.00
01701              80.00    -7400.00
01702               0.00    -7400.00
01703              20.00    -7800.00
01704              60.00    -7600.00
01705              20.00    -7800.00
01706              20.00    -8200.00
01707             100.00    -8200.00
01708              60.00    -8400.00
01709              20.00    -8600.00
01710              80.00    -8600.00
01711              60.00    -8800.00
01712              60.00    -9000.00
01713              40.00    -9000.00
01714              60.00    -9200.00
01715              40.00    -9400.00
01716              80.00    -9400.00
01717              80.00    -9600.00
01718              60.00    -9800.00
01719              60.00    -9800.00
01720              60.00   -10000.00
01721              60.00   -10000.00
01722              80.00   -10200.00
01723              80.00   -10200.00
01724              60.00   -10400.00
01725              60.00   -10400.00
01726              60.00   -10200.00
01727              60.00   -10600.00
01728              80.00   -10600.00
01729             100.00   -10800.00
01730              80.00   -10800.00
01731              80.00   -10800.00
01732              80.00   -11000.00
01733              60.00   -11000.00
01734              80.00   -11000.00
01735             100.00   -11000.00
01736             100.00   -11200.00
01737              80.00   -11400.00
01738              80.00   -11400.00
01739              80.00   -11200.00
01740              60.00   -11200.00
01741             100.00   -11400.00
01742             100.00   -11400.00
01743             100.00   -11400.00
01744              80.00   -11400.00
01745              80.00   -11400.00
01746              80.00   -11600.00
01747              80.00   -11600.00
01748              80.00   -11400.00
01749             100.00   -11400.00
01750             100.00   -11400.00
01751             100.00   -11600.00
01752             100.00   -11400.00
01753             100.00   -11400.00
01754              80.00   -11400.00
01755             100.00   -11400.00
01756             100.00   -11400.00
01757             140.00   -11400.00
01758             100.00   -11200.00
01759             100.00   -11400.00
01760             100.00   -11000.00
01761             100.00   -11200.00
01762             120.00   -11000.00
01763             140.00   -11000.00
01764             140.00   -11000.00
01765             100.00   -10800.00
01766             100.00   -10800.00
01767             100.00   -10600.00
01768             140.00   -10600.00
01769             140.00   -10600.00
01770             140.00   -10600.00
01771             100.00   -10400.00
01772             120.00   -10200.00
01773             100.00   -10000.00
01774             100.00   -10000.00
01775             100.00   -10000.00
01776             140.00    -9800.00
01777             120.00    -9600.00
01778             120.00    -9400.00
01779             120.00    -9400.00
01780             100.00    -9200.00
01781             140.00    -9200.00
01782             140.00    -9000.00
01783             100.00    -9000.00
01784             100.00    -8800.00
01785             100.00    -8600.00
01786             100.00    -8400.00
01787             120.00    -8400.00
01788             120.00    -8400.00
01789             100.00    -8200.00
01790             100.00    -8000.00
01791             100.00    -7800.00
01792             100.00    -7600.00
01793             100.00    -7400.00
01794             100.00    -7000.00
01795             100.00    -7200.00
01796             100.00    -7000.00
01797             100.00    -6800.00
01798             100.00    -6600.00
01799              80.00    -6400.00
01800             100.00    -6200.00
01801             100.00    -6000.00
01802             100.00    -6000.00
01803              80.00    -5800.00
01804              80.00    -5600.00
01805              80.00    -5400.00
01806              80.00    -5200.00
01807             100.00    -5000.00
01808              80.00    -4800.00
01809              80.00    -4600.00
01810             100.00    -4400.00
01811              60.00    -4200.00
01812              80.00    -3800.00
01813              80.00    -3800.00
01814              60.00    -3600.00
01815              80.00    -3400.00
01816              80.00    -3200.00
01817              80.00    -3000.00
01818              80.00    -2800.00
01819              60.00    -2600.00
01820              60.00    -2400.00
01821              60.00    -2200.00
01822              80.00    -2000.00
01823              80.00    -1800.00
01824              60.00    -1400.00
01825              60.00    -1400.00
01826              60.00    -1200.00
01827              60.00     -600.00
01828              80.00     -600.00
01829              80.00     -400.00
01830              60.00     -200.00
01831              60.00        0.00
01832              80.00      200.00
01833             100.00      400.00
01834             180.00      600.00
01835             180.00     1000.00
01836             140.00     1000.00
01837             140.00     1200.00
01838             140.00     1400.00
01839             160.00     1600.00
01840             420.00     1800.00
01841            1020.00     2200.00
01842             720.00     2400.00
01843            -320.00     2600.00
01844            -820.00     2600.00
01845            -820.00     2800.00
01846            -420.00     3400.00
01847             700.00     3400.00
01848             180.00     3400.00
01849            -200.00     3800.00
01850             320.00     3800.00
01851            -140.00     4200.00
01852               0.00     4600.00
01853             140.00     4200.00
01854              60.00     5200.00
01855             260.00     4800.00
01856            -100.00     5000.00
01857               0.00     5800.00
01858             -60.00     5200.00
01859             -60.00     5800.00
01860             160.00     5800.00
01861             -60.00     6000.00
01862              80.00     6400.00
01863               0.00     6200.00
01864               0.00     7000.00
01865              20.00     6600.00
01866               0.00     7200.00
01867              20.00     7200.00
01868             -60.00     7000.00
01869              60.00     7800.00
01870             -60.00     7600.00
01871             -60.00     8000.00
01872               0.00     7800.00
01873              60.00     8200.00
01874             -20.00     8200.00
01875             -20.00     8400.00
01876               0.00     8600.00
01877             -80.00     8600.00
01878              20.00     9000.00
01879             -20.00     9000.00
01880             -60.00     9200.00
01881             -80.00     9200.00
01882             -20.00     9400.00
01883             -40.00     9400.00
01884             -20.00     9600.00
01885               0.00     9800.00
01886             -80.00     9800.00
01887             -60.00    10000.00
01888             -60.00    10000.00
01889             -60.00    10200.00
01890             -60.00    10200.00
01891             -60.00    10400.00
01892            -100.00    10400.00
01893            -100.00    10600.00
01894             -40.00    10600.00
01895             -60.00    10800.00
01896             -60.00    10800.00
01897             -60.00    10800.00
01898             -80.00    11000.00
01899             -80.00    11000.00
01900             -60.00    11000.00
01901             -80.00    11000.00
01902             -80.00    11000.00
01903             -60.00    11400.00
01904             -80.00    11200.00
01905            -100.00    11400.00
01906             -80.00    11400.00
01907            -100.00    11400.00
01908             -80.00    11600.00
01909             -60.00    11400.00
01910             -80.00    11400.00
01911            -100.00    11600.00
01912            -100.00    11600.00
01913            -100.00    11600.00
01914            -100.00    11600.00
01915            -100.00    11600.00
01916             -80.00    11800.00
01917            -100.00    11400.00
01918            -100.00    11400.00
01919            -100.00    11400.00
01920            -100.00    11600.00
01921             -80.00    11400.00
01922            -100.00    11400.00
01923            -100.00    11400.00
01924            -100.00    11400.00
01925            -100.00    11400.00
01926            -100.00    11200.00
01927            -100.00    11000.00
01928            -100.00    11200.00
01929            -100.00    10800.00
01930            -100.00    11000.00
01931            -100.00    10800.00
01932            -100.00    10800.00
01933            -100.00    10800.00
01934            -120.00    10800.00
01935            -100.00    10600.00
01936            -100.00    10600.00
01937            -100.00    10400.00
01938            -100.00    10200.00
01939            -140.00    10200.00
01940            -100.00    10200.00
01941            -100.00    10200.00
01942            -100.00    10000.00
01943            -100.00     9800.00
01944            -140.00     9800.00
01945            -100.00     9600.00
01946            -140.00     9400.00
01947            -100.00     9600.00
01948            -100.00     9200.00
01949            -100.00     9000.00
01950            -100.00     9000.00
01951            -120.00     8800.00
01952            -120.00     8600.00
01953            -100.00     8600.00
01954            -100.00     8400.00
01955            -100.00     8200.00
01956            -100.00     8200.00
01957            -120.00     8000.00
01958            -100.00     7800.00
01959            -100.00     7600.00
01960            -100.00     7600.00
01961            -100.00     7400.00
01962            -100.00     7200.00
01963            -100.00     7000.00
01964            -100.00     6800.00
01965            -100.00     6600.00
01966            -100.00     6600.00
01967            -100.00     6200.00
01968            -100.00     6200.00
01969            -100.00     5800.00
01970            -100.00     5800.00
01971            -100.00     5600.00
01972            -100.00     5400.00
01973            -100.00     5200.00
01974            -100.00     5000.00
01975             -80.00     4800.00
01976             -80.00     4600.00
01977             -80.00     4400.00
01978            -100.00     4200.00
01979            -100.00     4000.00
01980             -80.00     3800.00
01981             -80.00     3600.00
01982             -80.00     3600.00
01983             -80.00     3000.00
01984             -80.00     3000.00
01985            -100.00     2800.00
01986             -80.00     2600.00
01987             -80.00     2200.00
01988             -80.00     2000.00
01989             -80.00     1800.00
01990             -80.00     1800.00
01991             -80.00     1400.00
01992             -60.00     1200.00
01993             -80.00     1200.00
01994             -60.00      800.00
01995             -60.00      600.00
01996             -60.00      600.00
01997             -60.00      400.00
01998             -60.00      200.00
01999             -60.00     -200.00
02000               0.00     -600.00
02001              80.00     -600.00
02002              80.00     -600.00
02003              40.00     -800.00
02004               0.00    -1200.00
02005               0.00    -1200.00
02006              20.00    -1400.00
02007             100.00    -1800.00
02008             460.00    -1800.00
02009             860.00    -2400.00
02010             340.00    -2800.00
02011            -480.00    -2800.00
02012            -660.00    -3000.00
02013            -620.00    -3000.00
02014            -540.00    -3000.00
02015             240.00    -3400.00
02016             240.00    -3800.00
02017            -140.00    -3400.00
02018             240.00    -4400.00
02019             -60.00    -4200.00
02020              20.00    -4200.00
02021             140.00    -5000.00
02022             -40.00    -4600.00
02023             200.00    -5200.00
02024              40.00    -5200.00
02025            -100.00    -5400.00
02026             -60.00    -5800.00
02027             -20.00    -5600.00
02028              60.00    -6000.00
02029               0.00    -5800.00
02030             100.00    -6400.00
02031             -20.00    -6600.00
02032              20.00    -6600.00
02033              80.00    -7000.00
02034             -20.00    -7000.00
02035              60.00    -7200.00
02036              60.00    -7400.00
02037               0.00    -7400.00
02038              40.00    -7600.00
02039              40.00    -7800.00
02040              20.00    -8200.00
02041              80.00    -8200.00
02042              80.00    -8400.00
02043              20.00    -8600.00
02044              60.00    -8600.00
02045              80.00    -8800.00
02046              60.00    -9000.00
02047              40.00    -9200.00
02048              60.00    -9200.00
02049              20.00    -9400.00
02050              60.00    -9400.00
02051              80.00    -9400.00
02052              60.00    -9800.00
02053              80.00    -9800.00
02054              60.00    -9800.00
02055              40.00    -9800.00
02056              80.00   -10200.00
02057              80.00   -10200.00
02058              80.00   -10200.00
02059              60.00   -10400.00
02060              60.00   -10600.00
02061              60.00   -10600.00
02062              80.00   -10600.00
02063             100.00   -10800.00
02064             100.00   -10800.00
02065              80.00   -10800.00
02066              80.00   -11000.00
02067              80.00   -11000.00
02068              60.00   -11000.00
02069              80.00   -11200.00
02070              80.00   -11200.00
02071             100.00   -11400.00
02072              80.00   -11400.00
02073              80.00   -11400.00
02074              80.00   -11400.00
02075              80.00   -11400.00
02076             100.00   -11400.00
02077             100.00   -11400.00
02078             100.00   -11400.00
02079             100.00   -11400.00
02080              80.00   -11400.00
02081              80.00   -11400.00
02082             100.00   -11400.00
02083             100.00   -11400.00
02084             100.00   -11400.00
02085             100.00   -11400.00
02086              80.00   -11400.00
02087              80.00   -11400.00
02088             100.00   -11400.00
02089             100.00   -11400.00
02090             120.00   -11200.00
02091             140.00   -11200.00
02092             100.00   -11200.00
02093             100.00   -11200.00
02094             100.00   -11000.00
02095             100.00   -11000.00
02096             120.00   -11000.00
02097             140.00   -11000.00
02098             140.00   -10800.00
02099             100.00   -10800.00
02100             100.00   -10800.00
02101             100.00   -10800.00
02102             120.00   -10600.00
02103             140.00   -10600.00
02104             100.00   -10600.00
02105             140.00   -10600.00
02106             100.00   -10200.00
02107             100.00   -10200.00
02108             100.00   -10000.00
02109             140.00   -10000.00
02110             140.00    -9800.00
02111             100.00    -9800.00
02112             140.00    -9600.00
02113             100.00    -9400.00
02114             120.00    -9400.00
02115             140.00    -9200.00
02116             140.00    -9200.00
02117             120.00    -9000.00
02118             120.00    -9000.00
02119             100.00    -8600.00
02120             100.00    -8600.00
02121             100.00    -8400.00
02122             100.00    -8200.00
02123             140.00    -8200.00
02124             140.00    -8200.00
02125             120.00    -7800.00
02126             140.00    -7600.00
02127              80.00    -7400.00
02128              80.00    -7200.00
02129             100.00    -7200.00
02130              60.00    -7000.00
02131              20.00    -7000.00
02132               0.00    -6800.00
02133             100.00    -6400.00
02134             160.00    -6200.00
02135             200.00    -6000.00
02136             200.00    -6200.00
02137             140.00    -5800.00
02138             100.00    -5800.00
02139             -20.00    -5400.00
02140             -20.00    -5200.00
02141              20.00    -5000.00
02142              80.00    -4600.00
02143             100.00    -4600.00
02144             140.00    -4400.00
02145             160.00    -4400.00
02146             120.00    -3800.00
02147             100.00    -3800.00
02148              60.00    -3600.00
02149              60.00    -3600.00
02150              20.00    -3200.00
02151              20.00    -3000.00
02152              20.00    -2800.00
02153              80.00    -2600.00
02154             100.00    -2600.00
02155             100.00    -2200.00
02156             100.00    -2000.00
02157             100.00    -1800.00
02158              60.00    -1600.00
02159              40.00    -1400.00
02160               0.00    -1000.00
02161               0.00     -800.00
02162               0.00     -600.00
02163              60.00     -400.00
02164              80.00     -200.00
02165             100.00     -200.00
02166             120.00      200.00
02167             120.00      400.00
02168             140.00      600.00
02169             160.00      600.00
02170             120.00     1000.00
02171             100.00     1200.00
02172             100.00     1400.00
02173             140.00     1400.00
02174             260.00     1800.00
02175             860.00     2000.00
02176            1040.00     2200.00
02177             140.00     2600.00
02178            -740.00     2600.00
02179            -820.00     2800.00
02180            -780.00     3000.00
02181             240.00     3400.00
02182             640.00     3400.00
02183            -260.00     3600.00
02184             220.00     3800.00
02185             140.00     3800.00
02186            -180.00     4600.00
02187             160.00     4200.00
02188             -20.00     4600.00
02189             220.00     5000.00
02190              60.00     4400.00
02191            -140.00     5800.00
02192              20.00     5400.00
02193            -100.00     5600.00
02194             140.00     6200.00
02195              20.00     5800.00
02196             -20.00     6400.00
02197              60.00     6200.00
02198             -60.00     6600.00
02199              20.00     6800.00
02200             -20.00     6800.00
02201              60.00     7400.00
02202             -40.00     7000.00
02203              20.00     7400.00
02204               0.00     7600.00
02205             -80.00     7600.00
02206             -20.00     8200.00
02207               0.00     8000.00
02208              20.00     8200.00
02209             -80.00     8200.00
02210               0.00     8600.00
02211             -60.00     8600.00
02212             -20.00     8600.00
02213               0.00     9000.00
02214             -60.00     9200.00
02215             -60.00     9200.00
02216             -60.00     9400.00
02217             -20.00     9400.00
02218             -60.00     9600.00
02219               0.00     9800.00
02220             -60.00     9800.00
02221             -80.00     9800.00
02222             -60.00    10000.00
02223             -60.00    10200.00
02224             -60.00    10200.00
02225             -60.00    10400.00
02226             -80.00    10400.00
02227            -100.00    10600.00
02228             -60.00    10600.00
02229             -40.00    10600.00
02230             -60.00    10800.00
02231             -60.00    10800.00
02232             -60.00    11000.00
02233            -100.00    11000.00
02234             -80.00    11000.00
02235            -100.00    11200.00
02236             -80.00    11000.00
02237             -80.00    11200.00
02238             -60.00    11400.00
02239             -80.00    11400.00
02240             -80.00    11400.00
02241             -80.00    11400.00
02242             -80.00    11600.00
02243             -80.00    11400.00
02244             -80.00    11400.00
02245            -100.00    11600.00
02246            -100.00    11400.00
02247            -100.00    11600.00
02248            -100.00    11600.00
02249            -100.00    11600.00
02250             -80.00    11600.00
02251             -80.00    11400.00
02252            -100.00    11600.00
02253            -100.00    11400.00
02254            -120.00    11400.00
02255            -100.00    11600.00
02256             -80.00    11400.00
02257             -80.00    11400.00
02258            -100.00    11400.00
02259            -100.00    11200.00
02260            -100.00    11400.00
02261            -120.00    11000.00
02262            -100.00    11200.00
02263            -140.00    11000.00
02264            -100.00    11000.00
02265            -100.00    11000.00
02266            -100.00    11000.00
02267            -120.00    10800.00
02268            -100.00    10800.00
02269            -100.00    10600.00
02270            -100.00    10600.00
02271            -100.00    10400.00
02272            -100.00    10600.00
02273            -140.00    10400.00
02274            -120.00    10200.00
02275            -100.00    10000.00
02276            -100.00     9800.00
02277            -100.00    10000.00
02278            -100.00    10000.00
02279            -120.00     9600.00
02280            -100.00     9800.00
02281            -100.00     9400.00
02282            -120.00     9200.00
02283            -100.00     9200.00
02284            -100.00     9000.00
02285            -100.00     9000.00
02286            -100.00     8800.00
02287            -120.00     8600.00
02288            -100.00     8400.00
02289            -100.00     8400.00
02290            -100.00     8200.00
02291            -100.00     8200.00
02292            -100.00     7800.00
02293            -100.00     7800.00
02294            -100.00     7600.00
02295            -100.00     7400.00
02296            -100.00     7400.00
02297            -100.00     7000.00
02298            -100.00     6800.00
02299            -100.00     6800.00
02300            -100.00     6600.00
02301            -100.00     6200.00
02302             -80.00     6200.00
02303            -100.00     6000.00
02304            -100.00     5800.00
02305            -100.00     5800.00
02306            -100.00     5400.00
02307            -100.00     5200.00
02308             -80.00     5200.00
02309             -60.00     5000.00
02310             -80.00     4800.00
02311            -100.00     4400.00
02312            -100.00     4200.00
02313            -100.00     4200.00
02314            -100.00     3800.00
02315             -80.00     3800.00
02316             -80.00     3400.00
02317             -80.00     3400.00
02318             -80.00     3000.00
02319             -80.00     3000.00
02320            -100.00     2800.00
02321             -80.00     2400.00
02322             -80.00     2200.00
02323             -60.00     1800.00
02324             -60.00     2000.00
02325             -80.00     1800.00
02326             -80.00     1400.00
02327             -80.00     1200.00
02328             -60.00     1000.00
02329             -60.00      800.00
02330             -60.00      600.00
02331             -60.00      400.00
02332             -60.00      200.00
02333             -60.00     -200.00
02334             -20.00     -200.00
02335              60.00     -600.00
02336              80.00     -600.00
02337              60.00     -800.00
02338              20.00    -1000.00
02339               0.00    -1200.00
02340               0.00    -1400.00
02341              60.00    -1600.00
02342             240.00    -1800.00
02343             740.00    -2000.00
02344             660.00    -2600.00
02345            -160.00    -2800.00
02346            -680.00    -3000.00
02347            -600.00    -2800.00
02348            -640.00    -3000.00
02349            -140.00    -3000.00
02350             460.00    -3800.00
02351            -100.00    -3600.00
02352             100.00    -3800.00
02353             160.00    -4600.00
02354            -140.00    -3800.00
02355             180.00    -4600.00
02356               0.00    -5000.00
02357             100.00    -5000.00
02358             160.00    -5200.00
02359            -100.00    -5200.00
02360             -60.00    -5800.00
02361             -60.00    -5400.00
02362              60.00    -6000.00
02363               0.00    -6200.00
02364              40.00    -6000.00
02365              40.00    -6800.00
02366             -20.00    -6400.00
02367             140.00    -6800.00
02368              20.00    -7000.00
02369              20.00    -7000.00
02370              80.00    -7400.00
02371              20.00    -7200.00
02372              20.00    -7800.00
02373              40.00    -7800.00
02374              20.00    -8000.00
02375              20.00    -8200.00
02376             100.00    -8200.00
02377              40.00    -8600.00
02378              20.00    -8600.00
02379              80.00    -8800.00
02380              60.00    -9000.00
02381              40.00    -9000.00
02382              60.00    -9200.00
02383              40.00    -9200.00
02384              20.00    -9400.00
02385              80.00    -9400.00
02386              60.00    -9800.00
02387              60.00    -9800.00
02388              60.00    -9800.00
02389              60.00   -10000.00
02390              40.00   -10000.00
02391              60.00   -10000.00
02392              60.00   -10400.00
02393              60.00   -10600.00
02394              60.00   -10400.00
02395              40.00   -10600.00
02396              60.00   -10600.00
02397              80.00   -10800.00
02398             100.00   -10800.00
02399              80.00   -10800.00
02400             100.00   -11000.00
02401              60.00   -11000.00
02402              20.00   -11000.00
02403              60.00   -11000.00
02404              80.00   -11000.00
02405             120.00   -11200.00
02406             100.00   -11400.00
02407              80.00   -11200.00
02408              60.00   -11400.00
02409              60.00   -11400.00
02410              80.00   -11400.00
02411             100.00   -11400.00
02412             100.00   -11600.00
02413              80.00   -11400.00
02414              80.00   -11600.00
02415              60.00   -11400.00
02416              80.00   -11400.00
02417              80.00   -11400.00
02418             100.00   -11400.00
02419             140.00   -11400.00
02420             100.00   -11400.00
02421              80.00   -11400.00
02422              80.00   -11400.00
02423             100.00   -11400.00
02424             100.00   -11400.00
02425             140.00   -11200.00
02426             100.00   -11400.00
02427              80.00   -11400.00
02428             100.00   -11200.00
02429              80.00   -11000.00
02430             100.00   -11000.00
02431             140.00   -11000.00
02432             140.00   -11000.00
02433             120.00   -10800.00
02434             100.00   -10800.00
02435             100.00   -10600.00
02436             100.00   -10600.00
02437             140.00   -10600.00
02438             140.00   -10600.00
02439             100.00   -10400.00
02440             140.00   -10200.00
02441             100.00   -10200.00
02442             100.00   -10200.00
02443             120.00   -10000.00
02444             140.00    -9800.00
02445             100.00    -9800.00
02446             140.00    -9800.00
02447             100.00    -9400.00
02448             100.00    -9400.00
02449             100.00    -9400.00
02450             140.00    -9200.00
02451             140.00    -9000.00
02452             120.00    -9000.00
02453             100.00    -8600.00
02454             100.00    -8600.00
02455             100.00    -8400.00
02456             100.00    -8400.00
02457             100.00    -8200.00
02458             100.00    -8200.00
02459             100.00    -7800.00
02460             100.00    -7800.00
02461              80.00    -7600.00
02462              80.00    -7400.00
02463             100.00    -7200.00
02464             100.00    -7200.00
02465             120.00    -7000.00
02466              80.00    -6800.00
02467              80.00    -6600.00
02468              80.00    -6400.00
02469              80.00    -6200.00
02470             100.00    -6200.00
02471              80.00    -6000.00
02472             100.00    -5800.00
02473              80.00    -5600.00
02474              80.00    -5400.00
02475              80.00    -5000.00
02476              80.00    -5000.00
02477              80.00    -5000.00
02478             100.00    -4600.00
02479              80.00    -4400.00
02480              80.00    -4200.00
02481              60.00    -3800.00
02482              80.00    -3800.00
02483              80.00    -3600.00
02484              80.00    -3400.00
02485              80.00    -3000.00
02486              80.00    -2800.00
02487              60.00    -2600.00
02488              80.00    -2400.00
02489              80.00    -2200.00
02490              80.00    -2000.00
02491              60.00    -2000.00
02492              80.00    -1800.00
02493              60.00    -1200.00
02494              60.00    -1200.00
02495              60.00     -800.00
02496              80.00     -800.00
02497              80.00     -600.00
02498              80.00     -400.00
02499              60.00     -200.00
02500              60.00      200.00
02501              60.00      400.00
02502             120.00      400.00
02503             160.00      600.00
02504             180.00     1000.00
02505             160.00     1000.00
02506             140.00     1200.00
02507             120.00     1400.00
02508             160.00     1600.00
02509             500.00     2000.00
02510            1100.00     2200.00
02511             580.00     2400.00
02512            -460.00     2600.00
02513            -820.00     2800.00
02514            -820.00     3000.00
02515            -300.00     3400.00
02516             740.00     3400.00
02517              60.00     3400.00
02518            -120.00     3800.00
02519             300.00     3600.00
02520            -220.00     4400.00
02521              40.00     4600.00
02522              80.00     4200.00
02523              80.00     5200.00
02524             240.00     4600.00
02525            -140.00     5200.00
02526               0.00     5800.00
02527            -100.00     5200.00
02528               0.00     6000.00
02529             140.00     5800.00
02530             -60.00     6000.00
02531              80.00     6200.00
02532             -20.00     6200.00
02533              20.00     6800.00
02534               0.00     6600.00
02535               0.00     7200.00
02536               0.00     7000.00
02537             -60.00     7200.00
02538              60.00     7600.00
02539             -80.00     7600.00
02540             -60.00     7800.00
02541               0.00     7800.00
02542              60.00     8200.00
02543             -40.00     8200.00
02544             -20.00     8600.00
02545             -20.00     8600.00
02546             -80.00     8600.00
02547               0.00     9000.00
02548             -20.00     9000.00
02549             -60.00     9200.00
02550             -60.00     9200.00
02551             -20.00     9400.00
02552             -60.00     9600.00
02553             -20.00     9600.00
02554             -20.00     9600.00
02555             -80.00     9800.00
02556             -60.00    10000.00
02557             -60.00    10200.00
02558             -60.00    10200.00
02559             -20.00    10200.00
02560             -60.00    10200.00
02561            -100.00    10400.00
02562             -60.00    10400.00
02563             -20.00    10600.00
02564             -80.00    10800.00
02565             -60.00    10800.00
02566             -60.00    11000.00
02567             -80.00    11000.00
02568             -80.00    11000.00
02569             -80.00    11000.00
02570            -100.00    11200.00
02571             -80.00    11000.00
02572             -60.00    11400.00
02573             -80.00    11400.00
02574            -100.00    11200.00
02575             -80.00    11400.00
02576             -80.00    11400.00
02577             -80.00    11400.00
02578             -80.00    11400.00
02579            -100.00    11600.00
02580            -100.00    11600.00
02581             -80.00    11400.00
02582            -100.00    11600.00
02583            -100.00    11400.00
02584            -100.00    11600.00
02585             -80.00    11600.00
02586            -100.00    11400.00
02587             -80.00    11400.00
02588            -100.00    11400.00
02589            -140.00    11400.00
02590            -100.00    11400.00
02591            -100.00    11400.00
02592            -100.00    11400.00
02593            -100.00    11400.00
02594            -100.00    11400.00
02595            -100.00    11000.00
02596            -100.00    11000.00
02597            -100.00    11200.00
02598            -100.00    10800.00
02599            -100.00    11000.00
02600            -100.00    11000.00
02601            -140.00    10800.00
02602            -140.00    10800.00
02603            -100.00    10800.00
02604            -100.00    10600.00
02605            -100.00    10400.00
02606            -100.00    10600.00
02607            -100.00    10400.00
02608            -140.00    10200.00
02609            -100.00    10200.00
02610            -100.00    10200.00
02611            -100.00    10000.00
02612            -100.00     9800.00
02613            -140.00     9800.00
02614            -120.00     9800.00
02615            -140.00     9400.00
02616            -100.00     9400.00
02617            -120.00     9200.00
02618            -100.00     9200.00
02619            -100.00     9000.00
02620            -100.00     8800.00
02621            -140.00     8600.00
02622            -140.00     8400.00
02623            -100.00     8400.00
02624            -100.00     8400.00
02625            -100.00     8200.00
02626            -100.00     7800.00
02627            -100.00     7800.00
02628            -100.00     7600.00
02629            -100.00     7600.00
02630            -100.00     7400.00
02631            -100.00     7000.00
02632            -100.00     7000.00
02633            -100.00     6800.00
02634            -100.00     6800.00
02635            -100.00     6600.00
02636            -100.00     6400.00
02637             -80.00     6200.00
02638            -100.00     6000.00
02639             -80.00     5800.00
02640            -100.00     5400.00
02641            -100.00     5600.00
02642            -100.00     5200.00
02643            -100.00     5000.00
02644            -100.00     4800.00
02645             -80.00     4600.00
02646            -100.00     4400.00
02647             -80.00     4200.00
02648            -100.00     4000.00
02649            -100.00     3800.00
02650             -80.00     3600.00
02651             -80.00     3400.00
02652            -100.00     3400.00
02653            -100.00     3000.00
02654            -100.00     2800.00
02655            -100.00     2600.00
02656             -80.00     2200.00
02657             -60.00     2200.00
02658             -80.00     2000.00
02659             -60.00     1800.00
02660             -80.00     1400.00
02661             -80.00     1200.00
02662             -80.00     1000.00
02663             -60.00      800.00
02664             -60.00      600.00
02665             -60.00      400.00
02666             -60.00      200.00
02667             -60.00        0.00
02668             -40.00     -200.00
02669               0.00     -400.00
02670              80.00     -600.00
02671              80.00     -800.00
02672              40.00    -1000.00
02673              20.00    -1200.00
02674               0.00    -1400.00
02675              20.00    -1400.00
02676             120.00    -1800.00
02677             540.00    -2000.00
02678             860.00    -2600.00
02679             220.00    -2600.00
02680            -560.00    -2800.00
02681            -660.00    -3000.00
02682            -620.00    -3000.00
02683            -480.00    -2800.00
02684             340.00    -3400.00
02685             140.00    -3800.00
02686            -100.00    -3600.00
02687             260.00    -4400.00
02688            -100.00    -4200.00
02689              80.00    -4200.00
02690             140.00    -5000.00
02691             -20.00    -4600.00
02692             220.00    -5200.00
02693               0.00    -5200.00
02694            -100.00    -5600.00
02695             -40.00    -5400.00
02696               0.00    -5800.00
02697              60.00    -6200.00
02698               0.00    -5800.00
02699              80.00    -6600.00
02700             -20.00    -6600.00
02701              60.00    -6600.00
02702              80.00    -7000.00
02703               0.00    -7000.00
02704             100.00    -7400.00
02705              40.00    -7200.00
02706              20.00    -7600.00
02707              20.00    -7800.00
02708              20.00    -7800.00
02709               0.00    -8200.00
02710              80.00    -8200.00
02711              80.00    -8400.00
02712               0.00    -8600.00
02713              60.00    -8600.00
02714              80.00    -8600.00
02715              60.00    -9000.00
02716              60.00    -9000.00
02717              60.00    -9000.00
02718              20.00    -9400.00
02719              60.00    -9400.00
02720              80.00    -9600.00
02721              60.00    -9800.00
02722              60.00    -9800.00
02723              60.00    -9800.00
02724              40.00   -10000.00
02725              80.00   -10000.00
02726              60.00   -10200.00
02727              60.00   -10200.00
02728              60.00   -10400.00
02729              60.00   -10600.00
02730              60.00   -10600.00
02731              60.00   -10800.00
02732              80.00   -10800.00
02733              80.00   -10800.00
02734              80.00   -10800.00
02735              80.00   -11000.00
02736              60.00   -11000.00
02737              60.00   -11000.00
02738              80.00   -11000.00
02739              80.00   -11200.00
02740              80.00   -11400.00
02741              80.00   -11400.00
02742              80.00   -11400.00
02743              80.00   -11400.00
02744              80.00   -11400.00
02745             100.00   -11400.00
02746             100.00   -11400.00
02747             100.00   -11400.00
02748              80.00   -11400.00
02749              80.00   -11400.00
02750             100.00   -11400.00
02751              80.00   -11400.00
02752             100.00   -11400.00
02753             100.00   -11400.00
02754             100.00   -11400.00
02755             100.00   -11400.00
02756              80.00   -11400.00
02757              80.00   -11400.00
02758             100.00   -11400.00
02759             120.00   -11200.00
02760             140.00   -11200.00
02761              80.00   -11200.00
02762             100.00   -11000.00
02763             100.00   -11000.00
02764             100.00   -11000.00
02765             120.00   -11000.00
02766             120.00   -11000.00
02767             140.00   -11000.00
02768             100.00   -10800.00
02769             100.00   -10600.00
02770             100.00   -10600.00
02771             120.00   -10600.00
02772             100.00   -10600.00
02773             120.00   -10600.00
02774             120.00   -10400.00
02775             100.00   -10000.00
02776             100.00   -10200.00
02777             100.00   -10000.00
02778             140.00    -9800.00
02779             140.00   -10000.00
02780             140.00    -9800.00
02781             100.00    -9600.00
02782             100.00    -9400.00
02783              80.00    -9400.00
02784             100.00    -9200.00
02785             120.00    -9200.00
02786             100.00    -9200.00
02787             120.00    -8800.00
02788             100.00    -8800.00
02789              80.00    -8600.00
02790             100.00    -8400.00
02791             100.00    -8200.00
02792             100.00    -8200.00
02793             100.00    -7800.00
02794             100.00    -7800.00
02795              80.00    -7600.00
02796              80.00    -7600.00
02797              80.00    -7200.00
02798             100.00    -7200.00
02799             100.00    -7000.00
02800             100.00    -7000.00
02801              80.00    -6600.00
02802              80.00    -6600.00
02803             100.00    -6400.00
02804              80.00    -6200.00
02805              80.00    -6000.00
02806             100.00    -5800.00
02807              80.00    -5800.00
02808              80.00    -5400.00
02809              80.00    -5200.00
02810              80.00    -5000.00
02811              80.00    -4600.00
02812              80.00    -4600.00
02813              80.00    -4400.00
02814              80.00    -4400.00
02815              80.00    -4200.00
02816              80.00    -3800.00
02817              60.00    -3800.00
02818              80.00    -3400.00
02819              80.00    -3200.00
02820              80.00    -3000.00
02821              80.00    -2800.00
02822              80.00    -2600.00
02823              80.00    -2200.00
02824              80.00    -2200.00
02825              80.00    -2000.00
02826              80.00    -1800.00
02827              80.00    -1600.00
02828              60.00    -1200.00
02829              80.00    -1000.00
02830              60.00     -800.00
02831              60.00     -600.00
02832              80.00     -400.00
02833              60.00     -400.00
02834              80.00        0.00
02835              60.00      200.00
02836              80.00      400.00
02837             160.00      600.00
02838             180.00      600.00
02839             160.00     1000.00
02840             140.00     1000.00
02841             140.00     1200.00
02842             140.00     1400.00
02843             280.00     1800.00
02844             900.00     2000.00
02845             960.00     2200.00
02846             -20.00     2400.00
02847            -800.00     2600.00
02848            -800.00     2800.00
02849            -700.00     3000.00
02850             420.00     3400.00
02851             500.00     3200.00
02852            -300.00     3600.00
02853             240.00     3600.00
02854               0.00     3800.00
02855            -160.00     4600.00
02856             160.00     4200.00
02857               0.00     4600.00
02858             260.00     5200.00
02859               0.00     4400.00
02860            -100.00     5800.00
02861               0.00     5400.00
02862            -100.00     5600.00
02863             160.00     6000.00
02864             -20.00     5800.00
02865               0.00     6600.00
02866              60.00     6000.00
02867             -40.00     6600.00
02868              20.00     6800.00
02869             -20.00     6800.00
02870              60.00     7400.00
02871             -60.00     7000.00
02872              20.00     7400.00
02873             -20.00     7600.00
02874             -80.00     7600.00
02875             -20.00     7800.00
02876              40.00     8000.00
02877              20.00     8200.00
02878             -60.00     8200.00
02879               0.00     8600.00
02880             -80.00     8600.00
02881               0.00     8800.00
02882             -20.00     9000.00
02883             -60.00     9200.00
02884             -60.00     9200.00
02885             -40.00     9400.00
02886             -20.00     9600.00
02887             -40.00     9400.00
02888              20.00     9800.00
02889             -80.00     9800.00
02890             -60.00    10000.00
02891             -60.00    10000.00
02892             -40.00    10200.00
02893             -60.00    10000.00
02894             -20.00    10400.00
02895             -80.00    10400.00
02896            -100.00    10600.00
02897             -20.00    10600.00
02898             -60.00    11000.00
02899             -60.00    10600.00
02900             -60.00    10800.00
02901             -80.00    11000.00
02902             -80.00    11000.00
02903             -80.00    11000.00
02904             -80.00    11000.00
02905             -80.00    11000.00
02906             -60.00    11200.00
02907             -60.00    11000.00
02908            -100.00    11400.00
02909             -80.00    11400.00
02910             -80.00    11400.00
02911             -80.00    11600.00
02912             -80.00    11400.00
02913            -100.00    11400.00
02914            -100.00    11400.00
02915            -100.00    11400.00
02916            -100.00    11400.00
02917            -100.00    11400.00
02918            -100.00    11400.00
02919            -100.00    11400.00
02920            -100.00    11400.00
02921            -100.00    11400.00
02922            -100.00    11400.00
02923            -100.00    11400.00
02924            -100.00    11400.00
02925            -100.00    11400.00
02926            -100.00    11400.00
02927            -100.00    11400.00
02928            -100.00    11000.00
02929            -100.00    11400.00
02930            -100.00    11000.00
02931            -100.00    11000.00
02932            -100.00    11000.00
02933            -100.00    11000.00
02934            -100.00    11000.00
02935            -100.00    10800.00
02936            -120.00    10800.00
02937            -120.00    10600.00
02938            -100.00    10800.00
02939            -100.00    10600.00
02940            -100.00    10600.00
02941            -100.00    10400.00
02942            -120.00    10200.00
02943            -100.00    10200.00
02944            -100.00    10000.00
02945            -100.00    10000.00
02946            -100.00     9800.00
02947            -100.00     9800.00
02948            -100.00     9800.00
02949            -100.00     9600.00
02950            -100.00     9400.00
02951            -100.00     9200.00
02952            -100.00     9200.00
02953            -100.00     9000.00
02954            -100.00     9000.00
02955            -100.00     9000.00
02956            -140.00     8600.00
02957            -100.00     8400.00
02958            -100.00     8200.00
02959            -100.00     8200.00
02960            -100.00     8200.00
02961            -100.00     7800.00
02962            -100.00     7800.00
02963            -100.00     7600.00
02964            -100.00     7400.00
02965            -100.00     7200.00
02966            -100.00     7200.00
02967            -100.00     7000.00
02968            -100.00     6600.00
02969            -100.00     6600.00
02970            -100.00     6200.00
02971            -100.00     6200.00
02972             -80.00     6000.00
02973            -100.00     5800.00
02974            -100.00     5800.00
02975            -100.00     5600.00
02976            -100.00     5200.00
02977            -100.00     5200.00
02978            -100.00     4800.00
02979            -100.00     4600.00
02980            -100.00     4600.00
02981            -100.00     4200.00
02982            -100.00     4200.00
02983            -100.00     3800.00
02984            -100.00     3600.00
02985             -80.00     3400.00
02986             -80.00     3400.00
02987             -80.00     3000.00
02988            -100.00     3000.00
02989             -80.00     2600.00
02990            -100.00     2200.00
02991             -80.00     2200.00
02992             -80.00     2000.00
02993             -80.00     1800.00
02994             -80.00     1600.00
02995             -80.00     1400.00
02996             -60.00     1200.00
02997             -60.00     1000.00
02998             -60.00      600.00
02999             -60.00      600.00
03000             -60.00      400.00
03001             -60.00        0.00
03002             -60.00     -200.00
03003             -20.00     -400.00
03004              60.00     -400.00
03005              80.00     -600.00
03006              60.00    -1000.00
03007               0.00    -1200.00
03008              20.00    -1200.00
03009              20.00    -1400.00
03010              60.00    -1800.00
03011             300.00    -1800.00
03012             820.00    -2200.00
03013             560.00    -2600.00
03014            -260.00    -2800.00
03015            -700.00    -2800.00
03016            -580.00    -3000.00
03017            -640.00    -3000.00
03018               0.00    -3200.00
03019             400.00    -3800.00
03020            -140.00    -3400.00
03021             180.00    -4000.00
03022             100.00    -4600.00
03023             -80.00    -3800.00
03024             220.00    -4600.00
03025             -20.00    -4600.00
03026             140.00    -4800.00
03027             140.00    -5200.00
03028            -100.00    -5200.00
03029             -60.00    -5600.00
03030             -20.00    -5400.00
03031              60.00    -6000.00
03032               0.00    -6000.00
03033              60.00    -6000.00
03034              20.00    -6800.00
03035             -20.00    -6600.00
03036             100.00    -7000.00
03037               0.00    -6800.00
03038              60.00    -7000.00
03039              80.00    -7400.00
03040               0.00    -7600.00
03041              20.00    -7800.00
03042              40.00    -7800.00
03043               0.00    -8200.00
03044              60.00    -8200.00
03045              80.00    -8200.00
03046              20.00    -8600.00
03047              20.00    -8600.00
03048              60.00    -9000.00
03049              40.00    -9000.00
03050              20.00    -9200.00
03051              60.00    -9000.00
03052              20.00    -9200.00
03053              20.00    -9400.00
03054              80.00    -9400.00
03055              60.00    -9800.00
03056              60.00    -9800.00
03057              80.00    -9800.00
03058              60.00   -10000.00
03059              60.00   -10000.00
03060              80.00   -10200.00
03061              60.00   -10200.00
03062              60.00   -10400.00
03063              60.00   -10400.00
03064              60.00   -10600.00
03065              60.00   -10600.00
03066              80.00   -10600.00
03067              80.00   -10800.00
03068              80.00   -11000.00
03069              80.00   -11000.00
03070              60.00   -11000.00
03071              60.00   -11000.00
03072              80.00   -11000.00
03073              80.00   -11200.00
03074              80.00   -11200.00
03075              80.00   -11000.00
03076              80.00   -11400.00
03077              80.00   -11400.00
03078              80.00   -11400.00
03079             100.00   -11400.00
03080             100.00   -11600.00
03081             100.00   -11400.00
03082             100.00   -11400.00
03083              80.00   -11400.00
03084              80.00   -11600.00
03085             100.00   -11400.00
03086             100.00   -11400.00
03087             120.00   -11400.00
03088             100.00   -11600.00
03089              80.00   -11400.00
03090             100.00   -11400.00
03091             100.00   -11400.00
03092             100.00   -11400.00
03093             140.00   -11200.00
03094             120.00   -11400.00
03095             120.00   -11400.00
03096             100.00   -11400.00
03097             100.00   -11400.00
03098             100.00   -11000.00
03099             120.00   -11000.00
03100             140.00   -11000.00
03101             140.00   -11000.00
03102             120.00   -10800.00
03103             100.00   -10800.00
03104             120.00   -10800.00
03105              80.00   -10800.00
03106             140.00   -10600.00
03107             100.00   -10600.00
03108             140.00   -10600.00
03109             100.00   -10400.00
03110             100.00   -10200.00
03111             100.00   -10000.00
03112             100.00   -10000.00
03113             100.00   -10000.00
03114             100.00    -9800.00
03115             120.00    -9800.00
03116             100.00    -9400.00
03117             100.00    -9400.00
03118             100.00    -9400.00
03119              80.00    -9200.00
03120             120.00    -9000.00
03121             100.00    -9000.00
03122             100.00    -9000.00
03123             100.00    -8600.00
03124             100.00    -8600.00
03125             100.00    -8400.00
03126             100.00    -8400.00
03127             100.00    -8200.00
03128             100.00    -8000.00
03129              80.00    -7800.00
03130             100.00    -7600.00
03131              80.00    -7400.00
03132             100.00    -7200.00
03133             100.00    -7000.00
03134             100.00    -6800.00
03135              80.00    -6800.00
03136             100.00    -6600.00
03137              80.00    -6200.00
03138             100.00    -6200.00
03139             100.00    -6000.00
03140             100.00    -5800.00
03141              80.00    -5600.00
03142              80.00    -5400.00
03143              80.00    -5400.00
03144              80.00    -5000.00
03145              80.00    -5000.00
03146              80.00    -4600.00
03147             100.00    -4600.00
03148              80.00    -4400.00
03149              80.00    -4200.00
03150              80.00    -3800.00
03151              80.00    -3600.00
03152              80.00    -3600.00
03153              80.00    -3200.00
03154              80.00    -3000.00
03155              80.00    -3000.00
03156              80.00    -2800.00
03157              60.00    -2400.00
03158              80.00    -2200.00
03159              80.00    -2000.00
03160              80.00    -2000.00
03161              80.00    -1600.00
03162              80.00    -1400.00
03163              60.00    -1200.00
03164              60.00    -1000.00
03165              60.00     -800.00
03166              80.00     -600.00
03167              60.00     -400.00
03168              80.00     -200.00
03169              60.00      200.00
03170              60.00      400.00
03171             140.00      400.00
03172             180.00      600.00
03173             180.00     1000.00
03174             140.00     1000.00
03175             140.00     1200.00
03176             120.00     1400.00
03177             160.00     1800.00
03178             600.00     2000.00
03179            1100.00     2200.00
03180             440.00     2600.00
03181            -580.00     2600.00
03182            -820.00     2800.00
03183            -820.00     3000.00
03184            -140.00     3400.00
03185             740.00     3400.00
03186            -100.00     3400.00
03187               0.00     3800.00
03188             240.00     3600.00
03189            -240.00     4400.00
03190             100.00     4200.00
03191              60.00     4200.00
03192             140.00     5200.00
03193             220.00     4600.00
03194            -140.00     5200.00
03195              20.00     5600.00
03196            -140.00     5200.00
03197              40.00     6000.00
03198             100.00     5800.00
03199             -60.00     6200.00
03200             100.00     6200.00
03201             -40.00     6400.00
03202              20.00     7000.00
03203               0.00     6600.00
03204              20.00     7400.00
03205               0.00     7000.00
03206             -20.00     7400.00
03207              20.00     7800.00
03208             -80.00     7600.00
03209             -20.00     8000.00
03210               0.00     7800.00
03211              60.00     8200.00
03212             -60.00     8200.00
03213               0.00     8600.00
03214             -20.00     8600.00
03215             -60.00     8600.00
03216               0.00     9000.00
03217             -20.00     9000.00
03218             -60.00     9400.00
03219             -60.00     9400.00
03220             -20.00     9600.00
03221             -60.00     9400.00
03222               0.00     9800.00
03223             -40.00     9800.00
03224            -100.00     9800.00
03225             -20.00    10000.00
03226             -40.00    10200.00
03227             -40.00    10200.00
03228             -60.00    10200.00
03229             -60.00    10600.00
03230            -100.00    10600.00
03231             -60.00    10600.00
03232             -20.00    10600.00
03233             -60.00    10800.00
03234             -60.00    10800.00
03235             -60.00    11000.00
03236             -80.00    11000.00
03237             -80.00    11000.00
03238             -80.00    11000.00
03239             -80.00    11000.00
03240             -80.00    11200.00
03241             -60.00    11200.00
03242             -80.00    11200.00
03243            -100.00    11400.00
03244             -80.00    11200.00
03245            -100.00    11400.00
03246            -100.00    11400.00
03247             -80.00    11400.00
03248            -100.00    11600.00
03249            -100.00    11600.00
03250            -100.00    11400.00
03251            -100.00    11400.00
03252            -100.00    11600.00
03253            -100.00    11600.00
03254            -100.00    11400.00
03255            -100.00    11400.00
03256            -100.00    11400.00
03257            -100.00    11400.00
03258            -140.00    11400.00
03259            -100.00    11400.00
03260            -100.00    11400.00
03261            -100.00    11400.00
03262            -100.00    11400.00
03263            -120.00    11400.00
03264            -100.00    11000.00
03265            -120.00    11200.00
03266            -100.00    11000.00
03267            -120.00    11000.00
03268            -100.00    11000.00
03269            -100.00    10800.00
03270            -100.00    11000.00
03271            -100.00    10600.00
03272            -100.00    10600.00
03273            -100.00    10800.00
03274            -100.00    10600.00
03275            -100.00    10600.00
03276            -100.00    10400.00
03277            -100.00    10200.00
03278            -100.00    10200.00
03279            -100.00    10000.00
03280            -100.00    10000.00
03281            -100.00     9800.00
03282            -100.00     9800.00
03283            -100.00     9800.00
03284            -100.00     9600.00
03285            -120.00     9200.00
03286            -100.00     9200.00
03287            -100.00     9000.00
03288            -100.00     9000.00
03289            -100.00     8800.00
03290            -100.00     8600.00
03291            -100.00     8600.00
03292            -100.00     8400.00
03293            -100.00     8200.00
03294            -100.00     8200.00
03295            -100.00     7800.00
03296            -100.00     7800.00
03297            -100.00     7600.00
03298            -100.00     7400.00
03299            -100.00     7400.00
03300            -100.00     7000.00
03301            -100.00     7000.00
03302            -100.00     6800.00
03303            -100.00     6600.00
03304            -100.00     6600.00
03305            -100.00     6200.00
03306            -100.00     6000.00
03307            -100.00     6000.00
03308            -100.00     5800.00
03309            -100.00     5600.00
03310            -100.00     5200.00
03311            -100.00     5200.00
03312            -100.00     5000.00
03313            -100.00     5000.00
03314             -80.00     4400.00
03315            -100.00     4400.00
03316            -100.00     4200.00
03317            -100.00     4000.00
03318            -100.00     3800.00
03319             -80.00     3600.00
03320             -80.00     3400.00
03321             -80.00     3200.00
03322            -100.00     3000.00
03323            -100.00     2800.00
03324            -100.00     2600.00
03325             -80.00     2200.00
03326             -80.00     2200.00
03327             -80.00     2000.00
03328             -80.00     1800.00
03329             -80.00     1600.00
03330             -80.00     1200.00
03331             -80.00     1000.00
03332             -60.00     1000.00
03333             -40.00      600.00
03334             -60.00      400.00
03335             -60.00      200.00
03336             -60.00        0.00
03337             -20.00     -400.00
03338              20.00     -400.00
03339              80.00     -400.00
03340              80.00     -800.00
03341              60.00    -1000.00
03342               0.00    -1200.00
03343              20.00    -1400.00
03344              20.00    -1600.00
03345             160.00    -1800.00
03346             600.00    -2000.00
03347             820.00    -2400.00
03348             100.00    -2800.00
03349            -580.00    -2800.00
03350            -640.00    -3000.00
03351            -640.00    -3000.00
03352            -380.00    -3000.00
03353             400.00    -3600.00
03354              60.00    -3800.00
03355             -20.00    -3600.00
03356             240.00    -4600.00
03357            -100.00    -4000.00
03358             140.00    -4400.00
03359              80.00    -5000.00
03360               0.00    -4600.00
03361             220.00    -5200.00
03362             -40.00    -5200.00
03363             -80.00    -5800.00
03364             -20.00    -5400.00
03365              20.00    -5800.00
03366              40.00    -6200.00
03367               0.00    -5800.00
03368              60.00    -6600.00
03369             -60.00    -6600.00
03370              80.00    -6600.00
03371              60.00    -7000.00
03372             -20.00    -7000.00
03373              80.00    -7400.00
03374               0.00    -7200.00
03375               0.00    -7800.00
03376              20.00    -7600.00
03377              20.00    -7800.00
03378              20.00    -8200.00
03379              80.00    -8400.00
03380              60.00    -8600.00
03381               0.00    -8600.00
03382              60.00    -8600.00
03383              80.00    -8800.00
03384              20.00    -9000.00
03385              60.00    -9200.00
03386              60.00    -9400.00
03387              20.00    -9400.00
03388              60.00    -9400.00
03389              80.00    -9400.00
03390              60.00    -9800.00
03391              60.00    -9800.00
03392              60.00   -10000.00
03393              60.00   -10000.00
03394              80.00   -10200.00
03395              60.00   -10200.00
03396              60.00   -10200.00
03397              60.00   -10400.00
03398              60.00   -10600.00
03399              60.00   -10600.00
03400              80.00   -10600.00
03401             100.00   -10800.00
03402              80.00   -10800.00
03403              80.00   -11000.00
03404              80.00   -10800.00
03405              60.00   -11000.00
03406              80.00   -11000.00
03407              80.00   -11000.00
03408             100.00   -11200.00
03409              80.00   -11200.00
03410             100.00   -11200.00
03411              80.00   -11400.00
03412              80.00   -11400.00
03413             100.00   -11400.00
03414             100.00   -11400.00
03415             100.00   -11400.00
03416              80.00   -11600.00
03417             100.00   -11400.00
03418              80.00   -11400.00
03419              80.00   -11400.00
03420              80.00   -11400.00
03421             100.00   -11400.00
03422             120.00   -11400.00
03423             100.00   -11400.00
03424             100.00   -11400.00
03425             100.00   -11400.00
03426             100.00   -11200.00
03427             120.00   -11400.00
03428             100.00   -11400.00
03429             140.00   -11400.00
03430             100.00   -11400.00
03431              80.00   -11400.00
03432             100.00   -11000.00
03433             100.00   -11000.00
03434             100.00   -11000.00
03435             100.00   -11000.00
03436             120.00   -11000.00
03437             100.00   -10800.00
03438             100.00   -10800.00
03439             100.00   -10600.00
03440             100.00   -10800.00
03441             140.00   -10600.00
03442             120.00   -10400.00
03443             100.00   -10200.00
03444             100.00   -10400.00
03445              80.00   -10200.00
03446             100.00   -10000.00
03447             100.00   -10000.00
03448             100.00   -10000.00
03449             120.00    -9800.00
03450             100.00    -9600.00
03451             100.00    -9400.00
03452             100.00    -9400.00
03453             120.00    -9200.00
03454             100.00    -9000.00
03455             100.00    -9000.00
03456             100.00    -9000.00
03457              80.00    -8600.00
03458              80.00    -8600.00
03459             100.00    -8400.00
03460             100.00    -8200.00
03461             100.00    -8000.00
03462             100.00    -8000.00
03463             100.00    -7800.00
03464             100.00    -7800.00
03465             100.00    -7600.00
03466             100.00    -7200.00
03467             100.00    -7200.00
03468             100.00    -7000.00
03469             100.00    -6800.00
03470             100.00    -6800.00
03471              80.00    -6600.00
03472             100.00    -6200.00
03473             100.00    -6200.00
03474             100.00    -6000.00
03475             100.00    -5800.00
03476              80.00    -5600.00
03477              80.00    -5400.00
03478              80.00    -5200.00
03479              80.00    -5000.00
03480              80.00    -4800.00
03481             100.00    -4600.00
03482              80.00    -4400.00
03483              80.00    -4200.00
03484              80.00    -4000.00
03485              80.00    -3800.00
03486              80.00    -3600.00
03487             100.00    -3400.00
03488              80.00    -3200.00
03489              80.00    -2800.00
03490              80.00    -2800.00
03491              80.00    -2600.00
03492              80.00    -2200.00
03493              80.00    -2200.00
03494              80.00    -2000.00
03495              80.00    -1800.00
03496              80.00    -1400.00
03497              60.00    -1200.00
03498              60.00    -1000.00
03499              60.00     -600.00
03500              60.00     -600.00
03501              60.00     -400.00
03502              60.00     -200.00
03503              60.00        0.00
03504              60.00      200.00
03505              80.00      400.00
03506             160.00      600.00
03507             180.00      600.00
03508             160.00     1000.00
03509             140.00     1000.00
03510             100.00     1400.00
03511             140.00     1400.00
03512             340.00     1800.00
03513             960.00     2200.00
03514             860.00     2400.00
03515            -180.00     2600.00
03516            -840.00     2600.00
03517            -800.00     2800.00
03518            -580.00     3400.00
03519             560.00     3400.00
03520             380.00     3400.00
03521            -260.00     3800.00
03522             300.00     3600.00
03523             -80.00     4200.00
03524            -100.00     4600.00
03525             160.00     4000.00
03526               0.00     5000.00
03527             300.00     5000.00
03528             -60.00     4600.00
03529             -60.00     5800.00
03530             -20.00     5200.00
03531            -100.00     5800.00
03532             160.00     6000.00
03533             -20.00     5800.00
03534              60.00     6400.00
03535              20.00     6200.00
03536             -20.00     6800.00
03537              20.00     6600.00
03538               0.00     7000.00
03539              40.00     7400.00
03540             -60.00     7000.00
03541              60.00     7600.00
03542             -20.00     7400.00
03543             -60.00     7800.00
03544               0.00     8000.00
03545              20.00     8200.00
03546               0.00     8400.00
03547             -20.00     8200.00
03548               0.00     8600.00
03549             -80.00     8600.00
03550               0.00     9000.00
03551               0.00     9000.00
03552             -40.00     9000.00
03553             -60.00     9200.00
03554             -20.00     9400.00
03555             -60.00     9600.00
03556             -20.00     9400.00
03557               0.00     9800.00
03558             -80.00     9800.00
03559             -60.00     9800.00
03560             -60.00    10200.00
03561             -20.00    10000.00
03562             -60.00    10200.00
03563             -60.00    10400.00
03564            -100.00    10600.00
03565            -100.00    10600.00
03566             -20.00    10600.00
03567             -60.00    10600.00
03568             -80.00    10800.00
03569             -60.00    10800.00
03570             -80.00    11000.00
03571            -100.00    10800.00
03572             -80.00    11000.00
03573             -80.00    11000.00
03574            -100.00    11000.00
03575             -60.00    11400.00
03576             -60.00    11400.00
03577            -100.00    11400.00
03578            -100.00    11400.00
03579            -100.00    11400.00
03580            -100.00    11400.00
03581             -80.00    11600.00
03582             -80.00    11400.00
03583            -100.00    11400.00
03584             -80.00    11400.00
03585             -80.00    11400.00
03586            -100.00    11400.00
03587            -100.00    11600.00
03588             -80.00    11400.00
03589            -100.00    11400.00
03590            -100.00    11600.00
03591            -100.00    11400.00
03592            -100.00    11600.00
03593            -100.00    11400.00
03594             -80.00    11400.00
03595            -100.00    11400.00
03596            -100.00    11400.00
03597            -100.00    11400.00
03598            -100.00    11200.00
03599            -100.00    11000.00
03600            -100.00    11200.00
03601            -100.00    11000.00
03602            -100.00    11000.00
03603            -100.00    11000.00
03604            -100.00    10800.00
03605            -100.00    10800.00
03606            -100.00    10600.00
03607            -100.00    10600.00
03608            -100.00    10600.00
03609            -100.00    10600.00
03610            -100.00    10400.00
03611            -120.00    10200.00
03612            -100.00    10200.00
03613            -100.00    10000.00
03614            -100.00    10200.00
03615            -100.00    10000.00
03616            -100.00     9800.00
03617            -100.00     9800.00
03618            -120.00     9800.00
03619            -100.00     9400.00
03620            -100.00     9400.00
03621            -100.00     9200.00
03622            -100.00     9000.00
03623            -100.00     8800.00
03624            -100.00     8600.00
03625            -140.00     8600.00
03626            -100.00     8400.00
03627            -100.00     8400.00
03628             -80.00     8200.00
03629            -100.00     7800.00
03630            -100.00     7800.00
03631            -100.00     7800.00
03632            -100.00     7600.00
03633            -100.00     7200.00
03634            -100.00     7000.00
03635            -100.00     7000.00
03636            -100.00     7000.00
03637            -100.00     6600.00
03638            -100.00     6600.00
03639            -100.00     6200.00
03640            -100.00     6200.00
03641            -100.00     5800.00
03642            -100.00     5800.00
03643            -100.00     5800.00
03644            -100.00     5600.00
03645            -100.00     5200.00
03646            -100.00     5000.00
03647            -100.00     4800.00
03648            -100.00     4600.00
03649             -80.00     4400.00
03650            -100.00     4200.00
03651            -100.00     4200.00
03652            -100.00     3800.00
03653            -100.00     3600.00
03654             -80.00     3400.00
03655             -80.00     3400.00
03656             -80.00     3000.00
03657            -100.00     2800.00
03658            -100.00     2800.00
03659             -80.00     2200.00
03660             -80.00     2200.00
03661             -80.00     2000.00
03662             -80.00     1800.00
03663             -80.00     1400.00
03664             -60.00     1400.00
03665             -60.00     1200.00
03666             -60.00     1000.00
03667             -60.00      600.00
03668             -60.00      400.00
03669             -60.00      200.00
03670             -60.00      200.00
03671             -20.00     -200.00
03672               0.00     -400.00
03673              60.00     -600.00
03674             100.00     -800.00
03675              60.00    -1000.00
03676              20.00    -1200.00
03677              20.00    -1200.00
03678              20.00    -1400.00
03679              80.00    -1800.00
03680             380.00    -1800.00
03681             860.00    -2400.00
03682             480.00    -2800.00
03683            -360.00    -2800.00
03684            -700.00    -3000.00
03685            -580.00    -3000.00
03686            -620.00    -3000.00
03687             120.00    -3200.00
03688             340.00    -4000.00
03689            -160.00    -3400.00
03690             220.00    -4400.00
03691              20.00    -4200.00
03692             -40.00    -4000.00
03693             180.00    -5000.00
03694             -60.00    -4800.00
03695             160.00    -5000.00
03696              80.00    -5400.00
03697            -100.00    -5400.00
03698             -60.00    -5800.00
03699             -20.00    -5400.00
03700              60.00    -6200.00
03701             -20.00    -6000.00
03702              60.00    -6400.00
03703               0.00    -6600.00
03704               0.00    -6600.00
03705             100.00    -7000.00
03706             -20.00    -7000.00
03707              60.00    -7400.00
03708              60.00    -7200.00
03709               0.00    -7600.00
03710              20.00    -7800.00
03711              20.00    -7800.00
03712               0.00    -8200.00
03713              60.00    -8200.00
03714              80.00    -8400.00
03715               0.00    -8600.00
03716              20.00    -8600.00
03717              60.00    -8800.00
03718              60.00    -9000.00
03719              20.00    -9000.00
03720              40.00    -9200.00
03721              20.00    -9200.00
03722              60.00    -9400.00
03723              80.00    -9400.00
03724              60.00    -9800.00
03725              60.00    -9800.00
03726              60.00    -9800.00
03727              60.00   -10000.00
03728              60.00   -10200.00
03729              60.00   -10000.00
03730              60.00   -10400.00
03731              60.00   -10600.00
03732              60.00   -10400.00
03733              60.00   -10800.00
03734              60.00   -10600.00
03735             100.00   -10600.00
03736              80.00   -10800.00
03737             100.00   -10800.00
03738              80.00   -11000.00
03739              80.00   -10800.00
03740              60.00   -10800.00
03741              80.00   -11000.00
03742             100.00   -11000.00
03743             100.00   -11400.00
03744              80.00   -11200.00
03745              80.00   -11400.00
03746              80.00   -11200.00
03747              80.00   -11400.00
03748             100.00   -11400.00
03749             100.00   -11600.00
03750             100.00   -11400.00
03751              80.00   -11400.00
03752              80.00   -11400.00
03753              80.00   -11400.00
03754             100.00   -11400.00
03755             100.00   -11400.00
03756             120.00   -11400.00
03757             120.00   -11400.00
03758             100.00   -11400.00
03759              80.00   -11400.00
03760              80.00   -11400.00
03761             100.00   -11400.00
03762             100.00   -11400.00
03763             120.00   -11400.00
03764             120.00   -11400.00
03765              80.00   -11400.00
03766             100.00   -11000.00
03767              80.00   -11000.00
03768             100.00   -11000.00
03769             100.00   -11000.00
03770             100.00   -11000.00
03771             100.00   -10800.00
03772             100.00   -10800.00
03773             100.00   -10800.00
03774             100.00   -10600.00
03775             100.00   -10800.00
03776             140.00   -10400.00
03777             100.00   -10600.00
03778             100.00   -10400.00
03779             100.00   -10200.00
03780             100.00   -10000.00
03781             120.00   -10000.00
03782             100.00   -10000.00
03783             120.00    -9800.00
03784             100.00    -9800.00
03785             100.00    -9800.00
03786              80.00    -9400.00
03787             100.00    -9200.00
03788             120.00    -9200.00
03789             100.00    -9200.00
03790             100.00    -9000.00
03791             100.00    -8800.00
03792             100.00    -8600.00
03793             100.00    -8400.00
03794             100.00    -8400.00
03795             100.00    -8400.00
03796             120.00    -7800.00
03797             100.00    -8000.00
03798             100.00    -7800.00
03799              80.00    -7600.00
03800              80.00    -7600.00
03801             100.00    -7200.00
03802             100.00    -7000.00
03803             100.00    -7000.00
03804             100.00    -6800.00
03805             100.00    -6600.00
03806              80.00    -6400.00
03807              80.00    -6200.00
03808              80.00    -6000.00
03809             100.00    -5800.00
03810              80.00    -5600.00
03811             100.00    -5400.00
03812              80.00    -5400.00
03813              80.00    -5000.00
03814              80.00    -5000.00
03815              80.00    -4600.00
03816             100.00    -4600.00
03817              80.00    -4200.00
03818              80.00    -4200.00
03819              60.00    -3800.00
03820              80.00    -3600.00
03821              80.00    -3400.00
03822              80.00    -3400.00
03823              80.00    -3000.00
03824              60.00    -2800.00
03825              60.00    -2800.00
03826              60.00    -2600.00
03827              80.00    -2200.00
03828              60.00    -2200.00
03829              60.00    -1800.00
03830              60.00    -1600.00
03831              60.00    -1400.00
03832              40.00    -1200.00
03833              60.00     -800.00
03834              60.00     -800.00
03835              80.00     -600.00
03836              60.00     -400.00
03837              60.00     -200.00
03838              60.00      200.00
03839              60.00      200.00
03840             140.00      600.00
03841             180.00      800.00
03842             160.00     1000.00
03843             140.00     1000.00
03844             140.00     1400.00
03845             140.00     1400.00
03846             180.00     1800.00
03847             700.00     2000.00
03848            1060.00     2200.00
03849             300.00     2400.00
03850            -660.00     2600.00
03851            -820.00     2600.00
03852            -800.00     3000.00
03853              60.00     3400.00
03854             720.00     3400.00
03855            -180.00     3600.00
03856              80.00     3800.00
03857             180.00     3800.00
03858            -240.00     4600.00
03859             140.00     4400.00
03860              20.00     4400.00
03861             180.00     5200.00
03862             140.00     4600.00
03863            -140.00     5400.00
03864               0.00     5600.00
03865            -140.00     5400.00
03866             100.00     6200.00
03867              60.00     5800.00
03868             -20.00     6200.00
03869              80.00     6200.00
03870             -60.00     6600.00
03871              60.00     6800.00
03872               0.00     6600.00
03873              60.00     7400.00
03874             -20.00     7000.00
03875               0.00     7400.00
03876              20.00     7600.00
03877             -80.00     7800.00
03878             -20.00     8200.00
03879              20.00     7800.00
03880              60.00     8400.00
03881             -60.00     8200.00
03882               0.00     8600.00
03883             -80.00     8600.00
03884             -20.00     8800.00
03885               0.00     9200.00
03886             -20.00     9000.00
03887             -60.00     9200.00
03888             -60.00     9400.00
03889             -20.00     9400.00
03890             -40.00     9400.00
03891               0.00     9800.00
03892             -60.00     9800.00
03893             -80.00    10000.00
03894             -80.00    10000.00
03895             -80.00    10000.00
03896             -60.00    10200.00
03897             -60.00    10600.00
03898             -60.00    10400.00
03899            -100.00    10200.00
03900             -60.00    10600.00
03901             -20.00    10600.00
03902             -80.00    10800.00
03903             -60.00    10800.00
03904             -60.00    11000.00
03905            -100.00    11000.00
03906            -100.00    11000.00
03907             -80.00    11200.00
03908            -100.00    11000.00
03909             -80.00    11200.00
03910             -80.00    11200.00
03911            -100.00    11400.00
03912            -100.00    11400.00
03913            -100.00    11400.00
03914             -80.00    11400.00
03915             -80.00    11600.00
03916             -80.00    11400.00
03917            -100.00    11400.00
03918            -100.00    11600.00
03919            -100.00    11400.00
03920            -100.00    11400.00
03921            -100.00    11600.00
03922             -80.00    11400.00
03923             -80.00    11600.00
03924            -100.00    11400.00
03925            -100.00    11600.00
03926            -100.00    11400.00
03927            -100.00    11400.00
03928            -100.00    11400.00
03929            -100.00    11400.00
03930            -100.00    11400.00
03931            -100.00    11400.00
03932            -100.00    11200.00
03933            -100.00    11000.00
03934            -100.00    11400.00
03935            -100.00    11000.00
03936            -100.00    11000.00
03937            -100.00    11000.00
03938            -100.00    10800.00
03939            -100.00    10800.00
03940            -100.00    10600.00
03941            -100.00    10800.00
03942            -100.00    10600.00
03943            -100.00    10600.00
03944            -100.00    10400.00
03945            -100.00    10200.00
03946            -120.00    10200.00
03947            -100.00    10200.00
03948            -100.00    10000.00
03949            -100.00    10000.00
03950            -100.00    10000.00
03951            -100.00     9800.00
03952            -100.00     9600.00
03953            -100.00     9400.00
03954            -100.00     9200.00
03955            -100.00     9200.00
03956            -100.00     9200.00
03957            -100.00     9000.00
03958            -100.00     8800.00
03959            -140.00     8600.00
03960            -120.00     8600.00
03961            -100.00     8400.00
03962            -100.00     8200.00
03963            -100.00     8200.00
03964            -120.00     8000.00
03965            -100.00     7800.00
03966            -100.00     7600.00
03967            -100.00     7600.00
03968            -100.00     7200.00
03969            -100.00     7000.00
03970            -100.00     6800.00
03971            -100.00     6800.00
03972            -100.00     6600.00
03973            -140.00     6400.00
03974            -100.00     6200.00
03975            -100.00     6000.00
03976            -100.00     6000.00
03977            -100.00     5600.00
03978            -100.00     5400.00
03979            -100.00     5600.00
03980            -100.00     5000.00
03981            -100.00     5000.00
03982            -100.00     4600.00
03983             -80.00     4600.00
03984             -80.00     4400.00
03985            -100.00     4200.00
03986            -100.00     4000.00
03987             -80.00     3800.00
03988             -80.00     3600.00
03989             -80.00     3400.00
03990             -80.00     3000.00
03991            -100.00     3000.00
03992            -100.00     2600.00
03993            -100.00     2600.00
03994             -80.00     2200.00
03995             -60.00     2000.00
03996             -60.00     1800.00
03997             -60.00     1400.00
03998             -80.00     1400.00
03999             -60.00     1200.00
04000             -60.00     1000.00
04001             -60.00      800.00
04002             -60.00      600.00
04003             -60.00      400.00
04004             -60.00      200.00
04005             -60.00        0.00
04006             -40.00     -200.00
04007              20.00     -400.00
04008              80.00     -600.00
04009              80.00     -800.00
04010              20.00    -1000.00
04011              20.00    -1200.00
04012               0.00    -1400.00
04013              60.00    -1800.00
04014             200.00    -1800.00
04015             680.00    -2200.00
04016             780.00    -2600.00
04017             -20.00    -2600.00
04018            -660.00    -2800.00
04019            -620.00    -3000.00
04020            -640.00    -3000.00
04021            -260.00    -3000.00
04022             440.00    -3800.00
04023             -20.00    -3600.00
04024              20.00    -3800.00
04025             220.00    -4600.00
04026            -120.00    -4000.00
04027             160.00    -4600.00
04028              20.00    -5000.00
04029              60.00    -5000.00
04030             220.00    -5400.00
04031             -80.00    -5200.00
04032             -80.00    -5800.00
04033             -60.00    -5400.00
04034              20.00    -6000.00
04035              20.00    -6200.00
04036               0.00    -5800.00
04037              60.00    -6600.00
04038             -60.00    -6400.00
04039             100.00    -6800.00
04040              20.00    -7000.00
04041              20.00    -7000.00
04042              80.00    -7200.00
04043               0.00    -7400.00
04044               0.00    -7600.00
04045              40.00    -7800.00
04046              20.00    -8200.00
04047               0.00    -8200.00
04048              80.00    -8200.00
04049              60.00    -8600.00
04050              20.00    -8600.00
04051              60.00    -8600.00
04052              60.00    -9000.00
04053              20.00    -9000.00
04054              60.00    -9200.00
04055              60.00    -9200.00
04056              20.00    -9400.00
04057              80.00    -9400.00
04058              60.00    -9600.00
04059              60.00    -9800.00
04060              60.00   -10000.00
04061              60.00   -10000.00
04062              60.00   -10000.00
04063              80.00   -10000.00
04064              80.00   -10200.00
04065              80.00   -10600.00
04066              60.00   -10400.00
04067              60.00   -10400.00
04068              60.00   -10600.00
04069             100.00   -10600.00
04070             100.00   -10800.00
04071              80.00   -10800.00
04072              80.00   -10800.00
04073              80.00   -11000.00
04074              60.00   -11000.00
04075              80.00   -11000.00
04076             100.00   -11000.00
04077             100.00   -11200.00
04078             100.00   -11400.00
04079              80.00   -11200.00
04080              80.00   -11400.00
04081              80.00   -11400.00
04082             100.00   -11400.00
04083             100.00   -11400.00
04084             100.00   -11400.00
04085              80.00   -11400.00
04086              80.00   -11400.00
04087              80.00   -11400.00
04088             100.00   -11400.00
04089             100.00   -11600.00
04090             100.00   -11400.00
04091             120.00   -11400.00
04092              80.00   -11400.00
04093              80.00   -11600.00
04094             100.00   -11400.00
04095             100.00   -11400.00
04096             100.00   -11400.00
04097             140.00   -11200.00
04098             100.00   -11400.00
04099             100.00   -11400.00
04100              80.00   -11000.00
04101             100.00   -11200.00
04102             100.00   -11000.00
04103             120.00   -11000.00
04104             100.00   -10800.00
04105             100.00   -11000.00
04106             100.00   -11000.00
04107             100.00   -10800.00
04108             100.00   -10800.00
04109             140.00   -10800.00
04110             120.00   -10600.00
04111             120.00   -10600.00
04112             100.00   -10200.00
04113             100.00   -10200.00
04114             100.00   -10200.00
04115             120.00   -10000.00
04116             120.00    -9800.00
04117             140.00    -9800.00
04118             100.00    -9800.00
04119             100.00    -9600.00
04120             100.00    -9400.00
04121             100.00    -9400.00
04122             100.00    -9200.00
04123             140.00    -9200.00
04124             100.00    -9000.00
04125             100.00    -9000.00
04126             120.00    -8600.00
04127              80.00    -8600.00
04128             120.00    -8400.00
04129             100.00    -8400.00
04130             120.00    -8200.00
04131             100.00    -8000.00
04132             100.00    -7800.00
04133             100.00    -7600.00
04134             100.00    -7200.00
04135             100.00    -7200.00
04136             120.00    -7200.00
04137             100.00    -7000.00
04138             100.00    -6800.00
04139             100.00    -6600.00
04140             100.00    -6400.00
04141             100.00    -6200.00
04142             100.00    -6000.00
04143             100.00    -6000.00
04144             100.00    -5600.00
04145             100.00    -5600.00
04146              80.00    -5400.00
04147              80.00    -5000.00
04148              80.00    -5000.00
04149              80.00    -4800.00
04150             100.00    -4600.00
04151              80.00    -4400.00
04152              80.00    -4200.00
04153              80.00    -4000.00
04154              80.00    -3800.00
04155              80.00    -3600.00
04156              80.00    -3400.00
04157              80.00    -3000.00
04158              60.00    -3000.00
04159              60.00    -2800.00
04160              60.00    -2600.00
04161              60.00    -2200.00
04162              60.00    -2200.00
04163              80.00    -1800.00
04164              80.00    -1800.00
04165              80.00    -1400.00
04166              60.00    -1200.00
04167              60.00    -1000.00
04168              60.00     -600.00
04169              60.00     -600.00
04170              60.00     -400.00
04171              80.00     -200.00
04172              60.00        0.00
04173              80.00      200.00
04174             100.00      600.00
04175             160.00      600.00
04176             160.00      800.00
04177             160.00     1000.00
04178             120.00     1200.00
04179             140.00     1400.00
04180             140.00     1600.00
04181             400.00     1800.00
04182            1040.00     2200.00
04183             740.00     2600.00
04184            -320.00     2600.00
04185            -840.00     2600.00
04186            -800.00     3000.00
04187            -460.00     3400.00
04188             660.00     3400.00
04189             220.00     3400.00
04190            -180.00     3800.00
04191             320.00     3600.00
04192            -160.00     4200.00
04193             -20.00     4600.00
04194             140.00     4200.00
04195              60.00     5200.00
04196             260.00     4800.00
04197            -100.00     5000.00
04198               0.00     5800.00
04199             -80.00     5200.00
04200             -60.00     5800.00
04201             160.00     6000.00
04202             -60.00     6000.00
04203              60.00     6400.00
04204               0.00     6200.00
04205               0.00     6800.00
04206               0.00     6600.00
04207               0.00     7000.00
04208              40.00     7200.00
04209             -60.00     7000.00
04210              60.00     7800.00
04211             -60.00     7600.00
04212             -60.00     7800.00
04213               0.00     8000.00
04214              60.00     8200.00
04215             -20.00     8200.00
04216             -40.00     8400.00
04217             -20.00     8600.00
04218             -80.00     8600.00
04219               0.00     9000.00
04220             -40.00     9000.00
04221             -60.00     9200.00
04222             -60.00     9200.00
04223             -20.00     9600.00
04224             -60.00     9400.00
04225             -20.00     9600.00
04226             -20.00     9800.00
04227             -80.00     9800.00
04228             -80.00    10000.00
04229             -60.00    10000.00
04230             -60.00    10200.00
04231             -60.00    10200.00
04232             -60.00    10400.00
04233            -100.00    10400.00
04234             -80.00    10600.00
04235             -20.00    10600.00
04236             -60.00    10600.00
04237             -80.00    10800.00
04238             -60.00    10800.00
04239            -100.00    11000.00
04240            -100.00    10800.00
04241             -80.00    11000.00
04242            -100.00    11000.00
04243             -80.00    11200.00
04244             -60.00    11200.00
04245             -80.00    11400.00
04246            -100.00    11400.00
04247             -80.00    11400.00
04248             -80.00    11400.00
04249             -80.00    11400.00
04250             -80.00    11600.00
04251            -100.00    11400.00
04252            -100.00    11400.00
04253            -100.00    11400.00
04254             -80.00    11400.00
04255            -100.00    11400.00
04256             -80.00    11600.00
04257             -80.00    11400.00
04258             -80.00    11600.00
04259            -100.00    11600.00
04260            -100.00    11400.00
04261            -100.00    11600.00
04262            -100.00    11400.00
04263            -100.00    11400.00
04264            -100.00    11200.00
04265            -100.00    11400.00
04266            -100.00    11200.00
04267            -100.00    11400.00
04268            -100.00    11000.00
04269            -100.00    11000.00
04270            -100.00    11000.00
04271             -80.00    11000.00
04272             -80.00    11000.00
04273            -100.00    10800.00
04274            -140.00    10800.00
04275            -120.00    10600.00
04276            -100.00    10800.00
04277             -80.00    10600.00
04278            -100.00    10600.00
04279            -100.00    10400.00
04280            -140.00    10200.00
04281            -120.00    10200.00
04282            -100.00    10200.00
04283            -100.00    10000.00
04284            -100.00    10000.00
04285            -100.00     9800.00
04286            -120.00     9800.00
04287            -140.00     9400.00
04288            -120.00     9400.00
04289            -140.00     9400.00
04290            -100.00     9200.00
04291            -100.00     9000.00
04292            -100.00     8800.00
04293            -120.00     8600.00
04294            -140.00     8600.00
04295            -100.00     8600.00
04296            -100.00     8200.00
04297            -100.00     8200.00
04298            -100.00     8000.00
04299            -120.00     7800.00
04300            -100.00     7800.00
04301            -120.00     7400.00
04302            -100.00     7400.00
04303            -100.00     7000.00
04304            -100.00     7000.00
04305            -100.00     6600.00
04306            -120.00     6800.00
04307            -100.00     6400.00
04308            -100.00     6200.00
04309            -100.00     6000.00
04310            -100.00     6000.00
04311            -100.00     5800.00
04312            -100.00     5600.00
04313            -100.00     5400.00
04314            -100.00     5200.00
04315             -80.00     5000.00
04316             -80.00     4600.00
04317            -100.00     4600.00
04318             -80.00     4400.00
04319             -80.00     4200.00
04320             -80.00     4000.00
04321             -80.00     3800.00
04322             -80.00     3600.00
04323             -80.00     3400.00
04324             -80.00     3400.00
04325             -80.00     3000.00
04326            -100.00     3000.00
04327             -80.00     2600.00
04328             -80.00     2400.00
04329             -80.00     2200.00
04330             -60.00     2000.00
04331             -60.00     1800.00
04332             -80.00     1600.00
04333             -60.00     1200.00
04334             -60.00     1000.00
04335             -60.00     1000.00
04336             -60.00      600.00
04337             -60.00      400.00
04338             -60.00      400.00
04339             -60.00        0.00
04340             -20.00     -200.00
04341               0.00     -400.00
04342              80.00     -600.00
04343              80.00     -800.00
04344              60.00    -1000.00
04345              40.00    -1000.00
04346              20.00    -1400.00
04347               0.00    -1400.00
04348             100.00    -1800.00
04349             420.00    -2000.00
04350             860.00    -2200.00
04351             340.00    -2600.00
04352            -460.00    -2800.00
04353            -680.00    -3000.00
04354            -620.00    -3000.00
04355            -560.00    -3000.00
04356             240.00    -3400.00
04357             260.00    -4000.00
04358            -160.00    -3600.00
04359             240.00    -4400.00
04360             -20.00    -4400.00
04361               0.00    -4000.00
04362             160.00    -5000.00
04363             -40.00    -4600.00
04364             180.00    -5200.00
04365              20.00    -5200.00
04366            -100.00    -5400.00
04367             -60.00    -5800.00
04368             -20.00    -5600.00
04369              60.00    -6200.00
04370             -20.00    -6000.00
04371              80.00    -6400.00
04372             -20.00    -6600.00
04373              20.00    -6600.00
04374             100.00    -7000.00
04375               0.00    -7000.00
04376              80.00    -7200.00
04377              40.00    -7400.00
04378               0.00    -7600.00
04379              40.00    -7600.00
04380              40.00    -7800.00
04381               0.00    -8200.00
04382              80.00    -8200.00
04383              80.00    -8200.00
04384               0.00    -8600.00
04385              60.00    -8600.00
04386              80.00    -8800.00
04387              60.00    -9000.00
04388              40.00    -9200.00
04389              60.00    -9200.00
04390              60.00    -9400.00
04391              60.00    -9400.00
04392              80.00    -9400.00
04393              60.00    -9800.00
04394              60.00    -9800.00
04395              80.00    -9800.00
04396              60.00   -10000.00
04397              60.00   -10000.00
04398              80.00   -10200.00
04399              60.00   -10400.00
04400              80.00   -10600.00
04401              60.00   -10400.00
04402              60.00   -10800.00
04403              60.00   -10600.00
04404             100.00   -10800.00
04405             100.00   -10800.00
04406              80.00   -10800.00
04407              80.00   -11000.00
04408              60.00   -10800.00
04409              80.00   -11000.00
04410              80.00   -11000.00
04411              80.00   -11200.00
04412             100.00   -11400.00
04413             100.00   -11200.00
04414             100.00   -11400.00
04415              80.00   -11400.00
04416              80.00   -11400.00
04417              80.00   -11400.00
04418             100.00   -11400.00
04419              80.00   -11600.00
04420             100.00   -11600.00
04421              80.00   -11400.00
04422              80.00   -11400.00
04423              80.00   -11400.00
04424             100.00   -11400.00
04425             100.00   -11400.00
04426             100.00   -11400.00
04427             100.00   -11400.00
04428              80.00   -11400.00
04429              80.00   -11400.00
04430             100.00   -11400.00
04431             100.00   -11400.00
04432             100.00   -11400.00
04433             100.00   -11400.00
04434             100.00   -11200.00
04435             100.00   -11000.00
04436             100.00   -11000.00
04437             100.00   -11000.00
04438             120.00   -11000.00
04439             100.00   -10800.00
04440             120.00   -10800.00
04441             100.00   -10800.00
04442             100.00   -10800.00
04443             100.00   -10600.00
04444             120.00   -10600.00
04445             140.00   -10400.00
04446             100.00   -10400.00
04447             120.00   -10200.00
04448             100.00   -10200.00
04449             100.00   -10000.00
04450             100.00   -10000.00
04451             100.00    -9800.00
04452             140.00    -9800.00
04453             120.00    -9400.00
04454             100.00    -9400.00
04455             100.00    -9400.00
04456             100.00    -9200.00
04457             120.00    -9000.00
04458             100.00    -9000.00
04459             140.00    -9000.00
04460             120.00    -8600.00
04461             100.00    -8600.00
04462             100.00    -8600.00
04463             100.00    -8400.00
04464             100.00    -8200.00
04465             140.00    -8200.00
04466             120.00    -7800.00
04467              80.00    -7600.00
04468             100.00    -7600.00
04469             100.00    -7200.00
04470             100.00    -7200.00
04471             100.00    -7000.00
04472             100.00    -6800.00
04473             100.00    -6800.00
04474             100.00    -6600.00
04475             100.00    -6600.00
04476              80.00    -6200.00
04477             100.00    -6000.00
04478             100.00    -5800.00
04479              80.00    -5600.00
04480              80.00    -5400.00
04481              80.00    -5200.00
04482              80.00    -5000.00
04483              80.00    -4800.00
04484              80.00    -4600.00
04485              80.00    -4400.00
04486              80.00    -4200.00
04487              80.00    -4200.00
04488              80.00    -3800.00
04489              80.00    -3600.00
04490              80.00    -3600.00
04491              80.00    -3200.00
04492              80.00    -3000.00
04493              60.00    -2800.00
04494              60.00    -2600.00
04495              60.00    -2600.00
04496              60.00    -2200.00
04497              60.00    -2000.00
04498              80.00    -1800.00
04499              60.00    -1600.00
04500              60.00    -1400.00
04501              60.00    -1200.00
04502              60.00     -800.00
04503              60.00     -600.00
04504              80.00     -400.00
04505              60.00     -200.00
04506              60.00     -200.00
04507              80.00      200.00
04508              80.00      400.00
04509             160.00      600.00
04510             180.00     1000.00
04511             180.00     1000.00
04512             140.00     1000.00
04513             120.00     1400.00
04514             120.00     1400.00
04515             220.00     1800.00
04516             800.00     2000.00
04517            1040.00     2200.00
04518             140.00     2400.00
04519            -740.00     2600.00
04520            -800.00     2800.00
04521            -740.00     3000.00
04522             260.00     3400.00
04523             640.00     3400.00
04524            -260.00     3600.00
04525             160.00     3800.00
04526             100.00     3800.00
04527            -220.00     4800.00
04528             160.00     4200.00
04529               0.00     4600.00
04530             240.00     5200.00
04531              80.00     4600.00
04532            -100.00     5600.00
04533              20.00     5400.00
04534            -140.00     5400.00
04535             140.00     6000.00
04536              20.00     5800.00
04537             -20.00     6200.00
04538              60.00     6200.00
04539             -20.00     6600.00
04540              60.00     6600.00
04541             -20.00     6600.00
04542              20.00     7400.00
04543             -60.00     7000.00
04544               0.00     7600.00
04545               0.00     7600.00
04546            -100.00     7600.00
04547             -20.00     8000.00
04548              20.00     8000.00
04549              20.00     8200.00
04550             -60.00     8200.00
04551               0.00     8600.00
04552             -80.00     8400.00
04553             -20.00     8600.00
04554               0.00     9000.00
04555             -60.00     9000.00
04556             -80.00     9200.00
04557             -60.00     9400.00
04558             -60.00     9400.00
04559             -60.00     9600.00
04560               0.00     9800.00
04561             -80.00     9800.00
04562            -100.00     9800.00
04563             -80.00    10000.00
04564             -60.00    10200.00
04565             -20.00    10200.00
04566             -60.00    10400.00
04567             -80.00    10400.00
04568            -100.00    10600.00
04569             -60.00    10600.00
04570             -40.00    10600.00
04571             -60.00    10800.00
04572             -80.00    10800.00
04573             -80.00    11000.00
04574            -100.00    11000.00
04575            -100.00    11000.00
04576             -80.00    11200.00
04577             -80.00    11200.00
04578             -60.00    11400.00
04579             -60.00    11200.00
04580             -80.00    11400.00
04581            -100.00    11400.00
04582             -80.00    11400.00
04583            -100.00    11400.00
04584             -60.00    11600.00
04585             -80.00    11400.00
04586             -80.00    11600.00
04587            -100.00    11600.00
04588            -100.00    11600.00
04589            -100.00    11600.00
04590             -80.00    11400.00
04591             -80.00    11600.00
04592             -80.00    11600.00
04593            -100.00    11400.00
04594            -100.00    11600.00
04595            -100.00    11400.00
04596            -100.00    11400.00
04597             -80.00    11400.00
04598            -100.00    11600.00
04599            -100.00    11400.00
04600            -100.00    11400.00
04601            -100.00    11400.00
04602            -100.00    11200.00
04603            -100.00    11000.00
04604            -100.00    11000.00
04605            -100.00    11000.00
04606            -100.00    11000.00
04607            -100.00    10800.00
04608            -100.00    10800.00
04609            -120.00    10800.00
04610            -100.00    10600.00
04611            -100.00    10600.00
04612            -100.00    10400.00
04613            -100.00    10400.00
04614            -120.00    10200.00
04615            -140.00    10200.00
04616            -100.00    10000.00
04617            -100.00    10000.00
04618            -100.00     9800.00
04619            -100.00     9800.00
04620            -100.00     9800.00
04621            -100.00     9800.00
04622            -120.00     9400.00
04623            -100.00     9400.00
04624            -100.00     9200.00
04625            -100.00     9200.00
04626            -100.00     9000.00
04627            -100.00     8600.00
04628            -140.00     8600.00
04629            -100.00     8600.00
04630            -100.00     8400.00
04631            -100.00     8200.00
04632            -100.00     8200.00
04633            -100.00     7800.00
04634            -100.00     7600.00
04635            -100.00     7600.00
04636            -100.00     7400.00
04637            -100.00     7400.00
04638            -100.00     7000.00
04639            -100.00     6800.00
04640            -100.00     6800.00
04641            -100.00     6600.00
04642            -100.00     6400.00
04643            -100.00     6200.00
04644             -80.00     6000.00
04645            -100.00     6000.00
04646            -100.00     5800.00
04647            -100.00     5600.00
04648            -100.00     5400.00
04649            -100.00     5200.00
04650            -100.00     5000.00
04651             -80.00     4600.00
04652             -80.00     4600.00
04653             -80.00     4400.00
04654             -80.00     4200.00
04655            -100.00     3800.00
04656             -80.00     3800.00
04657             -80.00     3600.00
04658             -80.00     3400.00
04659             -80.00     3000.00
04660             -80.00     3000.00
04661             -80.00     2600.00
04662             -80.00     2400.00
04663             -60.00     2200.00
04664             -60.00     2200.00
04665             -80.00     1800.00
04666             -80.00     1800.00
04667             -60.00     1400.00
04668             -80.00     1200.00
04669             -60.00     1000.00
04670             -60.00      600.00
04671             -60.00      600.00
04672             -60.00      200.00
04673             -60.00      200.00
04674             -20.00        0.00
04675             -20.00     -200.00
04676              40.00     -400.00
04677              80.00     -600.00
04678              60.00     -800.00
04679              40.00    -1200.00
04680               0.00    -1400.00
04681               0.00    -1400.00
04682              60.00    -1800.00
04683             220.00    -1800.00
04684             740.00    -2000.00
04685             660.00    -2600.00
04686            -140.00    -2600.00
04687            -680.00    -3000.00
04688            -620.00    -3000.00
04689            -640.00    -3000.00
04690            -140.00    -3000.00
04691             460.00    -3800.00
04692            -100.00    -3600.00
04693             100.00    -3800.00
04694             160.00    -4600.00
04695            -140.00    -3800.00
04696             180.00    -4800.00
04697             -20.00    -4800.00
04698              80.00    -4800.00
04699             180.00    -5200.00
04700            -100.00    -5200.00
04701             -60.00    -5800.00
04702             -40.00    -5400.00
04703              40.00    -6000.00
04704               0.00    -6200.00
04705              40.00    -6000.00
04706              20.00    -6600.00
04707             -20.00    -6400.00
04708             100.00    -6800.00
04709              20.00    -7000.00
04710               0.00    -7000.00
04711              80.00    -7400.00
04712               0.00    -7400.00
04713              20.00    -7800.00
04714              60.00    -7600.00
04715              20.00    -8200.00
04716              40.00    -8200.00
04717             100.00    -8200.00
04718              40.00    -8400.00
04719              20.00    -8600.00
04720              80.00    -9000.00
04721              60.00    -8800.00
04722              40.00    -9200.00
04723              60.00    -9000.00
04724              60.00    -9200.00
04725              20.00    -9400.00
04726              60.00    -9400.00
04727              80.00    -9600.00
04728              60.00    -9800.00
04729              80.00    -9800.00
04730              60.00   -10000.00
04731              60.00   -10000.00
04732              80.00   -10000.00
04733              80.00   -10200.00
04734              60.00   -10400.00
04735              60.00   -10200.00
04736              60.00   -10600.00
04737              80.00   -10600.00
04738              80.00   -10600.00
04739             100.00   -10800.00
04740              80.00   -10800.00
04741              80.00   -10800.00
04742              60.00   -11000.00
04743              60.00   -11000.00
04744              80.00   -11200.00
04745              80.00   -11000.00
04746             100.00   -11200.00
04747              80.00   -11400.00
04748              80.00   -11400.00
04749              80.00   -11400.00
04750              80.00   -11200.00
04751             100.00   -11400.00
04752             100.00   -11400.00
04753             100.00   -11400.00
04754             100.00   -11400.00
04755              80.00   -11400.00
04756              80.00   -11600.00
04757              80.00   -11600.00
04758             100.00   -11600.00
04759             100.00   -11400.00
04760             100.00   -11400.00
04761             100.00   -11600.00
04762             100.00   -11400.00
04763              80.00   -11400.00
04764             100.00   -11400.00
04765             140.00   -11400.00
04766             120.00   -11400.00
04767             100.00   -11200.00
04768             100.00   -11200.00
04769             100.00   -11000.00
04770             100.00   -11000.00
04771             120.00   -11000.00
04772             140.00   -11000.00
04773             140.00   -11000.00
04774             120.00   -10800.00
04775             100.00   -10800.00
04776             100.00   -10800.00
04777             100.00   -10800.00
04778             140.00   -10800.00
04779             140.00   -10600.00
04780             100.00   -10400.00
04781             100.00   -10600.00
04782             100.00   -10200.00
04783             100.00   -10000.00
04784             140.00   -10000.00
04785             160.00    -9800.00
04786             160.00    -9800.00
04787             160.00    -9800.00
04788             140.00    -9600.00
04789             100.00    -9400.00
04790              60.00    -9200.00
04791              60.00    -9200.00
04792              60.00    -9000.00
04793              80.00    -9000.00
04794             100.00    -8800.00
04795             160.00    -8600.00
04796             160.00    -8600.00
04797             160.00    -8400.00
04798             140.00    -8200.00
04799             120.00    -8200.00
04800              60.00    -7800.00
04801              60.00    -7800.00
04802              60.00    -7600.00
04803              80.00    -7200.00
04804             100.00    -7200.00
04805             140.00    -7000.00
04806             140.00    -7000.00
04807             140.00    -6800.00
04808             120.00    -6600.00
04809              80.00    -6600.00
04810              80.00    -6400.00
04811              60.00    -6000.00
04812              80.00    -6000.00
04813              60.00    -5800.00
04814              80.00    -5600.00
04815             100.00    -5400.00
04816             140.00    -5200.00
04817             140.00    -5000.00
04818             120.00    -4600.00
04819             100.00    -4600.00
04820              80.00    -4400.00
04821              40.00    -4200.00
04822              20.00    -3800.00
04823              60.00    -3600.00
04824              60.00    -3400.00
04825              80.00    -3400.00
04826             120.00    -3000.00
04827             120.00    -3000.00
04828              80.00    -2600.00
04829              60.00    -2600.00
04830              60.00    -2200.00
04831              20.00    -2000.00
04832              40.00    -1800.00
04833              60.00    -1800.00
04834              60.00    -1400.00
04835              80.00    -1200.00
04836              80.00    -1000.00
04837              80.00     -800.00
04838              80.00     -600.00
04839              60.00     -400.00
04840              40.00     -200.00
04841              20.00        0.00
04842              60.00      200.00
04843             100.00      400.00
04844             180.00      600.00
04845             200.00     1000.00
04846             160.00     1000.00
04847             140.00     1200.00
04848             140.00     1400.00
04849             140.00     1800.00
04850             480.00     1800.00
04851            1060.00     2200.00
04852             580.00     2400.00
04853            -460.00     2600.00
04854            -840.00     2600.00
04855            -800.00     3000.00
04856            -300.00     3400.00
04857             740.00     3400.00
04858              60.00     3400.00
04859            -140.00     3800.00
04860             320.00     3800.00
04861            -220.00     4400.00
04862              40.00     4600.00
04863              80.00     4200.00
04864              80.00     5400.00
04865             260.00     4600.00
04866            -100.00     5200.00
04867               0.00     5800.00
04868            -100.00     5200.00
04869             -20.00     6000.00
04870             120.00     5800.00
04871             -80.00     6000.00
04872              80.00     6200.00
04873             -40.00     6200.00
04874               0.00     6800.00
04875               0.00     6600.00
04876              20.00     7000.00
04877               0.00     7000.00
04878             -60.00     7000.00
04879              20.00     7600.00
04880             -80.00     7400.00
04881             -60.00     7800.00
04882               0.00     8000.00
04883              60.00     8200.00
04884             -20.00     8200.00
04885               0.00     8200.00
04886             -20.00     8600.00
04887             -80.00     8600.00
04888               0.00     9000.00
04889             -60.00     9000.00
04890             -60.00     9000.00
04891             -80.00     9200.00
04892             -20.00     9400.00
04893             -60.00     9400.00
04894               0.00     9600.00
04895             -20.00     9800.00
04896            -100.00    10000.00
04897             -60.00    10000.00
04898             -60.00    10200.00
04899             -60.00    10000.00
04900             -60.00    10200.00
04901             -40.00    10400.00
04902            -100.00    10600.00
04903             -60.00    10400.00
04904             -40.00    10800.00
04905             -60.00    10600.00
04906             -60.00    10800.00
04907             -80.00    11000.00
04908            -100.00    11000.00
04909            -100.00    11000.00
04910             -80.00    11000.00
04911             -80.00    11000.00
04912             -80.00    11000.00
04913             -40.00    11400.00
04914             -80.00    11400.00
04915            -100.00    11400.00
04916             -80.00    11400.00
04917            -100.00    11400.00
04918             -80.00    11400.00
04919             -80.00    11600.00
04920            -100.00    11600.00
04921            -100.00    11400.00
04922            -100.00    11600.00
04923             -80.00    11600.00
04924            -100.00    11600.00
04925            -100.00    11600.00
04926            -100.00    11400.00
04927            -100.00    11600.00
04928            -100.00    11400.00
04929            -100.00    11600.00
04930            -100.00    11400.00
04931            -100.00    11400.00
04932             -80.00    11400.00
04933            -100.00    11400.00
04934            -100.00    11400.00
04935            -100.00    11400.00
04936            -120.00    11200.00
04937            -100.00    11000.00
04938            -100.00    11000.00
04939            -100.00    11000.00
04940            -100.00    11000.00
04941            -100.00    10800.00
04942            -100.00    10800.00
04943            -140.00    10800.00
04944            -100.00    10600.00
04945            -100.00    10600.00
04946            -100.00    10600.00
04947            -100.00    10600.00
04948            -100.00    10200.00
04949            -120.00    10200.00
04950            -140.00    10200.00
04951            -100.00    10200.00
04952            -100.00    10000.00
04953            -100.00     9800.00
04954            -100.00     9800.00
04955            -140.00     9600.00
04956            -120.00     9400.00
04957            -100.00     9400.00
04958            -100.00     9200.00
04959            -100.00     9200.00
04960            -100.00     9000.00
04961            -140.00     8800.00
04962            -120.00     8600.00
04963            -140.00     8600.00
04964            -100.00     8400.00
04965             -80.00     8400.00
04966            -100.00     8200.00
04967            -100.00     7800.00
04968            -100.00     8000.00
04969            -100.00     7600.00
04970            -100.00     7400.00
04971            -100.00     7400.00
04972            -100.00     7000.00
04973            -100.00     7000.00
04974            -100.00     6800.00
04975            -100.00     6800.00
04976            -100.00     6600.00
04977            -100.00     6200.00
04978             -80.00     6200.00
04979            -100.00     6000.00
04980            -100.00     5800.00
04981            -100.00     5400.00
04982            -100.00     5600.00
04983             -80.00     5200.00
04984            -100.00     5000.00
04985             -80.00     4800.00
04986             -80.00     4600.00
04987            -100.00     4400.00
04988             -80.00     4200.00
04989             -80.00     4000.00
04990            -100.00     3800.00
04991             -80.00     3800.00
04992             -80.00     3400.00
04993             -80.00     3000.00
04994            -100.00     3000.00
04995             -80.00     2800.00
04996             -80.00     2600.00
04997             -80.00     2200.00
04998             -60.00     2000.00
04999             -80.00     1800.00
05000             -80.00     1800.00
