Unit:(mV)
                     CH1         CH2
Frequency              ? 299.175 kHz
00001             180.00    -3000.00
00002            -140.00    -2800.00
00003             380.00    -3800.00
00004              40.00    -3200.00
00005             120.00    -3600.00
00006             200.00    -4200.00
00007              20.00    -3600.00
00008             360.00    -4200.00
00009             180.00    -4400.00
00010             -60.00    -4600.00
00011             100.00    -4600.00
00012              60.00    -4800.00
00013             220.00    -5200.00
00014             180.00    -5000.00
00015             140.00    -5200.00
00016             120.00    -5600.00
00017             200.00    -5600.00
00018             300.00    -6000.00
00019             120.00    -5800.00
00020             260.00    -6000.00
00021             240.00    -6200.00
00022             180.00    -6400.00
00023             280.00    -6400.00
00024             180.00    -6600.00
00025             220.00    -6800.00
00026             340.00    -6800.00
00027             280.00    -6800.00
00028             260.00    -7200.00
00029             300.00    -7200.00
00030             340.00    -7600.00
00031             300.00    -7600.00
00032             340.00    -7600.00
00033             340.00    -7600.00
00034             300.00    -7800.00
00035             380.00    -8000.00
00036             400.00    -8000.00
00037             360.00    -8200.00
00038             420.00    -8200.00
00039             420.00    -8400.00
00040             400.00    -8400.00
00041             460.00    -8400.00
00042             460.00    -8400.00
00043             460.00    -8600.00
00044             500.00    -8800.00
00045             500.00    -8800.00
00046             500.00    -9000.00
00047             540.00    -9000.00
00048             580.00    -9200.00
00049             600.00    -9200.00
00050             620.00    -9000.00
00051             640.00    -9200.00
00052             620.00    -9200.00
00053             660.00    -9400.00
00054             700.00    -9400.00
00055             740.00    -9400.00
00056             780.00    -9400.00
00057             780.00    -9400.00
00058             780.00    -9600.00
00059             820.00    -9400.00
00060             860.00    -9800.00
00061             920.00    -9600.00
00062             980.00    -9600.00
00063            1000.00    -9600.00
00064            1020.00    -9600.00
00065            1060.00    -9600.00
00066            1100.00    -9600.00
00067            1160.00    -9800.00
00068            1220.00    -9600.00
00069            1300.00    -9800.00
00070            1320.00    -9600.00
00071            1380.00    -9600.00
00072            1440.00    -9600.00
00073            1500.00    -9600.00
00074            1540.00    -9600.00
00075            1580.00    -9600.00
00076            1640.00    -9600.00
00077            1660.00    -9600.00
00078            1700.00    -9600.00
00079            1700.00    -9200.00
00080            1720.00    -9400.00
00081            1720.00    -9200.00
00082            1720.00    -9200.00
00083            1720.00    -9200.00
00084            1720.00    -9200.00
00085            1700.00    -9000.00
00086            1640.00    -9000.00
00087            1620.00    -9000.00
00088            1620.00    -8800.00
00089            1560.00    -8800.00
00090            1500.00    -8800.00
00091            1460.00    -8800.00
00092            1400.00    -8600.00
00093            1340.00    -8400.00
00094            1300.00    -8400.00
00095            1240.00    -8400.00
00096            1180.00    -8200.00
00097            1140.00    -8000.00
00098            1080.00    -8000.00
00099            1020.00    -8000.00
00100            1000.00    -7800.00
00101             940.00    -7600.00
00102             900.00    -7600.00
00103             860.00    -7400.00
00104             820.00    -7400.00
00105             760.00    -7200.00
00106             740.00    -7200.00
00107             700.00    -6800.00
00108             680.00    -7000.00
00109             640.00    -6800.00
00110             600.00    -6600.00
00111             580.00    -6400.00
00112             540.00    -6200.00
00113             520.00    -6000.00
00114             500.00    -6000.00
00115             460.00    -5800.00
00116             460.00    -5800.00
00117             420.00    -5600.00
00118             420.00    -5600.00
00119             380.00    -5600.00
00120             360.00    -5000.00
00121             360.00    -5000.00
00122             360.00    -5000.00
00123             340.00    -4800.00
00124             300.00    -4600.00
00125             280.00    -4400.00
00126             280.00    -4200.00
00127             280.00    -4000.00
00128             260.00    -3800.00
00129             260.00    -3800.00
00130             260.00    -3600.00
00131             220.00    -3400.00
00132             200.00    -3400.00
00133             200.00    -3200.00
00134             200.00    -2800.00
00135             200.00    -2600.00
00136             200.00    -2600.00
00137             180.00    -2400.00
00138             160.00    -2200.00
00139             160.00    -2000.00
00140             140.00    -1800.00
00141             140.00    -1600.00
00142             120.00    -1400.00
00143             140.00    -1200.00
00144             100.00    -1000.00
00145             100.00    -1000.00
00146             100.00     -600.00
00147             100.00     -600.00
00148             120.00     -200.00
00149             100.00     -200.00
00150             100.00        0.00
00151              60.00      200.00
00152             100.00      400.00
00153             140.00      600.00
00154             180.00      600.00
00155             140.00      800.00
00156             120.00     1200.00
00157             100.00     1200.00
00158             100.00     1400.00
00159             180.00     1600.00
00160             680.00     2000.00
00161            1060.00     2200.00
00162             260.00     2200.00
00163            -780.00     2200.00
00164           -1240.00     2200.00
00165            -920.00     2800.00
00166             680.00     3000.00
00167             440.00     2800.00
00168            -500.00     3200.00
00169             340.00     3200.00
00170              20.00     3400.00
00171            -380.00     4000.00
00172             140.00     3600.00
00173             -60.00     4400.00
00174             140.00     4400.00
00175              20.00     3600.00
00176            -320.00     5000.00
00177             -60.00     4800.00
00178            -260.00     4600.00
00179             -20.00     5400.00
00180             -40.00     4800.00
00181            -220.00     5400.00
00182             -20.00     5600.00
00183            -280.00     5600.00
00184             -60.00     6000.00
00185            -120.00     5800.00
00186            -220.00     6400.00
00187            -180.00     6200.00
00188            -180.00     6400.00
00189            -160.00     6800.00
00190            -340.00     6400.00
00191            -200.00     7200.00
00192            -160.00     6800.00
00193            -260.00     7000.00
00194            -220.00     7200.00
00195            -280.00     7400.00
00196            -300.00     7400.00
00197            -300.00     7400.00
00198            -240.00     7800.00
00199            -340.00     7600.00
00200            -320.00     8000.00
00201            -340.00     8000.00
00202            -380.00     8000.00
00203            -320.00     8400.00
00204            -340.00     8400.00
00205            -380.00     8400.00
00206            -440.00     8600.00
00207            -380.00     8800.00
00208            -440.00     8600.00
00209            -420.00     9000.00
00210            -440.00     9000.00
00211            -520.00     8800.00
00212            -520.00     9200.00
00213            -500.00     9200.00
00214            -520.00     9200.00
00215            -540.00     9200.00
00216            -540.00     9400.00
00217            -600.00     9400.00
00218            -620.00     9400.00
00219            -620.00     9600.00
00220            -680.00     9600.00
00221            -700.00     9600.00
00222            -680.00     9600.00
00223            -700.00     9600.00
00224            -780.00     9600.00
00225            -820.00     9600.00
00226            -840.00     9800.00
00227            -860.00     9800.00
00228            -860.00    10000.00
00229            -920.00    10000.00
00230           -1000.00    10000.00
00231           -1000.00    10000.00
00232           -1060.00    10000.00
00233           -1100.00     9800.00
00234           -1140.00    10000.00
00235           -1180.00    10000.00
00236           -1260.00    10000.00
00237           -1320.00    10000.00
00238           -1340.00     9800.00
00239           -1420.00     9600.00
00240           -1500.00     9800.00
00241           -1500.00     9800.00
00242           -1560.00     9800.00
00243           -1580.00     9800.00
00244           -1640.00     9600.00
00245           -1700.00     9800.00
00246           -1700.00     9600.00
00247           -1720.00     9600.00
00248           -1720.00     9400.00
00249           -1720.00     9400.00
00250           -1720.00     9600.00
00251           -1720.00     9400.00
00252           -1700.00     9400.00
00253           -1660.00     9400.00
00254           -1640.00     9200.00
00255           -1580.00     9000.00
00256           -1520.00     9000.00
00257           -1500.00     8800.00
00258           -1480.00     9000.00
00259           -1420.00     8800.00
00260           -1340.00     8800.00
00261           -1300.00     8600.00
00262           -1240.00     8600.00
00263           -1180.00     8600.00
00264           -1160.00     8400.00
00265           -1100.00     8400.00
00266           -1060.00     8200.00
00267            -980.00     8000.00
00268            -940.00     8000.00
00269            -900.00     7800.00
00270            -840.00     7600.00
00271            -820.00     7600.00
00272            -780.00     7600.00
00273            -760.00     7400.00
00274            -700.00     7200.00
00275            -660.00     7200.00
00276            -620.00     7000.00
00277            -600.00     7000.00
00278            -580.00     6800.00
00279            -540.00     6800.00
00280            -520.00     6400.00
00281            -500.00     6400.00
00282            -480.00     6200.00
00283            -440.00     6000.00
00284            -440.00     6000.00
00285            -440.00     5600.00
00286            -400.00     5600.00
00287            -380.00     5400.00
00288            -360.00     5200.00
00289            -340.00     5200.00
00290            -340.00     4800.00
00291            -320.00     4600.00
00292            -300.00     4600.00
00293            -280.00     4400.00
00294            -260.00     4400.00
00295            -260.00     4000.00
00296            -260.00     3800.00
00297            -260.00     3800.00
00298            -240.00     3600.00
00299            -220.00     3400.00
00300            -220.00     3000.00
00301            -200.00     3200.00
00302            -180.00     3000.00
00303            -200.00     2800.00
00304            -180.00     2400.00
00305            -180.00     2400.00
00306            -160.00     2200.00
00307            -140.00     2000.00
00308            -140.00     1800.00
00309            -120.00     1600.00
00310            -120.00     1600.00
00311            -120.00     1200.00
00312            -100.00     1200.00
00313            -120.00      800.00
00314            -100.00      800.00
00315             -60.00      600.00
00316             -60.00      400.00
00317             -60.00      400.00
00318             -60.00        0.00
00319             -40.00     -200.00
00320              20.00     -200.00
00321              60.00     -400.00
00322              60.00     -800.00
00323              20.00     -800.00
00324              20.00    -1000.00
00325              40.00    -1200.00
00326              40.00    -1400.00
00327             220.00    -1600.00
00328             740.00    -1800.00
00329             760.00    -2200.00
00330             -40.00    -2400.00
00331            -680.00    -2400.00
00332            -860.00    -2400.00
00333            -700.00    -2200.00
00334             380.00    -2800.00
00335             420.00    -3200.00
00336            -220.00    -2800.00
00337             300.00    -3600.00
00338             180.00    -3400.00
00339             -20.00    -3200.00
00340             260.00    -4000.00
00341              20.00    -3800.00
00342             280.00    -4000.00
00343             280.00    -4400.00
00344             -60.00    -4400.00
00345              60.00    -4600.00
00346              60.00    -4800.00
00347             200.00    -5000.00
00348             220.00    -5000.00
00349             120.00    -5200.00
00350             140.00    -5600.00
00351             140.00    -5200.00
00352             300.00    -5800.00
00353             180.00    -6000.00
00354             200.00    -5800.00
00355             260.00    -6200.00
00356             180.00    -6200.00
00357             260.00    -6400.00
00358             200.00    -6600.00
00359             200.00    -6800.00
00360             340.00    -6800.00
00361             300.00    -7000.00
00362             260.00    -7200.00
00363             280.00    -7200.00
00364             340.00    -7400.00
00365             320.00    -7400.00
00366             340.00    -7600.00
00367             340.00    -7800.00
00368             300.00    -7600.00
00369             360.00    -7800.00
00370             380.00    -8000.00
00371             380.00    -8000.00
00372             420.00    -8200.00
00373             420.00    -8200.00
00374             380.00    -8400.00
00375             440.00    -8400.00
00376             460.00    -8600.00
00377             480.00    -8600.00
00378             500.00    -8800.00
00379             500.00    -8800.00
00380             500.00    -9000.00
00381             540.00    -9000.00
00382             580.00    -9000.00
00383             580.00    -9200.00
00384             600.00    -9000.00
00385             620.00    -9200.00
00386             620.00    -9200.00
00387             620.00    -9200.00
00388             700.00    -9200.00
00389             700.00    -9200.00
00390             740.00    -9600.00
00391             780.00    -9600.00
00392             780.00    -9600.00
00393             820.00    -9600.00
00394             860.00    -9600.00
00395             900.00    -9800.00
00396             940.00    -9600.00
00397             980.00    -9800.00
00398            1020.00    -9800.00
00399            1040.00    -9600.00
00400            1080.00    -9800.00
00401            1160.00    -9600.00
00402            1220.00    -9600.00
00403            1280.00    -9600.00
00404            1320.00    -9600.00
00405            1380.00    -9600.00
00406            1420.00    -9800.00
00407            1480.00    -9600.00
00408            1540.00    -9600.00
00409            1600.00    -9600.00
00410            1640.00    -9600.00
00411            1660.00    -9400.00
00412            1700.00    -9200.00
00413            1700.00    -9200.00
00414            1720.00    -9200.00
00415            1720.00    -9200.00
00416            1740.00    -9200.00
00417            1740.00    -9200.00
00418            1720.00    -9000.00
00419            1700.00    -9000.00
00420            1660.00    -9000.00
00421            1640.00    -9000.00
00422            1620.00    -9000.00
00423            1580.00    -8800.00
00424            1500.00    -8800.00
00425            1480.00    -8800.00
00426            1400.00    -8600.00
00427            1340.00    -8400.00
00428            1300.00    -8400.00
00429            1260.00    -8400.00
00430            1220.00    -8200.00
00431            1160.00    -8200.00
00432            1080.00    -8000.00
00433            1060.00    -8000.00
00434             980.00    -7800.00
00435             960.00    -7800.00
00436             900.00    -7600.00
00437             860.00    -7400.00
00438             820.00    -7400.00
00439             780.00    -7400.00
00440             740.00    -7200.00
00441             700.00    -6800.00
00442             660.00    -6800.00
00443             660.00    -6800.00
00444             600.00    -6600.00
00445             580.00    -6400.00
00446             540.00    -6400.00
00447             520.00    -6200.00
00448             500.00    -6000.00
00449             480.00    -6000.00
00450             460.00    -6000.00
00451             420.00    -5800.00
00452             420.00    -5600.00
00453             380.00    -5400.00
00454             380.00    -5200.00
00455             360.00    -5200.00
00456             360.00    -5000.00
00457             340.00    -4800.00
00458             300.00    -4600.00
00459             280.00    -4400.00
00460             280.00    -4200.00
00461             280.00    -4000.00
00462             260.00    -3800.00
00463             260.00    -3800.00
00464             240.00    -3600.00
00465             220.00    -3200.00
00466             220.00    -3200.00
00467             200.00    -3200.00
00468             200.00    -2800.00
00469             200.00    -2600.00
00470             180.00    -2600.00
00471             180.00    -2400.00
00472             180.00    -2000.00
00473             180.00    -2000.00
00474             140.00    -1800.00
00475             140.00    -1800.00
00476             140.00    -1600.00
00477             140.00    -1200.00
00478             120.00    -1000.00
00479             120.00    -1000.00
00480             100.00     -800.00
00481             100.00     -600.00
00482             100.00     -400.00
00483             100.00     -200.00
00484             100.00        0.00
00485              60.00      200.00
00486             100.00      400.00
00487             120.00      400.00
00488             180.00      600.00
00489             180.00      800.00
00490             120.00     1000.00
00491             100.00     1200.00
00492             100.00     1200.00
00493             140.00     1600.00
00494             500.00     1600.00
00495            1060.00     2200.00
00496             540.00     2200.00
00497            -580.00     2200.00
00498           -1160.00     2200.00
00499           -1160.00     2600.00
00500             280.00     3000.00
00501             760.00     2800.00
00502            -460.00     3200.00
00503             120.00     3200.00
00504             260.00     3400.00
00505            -440.00     4000.00
00506              60.00     3600.00
00507               0.00     4000.00
00508              40.00     4600.00
00509             140.00     3800.00
00510            -340.00     4600.00
00511            -100.00     5000.00
00512            -200.00     4400.00
00513            -120.00     5400.00
00514              40.00     4800.00
00515            -260.00     5200.00
00516             -40.00     5600.00
00517            -220.00     5400.00
00518            -180.00     6000.00
00519             -60.00     5600.00
00520            -260.00     6400.00
00521            -180.00     6200.00
00522            -200.00     6400.00
00523            -140.00     6800.00
00524            -300.00     6400.00
00525            -240.00     7000.00
00526            -120.00     7000.00
00527            -280.00     7000.00
00528            -220.00     7200.00
00529            -280.00     7200.00
00530            -300.00     7600.00
00531            -340.00     7400.00
00532            -240.00     7800.00
00533            -340.00     7800.00
00534            -360.00     8000.00
00535            -340.00     8000.00
00536            -380.00     8000.00
00537            -340.00     8200.00
00538            -320.00     8400.00
00539            -360.00     8400.00
00540            -440.00     8600.00
00541            -380.00     8800.00
00542            -420.00     8800.00
00543            -440.00     8600.00
00544            -400.00     9000.00
00545            -500.00     9000.00
00546            -540.00     9000.00
00547            -500.00     9200.00
00548            -500.00     9200.00
00549            -540.00     9200.00
00550            -540.00     9400.00
00551            -600.00     9400.00
00552            -640.00     9400.00
00553            -620.00     9600.00
00554            -680.00     9600.00
00555            -700.00     9600.00
00556            -700.00     9600.00
00557            -700.00     9600.00
00558            -760.00     9600.00
00559            -800.00     9600.00
00560            -840.00     9600.00
00561            -860.00     9800.00
00562            -860.00     9800.00
00563            -920.00     9800.00
00564            -980.00    10000.00
00565           -1000.00     9800.00
00566           -1060.00    10000.00
00567           -1100.00    10000.00
00568           -1160.00    10000.00
00569           -1180.00    10000.00
00570           -1240.00     9800.00
00571           -1300.00    10000.00
00572           -1340.00     9800.00
00573           -1420.00     9800.00
00574           -1480.00    10000.00
00575           -1500.00     9800.00
00576           -1560.00    10000.00
00577           -1580.00     9800.00
00578           -1660.00    10000.00
00579           -1700.00     9600.00
00580           -1700.00     9600.00
00581           -1720.00     9600.00
00582           -1720.00     9600.00
00583           -1720.00     9400.00
00584           -1720.00     9600.00
00585           -1700.00     9400.00
00586           -1720.00     9400.00
00587           -1660.00     9200.00
00588           -1640.00     9200.00
00589           -1580.00     9200.00
00590           -1540.00     9200.00
00591           -1500.00     8800.00
00592           -1500.00     8800.00
00593           -1420.00     8800.00
00594           -1380.00     9000.00
00595           -1320.00     8600.00
00596           -1240.00     8600.00
00597           -1200.00     8400.00
00598           -1160.00     8400.00
00599           -1100.00     8200.00
00600           -1060.00     8400.00
00601           -1020.00     8000.00
00602            -940.00     8000.00
00603            -900.00     7800.00
00604            -860.00     7800.00
00605            -820.00     7600.00
00606            -780.00     7600.00
00607            -760.00     7400.00
00608            -700.00     7200.00
00609            -660.00     7200.00
00610            -620.00     7000.00
00611            -620.00     7000.00
00612            -580.00     6800.00
00613            -540.00     6800.00
00614            -520.00     6400.00
00615            -500.00     6400.00
00616            -460.00     6400.00
00617            -440.00     6000.00
00618            -420.00     5800.00
00619            -420.00     5600.00
00620            -380.00     5600.00
00621            -380.00     5400.00
00622            -360.00     5200.00
00623            -340.00     5200.00
00624            -340.00     4800.00
00625            -340.00     4800.00
00626            -320.00     4600.00
00627            -280.00     4400.00
00628            -280.00     4400.00
00629            -260.00     4000.00
00630            -260.00     4000.00
00631            -240.00     3800.00
00632            -240.00     3600.00
00633            -220.00     3600.00
00634            -220.00     3200.00
00635            -200.00     3200.00
00636            -200.00     3000.00
00637            -180.00     2800.00
00638            -200.00     2600.00
00639            -180.00     2400.00
00640            -180.00     2200.00
00641            -140.00     2200.00
00642            -140.00     2000.00
00643            -140.00     1600.00
00644            -140.00     1600.00
00645            -120.00     1200.00
00646            -120.00     1200.00
00647            -120.00     1000.00
00648            -100.00      800.00
00649             -80.00      600.00
00650             -60.00      400.00
00651             -60.00        0.00
00652             -60.00        0.00
00653             -60.00     -200.00
00654              20.00     -200.00
00655              60.00     -400.00
00656              60.00     -600.00
00657              40.00     -800.00
00658              20.00    -1000.00
00659              40.00    -1200.00
00660              40.00    -1600.00
00661             160.00    -1400.00
00662             600.00    -1600.00
00663             860.00    -2200.00
00664             200.00    -2000.00
00665            -580.00    -2400.00
00666            -820.00    -2400.00
00667            -840.00    -2400.00
00668             120.00    -2600.00
00669             620.00    -3200.00
00670            -200.00    -2800.00
00671             160.00    -3200.00
00672             340.00    -3600.00
00673             -60.00    -3000.00
00674             260.00    -3800.00
00675              60.00    -4000.00
00676             180.00    -3800.00
00677             380.00    -4400.00
00678             -20.00    -4200.00
00679              40.00    -4800.00
00680              60.00    -4600.00
00681             140.00    -5000.00
00682             220.00    -5000.00
00683             140.00    -5000.00
00684             140.00    -5600.00
00685             140.00    -5400.00
00686             280.00    -5600.00
00687             220.00    -5800.00
00688             160.00    -5800.00
00689             280.00    -6000.00
00690             200.00    -6200.00
00691             240.00    -6400.00
00692             260.00    -6600.00
00693             200.00    -6600.00
00694             320.00    -6800.00
00695             340.00    -6800.00
00696             260.00    -7200.00
00697             260.00    -7200.00
00698             360.00    -7400.00
00699             300.00    -7600.00
00700             340.00    -7600.00
00701             340.00    -7600.00
00702             300.00    -7800.00
00703             340.00    -7800.00
00704             400.00    -8000.00
00705             380.00    -8200.00
00706             400.00    -8200.00
00707             420.00    -8200.00
00708             380.00    -8400.00
00709             420.00    -8400.00
00710             460.00    -8400.00
00711             460.00    -8600.00
00712             500.00    -8800.00
00713             500.00    -8800.00
00714             500.00    -8800.00
00715             520.00    -9000.00
00716             580.00    -9000.00
00717             580.00    -9200.00
00718             600.00    -9200.00
00719             620.00    -9000.00
00720             620.00    -9200.00
00721             620.00    -9200.00
00722             680.00    -9200.00
00723             700.00    -9400.00
00724             740.00    -9400.00
00725             780.00    -9400.00
00726             780.00    -9600.00
00727             820.00    -9600.00
00728             840.00    -9600.00
00729             900.00    -9600.00
00730             920.00    -9800.00
00731             980.00    -9600.00
00732            1000.00    -9600.00
00733            1020.00    -9800.00
00734            1080.00    -9600.00
00735            1140.00    -9800.00
00736            1180.00    -9600.00
00737            1260.00    -9600.00
00738            1320.00    -9600.00
00739            1360.00    -9600.00
00740            1400.00    -9600.00
00741            1460.00    -9600.00
00742            1540.00    -9600.00
00743            1580.00    -9600.00
00744            1640.00    -9600.00
00745            1660.00    -9600.00
00746            1680.00    -9400.00
00747            1700.00    -9400.00
00748            1720.00    -9200.00
00749            1720.00    -9200.00
00750            1740.00    -9200.00
00751            1740.00    -9200.00
00752            1740.00    -9200.00
00753            1700.00    -9000.00
00754            1660.00    -9000.00
00755            1640.00    -9000.00
00756            1620.00    -8800.00
00757            1580.00    -8800.00
00758            1540.00    -8600.00
00759            1480.00    -8800.00
00760            1420.00    -8800.00
00761            1380.00    -8400.00
00762            1340.00    -8400.00
00763            1260.00    -8400.00
00764            1220.00    -8200.00
00765            1180.00    -8200.00
00766            1100.00    -8000.00
00767            1060.00    -8000.00
00768            1000.00    -7800.00
00769             980.00    -7800.00
00770             920.00    -7600.00
00771             880.00    -7600.00
00772             820.00    -7400.00
00773             780.00    -7200.00
00774             740.00    -7200.00
00775             700.00    -7200.00
00776             680.00    -6800.00
00777             660.00    -6800.00
00778             600.00    -6600.00
00779             580.00    -6600.00
00780             540.00    -6400.00
00781             520.00    -6400.00
00782             500.00    -6000.00
00783             460.00    -6000.00
00784             460.00    -5800.00
00785             440.00    -5800.00
00786             420.00    -5600.00
00787             380.00    -5400.00
00788             360.00    -5200.00
00789             360.00    -5000.00
00790             360.00    -4800.00
00791             340.00    -4800.00
00792             320.00    -4600.00
00793             280.00    -4400.00
00794             280.00    -4200.00
00795             280.00    -4200.00
00796             260.00    -3800.00
00797             260.00    -3800.00
00798             260.00    -3600.00
00799             240.00    -3400.00
00800             220.00    -3400.00
00801             220.00    -3200.00
00802             200.00    -2800.00
00803             200.00    -2800.00
00804             200.00    -2600.00
00805             200.00    -2400.00
00806             180.00    -2200.00
00807             180.00    -2000.00
00808             160.00    -1800.00
00809             140.00    -1800.00
00810             140.00    -1400.00
00811             140.00    -1200.00
00812             120.00    -1200.00
00813             120.00    -1000.00
00814             100.00     -800.00
00815             120.00     -400.00
00816             100.00     -400.00
00817             120.00     -200.00
00818             100.00        0.00
00819             100.00      200.00
00820              80.00      400.00
00821             100.00      400.00
00822             180.00      600.00
00823             180.00      800.00
00824             140.00     1000.00
00825             120.00     1200.00
00826             100.00     1400.00
00827             120.00     1400.00
00828             340.00     1600.00
00829             980.00     2200.00
00830             800.00     2200.00
00831            -280.00     2400.00
00832           -1060.00     2400.00
00833           -1280.00     2600.00
00834            -160.00     3000.00
00835             920.00     3000.00
00836            -260.00     3000.00
00837            -140.00     3200.00
00838             420.00     3200.00
00839            -380.00     4000.00
00840            -120.00     3800.00
00841              60.00     3600.00
00842             -60.00     4600.00
00843             220.00     3800.00
00844            -280.00     4400.00
00845            -200.00     5000.00
00846            -120.00     4400.00
00847            -200.00     5200.00
00848              60.00     5200.00
00849            -220.00     5200.00
00850            -100.00     5600.00
00851            -140.00     5400.00
00852            -240.00     6000.00
00853             -40.00     5600.00
00854            -220.00     6200.00
00855            -200.00     6400.00
00856            -200.00     6000.00
00857            -140.00     6800.00
00858            -280.00     6400.00
00859            -280.00     6800.00
00860            -120.00     7200.00
00861            -220.00     6800.00
00862            -260.00     7200.00
00863            -220.00     7200.00
00864            -260.00     7600.00
00865            -320.00     7600.00
00866            -260.00     7600.00
00867            -280.00     7600.00
00868            -360.00     7800.00
00869            -300.00     8000.00
00870            -380.00     8000.00
00871            -340.00     8200.00
00872            -320.00     8400.00
00873            -360.00     8400.00
00874            -440.00     8400.00
00875            -420.00     8600.00
00876            -420.00     8800.00
00877            -440.00     8600.00
00878            -380.00     9000.00
00879            -460.00     8800.00
00880            -540.00     9000.00
00881            -500.00     9200.00
00882            -480.00     9200.00
00883            -540.00     9200.00
00884            -540.00     9400.00
00885            -540.00     9400.00
00886            -640.00     9400.00
00887            -620.00     9400.00
00888            -660.00     9600.00
00889            -700.00     9600.00
00890            -680.00     9600.00
00891            -700.00     9800.00
00892            -760.00     9600.00
00893            -780.00     9800.00
00894            -820.00    10000.00
00895            -860.00     9600.00
00896            -860.00     9600.00
00897            -900.00    10000.00
00898            -980.00    10000.00
00899           -1000.00    10000.00
00900           -1020.00    10000.00
00901           -1100.00     9800.00
00902           -1140.00    10000.00
00903           -1160.00     9600.00
00904           -1240.00    10000.00
00905           -1300.00     9800.00
00906           -1340.00    10000.00
00907           -1420.00    10000.00
00908           -1480.00     9800.00
00909           -1500.00     9800.00
00910           -1560.00     9600.00
00911           -1580.00     9800.00
00912           -1640.00     9600.00
00913           -1660.00     9600.00
00914           -1700.00     9600.00
00915           -1720.00     9600.00
00916           -1720.00     9600.00
00917           -1720.00     9400.00
00918           -1720.00     9600.00
00919           -1720.00     9400.00
00920           -1720.00     9400.00
00921           -1660.00     9200.00
00922           -1660.00     9200.00
00923           -1620.00     9200.00
00924           -1560.00     9000.00
00925           -1500.00     9200.00
00926           -1500.00     8800.00
00927           -1460.00     9000.00
00928           -1380.00     8800.00
00929           -1320.00     8600.00
00930           -1260.00     8600.00
00931           -1220.00     8600.00
00932           -1160.00     8400.00
00933           -1120.00     8400.00
00934           -1060.00     8200.00
00935           -1020.00     8000.00
00936            -980.00     8000.00
00937            -920.00     7800.00
00938            -860.00     7800.00
00939            -840.00     7600.00
00940            -800.00     7400.00
00941            -760.00     7400.00
00942            -700.00     7400.00
00943            -660.00     7000.00
00944            -660.00     7000.00
00945            -600.00     6800.00
00946            -580.00     6800.00
00947            -540.00     6800.00
00948            -520.00     6600.00
00949            -500.00     6400.00
00950            -480.00     6200.00
00951            -460.00     6200.00
00952            -440.00     6000.00
00953            -420.00     5800.00
00954            -420.00     5600.00
00955            -380.00     5400.00
00956            -360.00     5200.00
00957            -340.00     5000.00
00958            -360.00     5000.00
00959            -300.00     4800.00
00960            -320.00     4600.00
00961            -300.00     4400.00
00962            -280.00     4400.00
00963            -280.00     4400.00
00964            -260.00     4000.00
00965            -240.00     3800.00
00966            -220.00     3800.00
00967            -220.00     3400.00
00968            -220.00     3400.00
00969            -220.00     3200.00
00970            -200.00     3000.00
00971            -200.00     2800.00
00972            -200.00     2800.00
00973            -200.00     2400.00
00974            -180.00     2400.00
00975            -140.00     2000.00
00976            -140.00     2000.00
00977            -140.00     1600.00
00978            -120.00     1600.00
00979            -120.00     1400.00
00980            -120.00     1200.00
00981            -120.00     1000.00
00982            -120.00      800.00
00983            -100.00      600.00
00984            -100.00      400.00
00985             -60.00      400.00
00986             -60.00      200.00
00987             -60.00     -200.00
00988             -20.00     -200.00
00989              60.00     -400.00
00990              60.00     -600.00
00991              40.00     -800.00
00992              40.00    -1000.00
00993              20.00    -1200.00
00994              40.00    -1200.00
00995             100.00    -1200.00
00996             440.00    -1600.00
00997             900.00    -2000.00
00998             440.00    -2200.00
00999            -420.00    -2400.00
01000            -760.00    -2400.00
01001            -900.00    -2400.00
01002            -220.00    -2400.00
01003             680.00    -3200.00
01004             -20.00    -3000.00
01005             -20.00    -3200.00
01006             420.00    -3600.00
01007             -40.00    -3200.00
01008             200.00    -3600.00
01009             180.00    -4000.00
01010             100.00    -3800.00
01011             420.00    -4200.00
01012             100.00    -4400.00
01013             -20.00    -4400.00
01014             100.00    -4800.00
01015             100.00    -4800.00
01016             260.00    -5200.00
01017             180.00    -5000.00
01018             140.00    -5600.00
01019             120.00    -5400.00
01020             260.00    -5600.00
01021             260.00    -6000.00
01022             140.00    -5800.00
01023             280.00    -6000.00
01024             220.00    -6400.00
01025             220.00    -6400.00
01026             260.00    -6400.00
01027             200.00    -6600.00
01028             280.00    -6800.00
01029             340.00    -6800.00
01030             280.00    -7200.00
01031             260.00    -7200.00
01032             320.00    -7200.00
01033             340.00    -7600.00
01034             300.00    -7600.00
01035             340.00    -7600.00
01036             280.00    -7800.00
01037             320.00    -8000.00
01038             380.00    -8000.00
01039             380.00    -8000.00
01040             380.00    -8200.00
01041             420.00    -8400.00
01042             400.00    -8400.00
01043             400.00    -8400.00
01044             440.00    -8400.00
01045             460.00    -8400.00
01046             460.00    -8600.00
01047             500.00    -8800.00
01048             500.00    -8800.00
01049             500.00    -9000.00
01050             580.00    -9000.00
01051             580.00    -9000.00
01052             580.00    -9200.00
01053             600.00    -9200.00
01054             620.00    -9200.00
01055             600.00    -9200.00
01056             680.00    -9400.00
01057             700.00    -9200.00
01058             740.00    -9400.00
01059             780.00    -9600.00
01060             780.00    -9400.00
01061             820.00    -9600.00
01062             840.00    -9600.00
01063             900.00    -9600.00
01064             920.00    -9600.00
01065             980.00    -9600.00
01066            1000.00    -9600.00
01067            1020.00    -9800.00
01068            1060.00    -9600.00
01069            1140.00    -9600.00
01070            1160.00    -9600.00
01071            1260.00    -9600.00
01072            1300.00    -9800.00
01073            1340.00    -9600.00
01074            1420.00    -9600.00
01075            1460.00    -9600.00
01076            1500.00    -9800.00
01077            1560.00    -9600.00
01078            1620.00    -9400.00
01079            1660.00    -9400.00
01080            1660.00    -9400.00
01081            1700.00    -9600.00
01082            1700.00    -9200.00
01083            1720.00    -9400.00
01084            1720.00    -9200.00
01085            1740.00    -9200.00
01086            1720.00    -9200.00
01087            1700.00    -9200.00
01088            1680.00    -9000.00
01089            1640.00    -9000.00
01090            1640.00    -9000.00
01091            1580.00    -8800.00
01092            1560.00    -8800.00
01093            1500.00    -8600.00
01094            1440.00    -8800.00
01095            1380.00    -8600.00
01096            1320.00    -8400.00
01097            1300.00    -8400.00
01098            1240.00    -8200.00
01099            1180.00    -8200.00
01100            1120.00    -8000.00
01101            1060.00    -8000.00
01102            1000.00    -8000.00
01103             980.00    -7800.00
01104             920.00    -7600.00
01105             860.00    -7600.00
01106             840.00    -7400.00
01107             780.00    -7400.00
01108             740.00    -7200.00
01109             700.00    -7200.00
01110             680.00    -6800.00
01111             660.00    -7000.00
01112             620.00    -6600.00
01113             580.00    -6400.00
01114             560.00    -6400.00
01115             520.00    -6400.00
01116             520.00    -6200.00
01117             500.00    -6000.00
01118             460.00    -5800.00
01119             440.00    -5800.00
01120             420.00    -5600.00
01121             380.00    -5400.00
01122             380.00    -5200.00
01123             360.00    -5200.00
01124             360.00    -5000.00
01125             340.00    -4800.00
01126             340.00    -4800.00
01127             300.00    -4400.00
01128             300.00    -4200.00
01129             280.00    -4200.00
01130             280.00    -3800.00
01131             280.00    -4000.00
01132             260.00    -3600.00
01133             240.00    -3400.00
01134             220.00    -3400.00
01135             200.00    -3200.00
01136             200.00    -3000.00
01137             220.00    -2800.00
01138             200.00    -2800.00
01139             200.00    -2400.00
01140             180.00    -2400.00
01141             180.00    -2000.00
01142             180.00    -2000.00
01143             160.00    -1800.00
01144             140.00    -1600.00
01145             140.00    -1400.00
01146             140.00    -1200.00
01147             120.00    -1000.00
01148             120.00     -800.00
01149             100.00     -800.00
01150             120.00     -400.00
01151             100.00     -200.00
01152             100.00     -200.00
01153             100.00        0.00
01154              80.00      400.00
01155             100.00      400.00
01156             180.00      600.00
01157             180.00      600.00
01158             140.00      800.00
01159             120.00     1200.00
01160             100.00     1200.00
01161             120.00     1400.00
01162             220.00     1600.00
01163             840.00     1800.00
01164             980.00     2200.00
01165             -20.00     2200.00
01166            -920.00     2400.00
01167           -1300.00     2200.00
01168            -600.00     2800.00
01169             880.00     3000.00
01170             120.00     3000.00
01171            -380.00     3200.00
01172             420.00     3000.00
01173            -200.00     3600.00
01174            -280.00     4000.00
01175             140.00     3600.00
01176            -100.00     4400.00
01177             200.00     4200.00
01178            -120.00     4000.00
01179            -280.00     5200.00
01180             -60.00     4600.00
01181            -260.00     4800.00
01182              40.00     5200.00
01183            -140.00     4800.00
01184            -180.00     5600.00
01185             -60.00     5600.00
01186            -280.00     5600.00
01187             -40.00     6000.00
01188            -180.00     6000.00
01189            -220.00     6400.00
01190            -180.00     6000.00
01191            -160.00     6800.00
01192            -200.00     6600.00
01193            -340.00     6600.00
01194            -140.00     7000.00
01195            -200.00     6800.00
01196            -240.00     7200.00
01197            -220.00     7200.00
01198            -260.00     7600.00
01199            -320.00     7600.00
01200            -280.00     7600.00
01201            -260.00     8000.00
01202            -360.00     7600.00
01203            -300.00     8000.00
01204            -360.00     8000.00
01205            -360.00     8200.00
01206            -300.00     8400.00
01207            -340.00     8400.00
01208            -420.00     8600.00
01209            -420.00     8600.00
01210            -400.00     8800.00
01211            -440.00     8600.00
01212            -400.00     9000.00
01213            -440.00     9000.00
01214            -540.00     9000.00
01215            -520.00     9200.00
01216            -480.00     9200.00
01217            -520.00     9200.00
01218            -540.00     9200.00
01219            -540.00     9400.00
01220            -620.00     9400.00
01221            -620.00     9400.00
01222            -620.00     9600.00
01223            -680.00     9400.00
01224            -680.00     9600.00
01225            -680.00     9800.00
01226            -740.00     9600.00
01227            -780.00     9800.00
01228            -820.00    10000.00
01229            -860.00     9800.00
01230            -860.00     9800.00
01231            -860.00     9600.00
01232            -980.00     9800.00
01233           -1000.00     9800.00
01234           -1020.00     9600.00
01235           -1080.00    10000.00
01236           -1120.00    10000.00
01237           -1160.00    10000.00
01238           -1220.00    10000.00
01239           -1300.00    10000.00
01240           -1320.00     9800.00
01241           -1400.00     9800.00
01242           -1480.00    10000.00
01243           -1500.00     9600.00
01244           -1540.00     9800.00
01245           -1560.00     9600.00
01246           -1620.00     9600.00
01247           -1660.00     9600.00
01248           -1700.00     9600.00
01249           -1700.00     9600.00
01250           -1720.00     9400.00
01251           -1720.00     9600.00
01252           -1720.00     9400.00
01253           -1720.00     9400.00
01254           -1720.00     9400.00
01255           -1700.00     9200.00
01256           -1660.00     9400.00
01257           -1620.00     9200.00
01258           -1560.00     9200.00
01259           -1520.00     9000.00
01260           -1500.00     9000.00
01261           -1460.00     8800.00
01262           -1400.00     8800.00
01263           -1340.00     9000.00
01264           -1260.00     8600.00
01265           -1240.00     8600.00
01266           -1160.00     8400.00
01267           -1140.00     8400.00
01268           -1060.00     8400.00
01269           -1020.00     8200.00
01270           -1000.00     8000.00
01271            -920.00     7800.00
01272            -860.00     7800.00
01273            -860.00     7800.00
01274            -820.00     7600.00
01275            -760.00     7600.00
01276            -740.00     7200.00
01277            -680.00     7200.00
01278            -660.00     7000.00
01279            -620.00     6800.00
01280            -600.00     6800.00
01281            -580.00     6800.00
01282            -540.00     6800.00
01283            -520.00     6400.00
01284            -480.00     6400.00
01285            -460.00     6200.00
01286            -440.00     6000.00
01287            -440.00     5800.00
01288            -420.00     5600.00
01289            -380.00     5600.00
01290            -360.00     5400.00
01291            -360.00     5200.00
01292            -340.00     5000.00
01293            -340.00     4800.00
01294            -340.00     4600.00
01295            -300.00     4600.00
01296            -280.00     4400.00
01297            -280.00     4400.00
01298            -280.00     4000.00
01299            -240.00     3800.00
01300            -260.00     3600.00
01301            -220.00     3600.00
01302            -220.00     3400.00
01303            -220.00     3000.00
01304            -200.00     3000.00
01305            -200.00     2800.00
01306            -200.00     2800.00
01307            -200.00     2600.00
01308            -200.00     2200.00
01309            -140.00     2200.00
01310            -140.00     2000.00
01311            -120.00     1800.00
01312            -120.00     1600.00
01313            -120.00     1400.00
01314            -120.00     1200.00
01315            -120.00     1000.00
01316            -120.00      800.00
01317            -120.00      600.00
01318            -100.00      400.00
01319             -60.00      400.00
01320             -60.00        0.00
01321             -60.00        0.00
01322             -40.00     -200.00
01323              60.00     -400.00
01324             100.00     -600.00
01325              60.00     -600.00
01326              40.00    -1000.00
01327              40.00    -1000.00
01328              40.00    -1200.00
01329              60.00    -1200.00
01330             340.00    -1600.00
01331             840.00    -1800.00
01332             660.00    -2000.00
01333            -220.00    -2200.00
01334            -700.00    -2400.00
01335            -860.00    -2400.00
01336            -520.00    -2400.00
01337             580.00    -2800.00
01338             220.00    -3200.00
01339            -180.00    -2800.00
01340             420.00    -3600.00
01341              80.00    -3400.00
01342             100.00    -3400.00
01343             240.00    -4200.00
01344              20.00    -3800.00
01345             360.00    -4200.00
01346             200.00    -4400.00
01347             -40.00    -4400.00
01348             100.00    -4800.00
01349              60.00    -4800.00
01350             220.00    -5000.00
01351             200.00    -5000.00
01352             140.00    -5400.00
01353             140.00    -5600.00
01354             200.00    -5200.00
01355             280.00    -5800.00
01356             140.00    -5800.00
01357             220.00    -6000.00
01358             260.00    -6400.00
01359             200.00    -6200.00
01360             260.00    -6400.00
01361             200.00    -6600.00
01362             220.00    -7000.00
01363             340.00    -6800.00
01364             280.00    -7000.00
01365             260.00    -7200.00
01366             300.00    -7200.00
01367             340.00    -7400.00
01368             300.00    -7600.00
01369             340.00    -7600.00
01370             340.00    -7800.00
01371             300.00    -8000.00
01372             360.00    -8000.00
01373             380.00    -8000.00
01374             360.00    -8200.00
01375             420.00    -8000.00
01376             420.00    -8400.00
01377             400.00    -8400.00
01378             440.00    -8400.00
01379             460.00    -8600.00
01380             460.00    -8600.00
01381             500.00    -8800.00
01382             480.00    -8800.00
01383             460.00    -8800.00
01384             540.00    -9000.00
01385             600.00    -9000.00
01386             600.00    -9200.00
01387             600.00    -9200.00
01388             620.00    -9200.00
01389             600.00    -9200.00
01390             660.00    -9200.00
01391             700.00    -9200.00
01392             740.00    -9200.00
01393             780.00    -9400.00
01394             780.00    -9400.00
01395             800.00    -9600.00
01396             820.00    -9600.00
01397             880.00    -9600.00
01398             920.00    -9600.00
01399             960.00    -9600.00
01400            1000.00    -9600.00
01401            1020.00    -9600.00
01402            1060.00    -9600.00
01403            1100.00    -9600.00
01404            1160.00    -9600.00
01405            1220.00    -9600.00
01406            1300.00    -9800.00
01407            1340.00    -9600.00
01408            1400.00    -9600.00
01409            1460.00    -9600.00
01410            1480.00    -9600.00
01411            1540.00    -9600.00
01412            1620.00    -9600.00
01413            1640.00    -9400.00
01414            1660.00    -9400.00
01415            1700.00    -9400.00
01416            1700.00    -9400.00
01417            1720.00    -9200.00
01418            1720.00    -9200.00
01419            1740.00    -9200.00
01420            1720.00    -9200.00
01421            1720.00    -9200.00
01422            1700.00    -9000.00
01423            1640.00    -9000.00
01424            1640.00    -8800.00
01425            1580.00    -9000.00
01426            1560.00    -8800.00
01427            1500.00    -8800.00
01428            1460.00    -8800.00
01429            1380.00    -8800.00
01430            1340.00    -8400.00
01431            1300.00    -8400.00
01432            1240.00    -8400.00
01433            1180.00    -8200.00
01434            1140.00    -8000.00
01435            1060.00    -8000.00
01436            1020.00    -8000.00
01437             980.00    -8000.00
01438             940.00    -7600.00
01439             900.00    -7600.00
01440             840.00    -7600.00
01441             820.00    -7400.00
01442             760.00    -7200.00
01443             700.00    -7200.00
01444             680.00    -7200.00
01445             660.00    -6800.00
01446             620.00    -6800.00
01447             580.00    -6600.00
01448             580.00    -6600.00
01449             520.00    -6400.00
01450             500.00    -6200.00
01451             460.00    -6000.00
01452             480.00    -6000.00
01453             440.00    -5800.00
01454             440.00    -5600.00
01455             380.00    -5400.00
01456             380.00    -5200.00
01457             360.00    -5200.00
01458             360.00    -5000.00
01459             360.00    -4800.00
01460             340.00    -4800.00
01461             300.00    -4600.00
01462             280.00    -4400.00
01463             280.00    -4200.00
01464             280.00    -4000.00
01465             260.00    -3800.00
01466             260.00    -3600.00
01467             260.00    -3600.00
01468             220.00    -3400.00
01469             200.00    -3200.00
01470             220.00    -3000.00
01471             200.00    -2800.00
01472             200.00    -2600.00
01473             200.00    -2600.00
01474             180.00    -2400.00
01475             160.00    -2000.00
01476             160.00    -2000.00
01477             180.00    -1800.00
01478             140.00    -1600.00
01479             140.00    -1600.00
01480             140.00    -1200.00
01481             120.00    -1000.00
01482             100.00     -800.00
01483             120.00     -800.00
01484             120.00     -400.00
01485             100.00     -400.00
01486             100.00        0.00
01487             100.00        0.00
01488              80.00      400.00
01489             100.00      400.00
01490             140.00      600.00
01491             180.00      600.00
01492             180.00      800.00
01493             120.00     1000.00
01494             100.00     1200.00
01495             100.00     1400.00
01496             140.00     1600.00
01497             640.00     1600.00
01498            1060.00     2200.00
01499             300.00     2000.00
01500            -760.00     2200.00
01501           -1240.00     2200.00
01502            -960.00     2800.00
01503             620.00     3000.00
01504             500.00     2800.00
01505            -500.00     3200.00
01506             280.00     3200.00
01507              40.00     3200.00
01508            -420.00     4200.00
01509             120.00     3400.00
01510             -60.00     4200.00
01511             120.00     4400.00
01512              40.00     3800.00
01513            -340.00     4800.00
01514             -60.00     4600.00
01515            -220.00     4400.00
01516             -40.00     5400.00
01517             -40.00     4800.00
01518            -220.00     5400.00
01519             -20.00     5600.00
01520            -260.00     5400.00
01521            -100.00     6000.00
01522            -100.00     5800.00
01523            -220.00     6400.00
01524            -140.00     6200.00
01525            -200.00     6400.00
01526            -140.00     6800.00
01527            -340.00     6400.00
01528            -200.00     7000.00
01529            -140.00     7000.00
01530            -240.00     7000.00
01531            -220.00     7200.00
01532            -260.00     7200.00
01533            -280.00     7600.00
01534            -300.00     7400.00
01535            -220.00     8000.00
01536            -340.00     7600.00
01537            -300.00     8000.00
01538            -340.00     8000.00
01539            -360.00     8000.00
01540            -320.00     8200.00
01541            -300.00     8400.00
01542            -380.00     8600.00
01543            -420.00     8400.00
01544            -380.00     8800.00
01545            -440.00     9000.00
01546            -420.00     8800.00
01547            -420.00     8800.00
01548            -520.00     9000.00
01549            -520.00     8800.00
01550            -460.00     9200.00
01551            -520.00     9200.00
01552            -540.00     9200.00
01553            -540.00     9400.00
01554            -600.00     9400.00
01555            -620.00     9400.00
01556            -620.00     9600.00
01557            -680.00     9600.00
01558            -700.00     9400.00
01559            -680.00     9800.00
01560            -700.00     9600.00
01561            -780.00     9600.00
01562            -820.00     9800.00
01563            -840.00     9600.00
01564            -860.00     9600.00
01565            -900.00     9800.00
01566            -940.00    10000.00
01567           -1000.00     9800.00
01568           -1020.00     9800.00
01569           -1060.00    10000.00
01570           -1100.00    10000.00
01571           -1160.00     9800.00
01572           -1180.00    10000.00
01573           -1260.00     9800.00
01574           -1320.00    10000.00
01575           -1380.00     9800.00
01576           -1460.00     9800.00
01577           -1500.00    10000.00
01578           -1520.00     9800.00
01579           -1580.00     9600.00
01580           -1620.00     9600.00
01581           -1660.00     9600.00
01582           -1700.00     9600.00
01583           -1720.00     9600.00
01584           -1720.00     9600.00
01585           -1720.00     9600.00
01586           -1720.00     9400.00
01587           -1720.00     9400.00
01588           -1720.00     9200.00
01589           -1700.00     9200.00
01590           -1660.00     9200.00
01591           -1640.00     9200.00
01592           -1580.00     9200.00
01593           -1540.00     9200.00
01594           -1500.00     9000.00
01595           -1480.00     8800.00
01596           -1400.00     9000.00
01597           -1340.00     8800.00
01598           -1300.00     8600.00
01599           -1240.00     8600.00
01600           -1180.00     8600.00
01601           -1140.00     8400.00
01602           -1100.00     8400.00
01603           -1020.00     8200.00
01604            -980.00     8000.00
01605            -940.00     8000.00
01606            -880.00     7800.00
01607            -860.00     7600.00
01608            -820.00     7600.00
01609            -780.00     7600.00
01610            -740.00     7200.00
01611            -680.00     7400.00
01612            -660.00     7200.00
01613            -620.00     7000.00
01614            -600.00     7000.00
01615            -580.00     6800.00
01616            -540.00     6800.00
01617            -520.00     6400.00
01618            -500.00     6400.00
01619            -460.00     6200.00
01620            -440.00     6000.00
01621            -440.00     5800.00
01622            -440.00     5600.00
01623            -420.00     5600.00
01624            -380.00     5400.00
01625            -380.00     5200.00
01626            -360.00     5200.00
01627            -340.00     4800.00
01628            -340.00     4600.00
01629            -320.00     4600.00
01630            -300.00     4400.00
01631            -280.00     4200.00
01632            -280.00     4200.00
01633            -260.00     4000.00
01634            -280.00     3800.00
01635            -240.00     3600.00
01636            -220.00     3400.00
01637            -220.00     3200.00
01638            -220.00     3000.00
01639            -200.00     3000.00
01640            -200.00     2800.00
01641            -200.00     2600.00
01642            -200.00     2200.00
01643            -180.00     2200.00
01644            -140.00     2200.00
01645            -140.00     2000.00
01646            -140.00     1600.00
01647            -120.00     1400.00
01648            -120.00     1200.00
01649            -120.00     1200.00
01650            -120.00      800.00
01651            -120.00      600.00
01652             -60.00      600.00
01653             -60.00      400.00
01654             -60.00        0.00
01655             -60.00      200.00
01656             -40.00     -200.00
01657              40.00     -200.00
01658              80.00     -400.00
01659              60.00     -800.00
01660              40.00     -800.00
01661              40.00    -1000.00
01662              40.00    -1200.00
01663              60.00    -1200.00
01664             220.00    -1400.00
01665             740.00    -1600.00
01666             820.00    -2000.00
01667              20.00    -2200.00
01668            -660.00    -2400.00
01669            -820.00    -2400.00
01670            -700.00    -2200.00
01671             360.00    -2600.00
01672             480.00    -3200.00
01673            -220.00    -2800.00
01674             300.00    -3400.00
01675             220.00    -3400.00
01676             -20.00    -3200.00
01677             260.00    -4000.00
01678              40.00    -4000.00
01679             260.00    -3800.00
01680             320.00    -4400.00
01681             -40.00    -4200.00
01682              60.00    -4800.00
01683              60.00    -4800.00
01684             180.00    -5200.00
01685             220.00    -5000.00
01686             140.00    -5200.00
01687             120.00    -5800.00
01688             180.00    -5200.00
01689             280.00    -5800.00
01690             180.00    -5800.00
01691             180.00    -6000.00
01692             260.00    -6400.00
01693             180.00    -6400.00
01694             260.00    -6600.00
01695             220.00    -6400.00
01696             200.00    -6800.00
01697             320.00    -6800.00
01698             300.00    -7000.00
01699             260.00    -7200.00
01700             260.00    -7200.00
01701             340.00    -7400.00
01702             300.00    -7600.00
01703             340.00    -7600.00
01704             340.00    -7800.00
01705             300.00    -8000.00
01706             360.00    -8000.00
01707             380.00    -8000.00
01708             380.00    -8200.00
01709             380.00    -8200.00
01710             420.00    -8200.00
01711             400.00    -8400.00
01712             440.00    -8400.00
01713             460.00    -8400.00
01714             460.00    -8600.00
01715             500.00    -8800.00
01716             500.00    -8800.00
01717             500.00    -8800.00
01718             520.00    -9000.00
01719             580.00    -9000.00
01720             580.00    -9000.00
01721             600.00    -9200.00
01722             620.00    -9200.00
01723             620.00    -9200.00
01724             640.00    -9200.00
01725             700.00    -9400.00
01726             740.00    -9400.00
01727             760.00    -9400.00
01728             780.00    -9600.00
01729             820.00    -9600.00
01730             820.00    -9400.00
01731             860.00    -9600.00
01732             920.00    -9600.00
01733             940.00    -9600.00
01734            1000.00    -9600.00
01735            1020.00    -9600.00
01736            1060.00    -9600.00
01737            1100.00    -9600.00
01738            1160.00    -9600.00
01739            1200.00    -9600.00
01740            1260.00    -9800.00
01741            1320.00    -9600.00
01742            1380.00    -9600.00
01743            1420.00    -9600.00
01744            1480.00    -9600.00
01745            1540.00    -9600.00
01746            1580.00    -9400.00
01747            1640.00    -9600.00
01748            1660.00    -9400.00
01749            1700.00    -9400.00
01750            1700.00    -9400.00
01751            1700.00    -9200.00
01752            1720.00    -9200.00
01753            1740.00    -9200.00
01754            1720.00    -9200.00
01755            1700.00    -9200.00
01756            1660.00    -9000.00
01757            1660.00    -9000.00
01758            1620.00    -9000.00
01759            1620.00    -9000.00
01760            1580.00    -8800.00
01761            1540.00    -8800.00
01762            1460.00    -8800.00
01763            1400.00    -8800.00
01764            1340.00    -8400.00
01765            1300.00    -8400.00
01766            1260.00    -8400.00
01767            1220.00    -8200.00
01768            1160.00    -8000.00
01769            1100.00    -8000.00
01770            1020.00    -8000.00
01771             980.00    -7800.00
01772             940.00    -7600.00
01773             900.00    -7600.00
01774             860.00    -7600.00
01775             820.00    -7400.00
01776             760.00    -7200.00
01777             720.00    -7200.00
01778             680.00    -7200.00
01779             660.00    -7000.00
01780             660.00    -6800.00
01781             600.00    -6600.00
01782             580.00    -6400.00
01783             540.00    -6400.00
01784             520.00    -6200.00
01785             500.00    -6200.00
01786             500.00    -6000.00
01787             460.00    -5800.00
01788             440.00    -5800.00
01789             420.00    -5600.00
01790             380.00    -5400.00
01791             380.00    -5200.00
01792             360.00    -5000.00
01793             360.00    -4800.00
01794             340.00    -4800.00
01795             340.00    -4400.00
01796             300.00    -4400.00
01797             280.00    -4400.00
01798             280.00    -4000.00
01799             280.00    -3800.00
01800             260.00    -3600.00
01801             260.00    -3600.00
01802             260.00    -3400.00
01803             200.00    -3200.00
01804             220.00    -3200.00
01805             200.00    -3000.00
01806             200.00    -2600.00
01807             200.00    -2600.00
01808             180.00    -2400.00
01809             160.00    -2200.00
01810             180.00    -2000.00
01811             160.00    -2000.00
01812             140.00    -1800.00
01813             140.00    -1400.00
01814             140.00    -1400.00
01815             120.00    -1000.00
01816             100.00    -1000.00
01817             100.00     -800.00
01818             100.00     -600.00
01819             100.00     -400.00
01820             100.00     -200.00
01821             100.00        0.00
01822              60.00        0.00
01823              60.00      400.00
01824             120.00      600.00
01825             180.00      600.00
01826             180.00      800.00
01827             120.00     1000.00
01828             100.00     1200.00
01829             100.00     1400.00
01830             100.00     1600.00
01831             440.00     1600.00
01832            1020.00     2200.00
01833             580.00     2200.00
01834            -520.00     2200.00
01835           -1160.00     2200.00
01836           -1200.00     2600.00
01837             200.00     3000.00
01838             820.00     2800.00
01839            -440.00     3000.00
01840              60.00     3200.00
01841             280.00     3200.00
01842            -460.00     4000.00
01843              20.00     3600.00
01844              20.00     3800.00
01845              20.00     4400.00
01846             180.00     3800.00
01847            -300.00     4600.00
01848            -120.00     5000.00
01849            -200.00     4400.00
01850            -120.00     5200.00
01851              40.00     5000.00
01852            -260.00     5200.00
01853             -20.00     5600.00
01854            -200.00     5400.00
01855            -180.00     6000.00
01856             -40.00     5800.00
01857            -260.00     6400.00
01858            -180.00     6200.00
01859            -200.00     6200.00
01860            -140.00     6800.00
01861            -280.00     6400.00
01862            -260.00     6800.00
01863            -120.00     7000.00
01864            -220.00     7000.00
01865            -220.00     7200.00
01866            -240.00     7200.00
01867            -280.00     7600.00
01868            -300.00     7400.00
01869            -220.00     7800.00
01870            -300.00     7600.00
01871            -340.00     7800.00
01872            -300.00     8200.00
01873            -380.00     8000.00
01874            -300.00     8400.00
01875            -320.00     8400.00
01876            -360.00     8400.00
01877            -440.00     8400.00
01878            -400.00     8800.00
01879            -440.00     8800.00
01880            -440.00     9000.00
01881            -400.00     9000.00
01882            -500.00     9000.00
01883            -540.00     8800.00
01884            -500.00     9200.00
01885            -500.00     9200.00
01886            -540.00     9200.00
01887            -540.00     9400.00
01888            -580.00     9400.00
01889            -660.00     9400.00
01890            -620.00     9600.00
01891            -660.00     9600.00
01892            -700.00     9400.00
01893            -700.00     9600.00
01894            -700.00     9600.00
01895            -760.00     9600.00
01896            -820.00     9800.00
01897            -840.00     9800.00
01898            -860.00     9800.00
01899            -860.00     9800.00
01900            -920.00    10000.00
01901            -980.00    10000.00
01902           -1020.00    10000.00
01903           -1060.00    10000.00
01904           -1100.00     9800.00
01905           -1160.00     9800.00
01906           -1180.00    10000.00
01907           -1260.00     9800.00
01908           -1300.00    10000.00
01909           -1340.00     9800.00
01910           -1420.00     9800.00
01911           -1500.00     9800.00
01912           -1500.00     9800.00
01913           -1560.00     9600.00
01914           -1600.00     9800.00
01915           -1640.00     9600.00
01916           -1660.00     9800.00
01917           -1700.00     9600.00
01918           -1720.00     9600.00
01919           -1740.00     9600.00
01920           -1720.00     9400.00
01921           -1720.00     9400.00
01922           -1720.00     9400.00
01923           -1700.00     9400.00
01924           -1660.00     9200.00
01925           -1640.00     9200.00
01926           -1580.00     9200.00
01927           -1540.00     9200.00
01928           -1500.00     8800.00
01929           -1480.00     9000.00
01930           -1420.00     8800.00
01931           -1380.00     8800.00
01932           -1320.00     8800.00
01933           -1240.00     8600.00
01934           -1220.00     8600.00
01935           -1160.00     8400.00
01936           -1100.00     8200.00
01937           -1060.00     8000.00
01938           -1000.00     8000.00
01939            -940.00     8000.00
01940            -920.00     7800.00
01941            -860.00     8000.00
01942            -820.00     7600.00
01943            -780.00     7600.00
01944            -760.00     7200.00
01945            -700.00     7200.00
01946            -680.00     7200.00
01947            -660.00     7000.00
01948            -620.00     6800.00
01949            -600.00     6800.00
01950            -560.00     6400.00
01951            -540.00     6600.00
01952            -520.00     6400.00
01953            -460.00     6200.00
01954            -460.00     6000.00
01955            -440.00     6000.00
01956            -420.00     5800.00
01957            -420.00     5600.00
01958            -380.00     5400.00
01959            -360.00     5200.00
01960            -360.00     5200.00
01961            -340.00     4800.00
01962            -340.00     4800.00
01963            -320.00     4600.00
01964            -300.00     4400.00
01965            -280.00     4400.00
01966            -280.00     4000.00
01967            -260.00     4000.00
01968            -260.00     3800.00
01969            -240.00     3600.00
01970            -220.00     3600.00
01971            -220.00     3400.00
01972            -200.00     3200.00
01973            -200.00     3000.00
01974            -200.00     2800.00
01975            -200.00     2600.00
01976            -180.00     2400.00
01977            -180.00     2400.00
01978            -140.00     2000.00
01979            -140.00     1800.00
01980            -120.00     1600.00
01981            -120.00     1400.00
01982            -120.00     1400.00
01983            -120.00     1000.00
01984            -120.00     1000.00
01985            -100.00      600.00
01986             -60.00      600.00
01987             -60.00      400.00
01988             -60.00      400.00
01989             -60.00        0.00
01990             -40.00     -200.00
01991              20.00     -200.00
01992              80.00     -400.00
01993              60.00     -400.00
01994              40.00     -800.00
01995              40.00    -1000.00
01996              40.00    -1000.00
01997              40.00    -1200.00
01998             160.00    -1400.00
01999             580.00    -1600.00
02000             900.00    -2000.00
02001             260.00    -2400.00
02002            -520.00    -2200.00
02003            -780.00    -2400.00
02004            -840.00    -2400.00
02005              40.00    -2600.00
02006             660.00    -3200.00
02007            -160.00    -2800.00
02008             140.00    -3200.00
02009             360.00    -3800.00
02010             -60.00    -3200.00
02011             260.00    -4000.00
02012             100.00    -4000.00
02013             180.00    -3600.00
02014             380.00    -4400.00
02015               0.00    -4400.00
02016              20.00    -4600.00
02017              60.00    -4800.00
02018             120.00    -5000.00
02019             240.00    -5200.00
02020             140.00    -5000.00
02021             140.00    -5600.00
02022             120.00    -5400.00
02023             260.00    -5600.00
02024             220.00    -6000.00
02025             120.00    -5800.00
02026             280.00    -6200.00
02027             200.00    -6400.00
02028             220.00    -6400.00
02029             260.00    -6400.00
02030             180.00    -6600.00
02031             280.00    -7000.00
02032             340.00    -6800.00
02033             260.00    -7200.00
02034             260.00    -7200.00
02035             340.00    -7200.00
02036             300.00    -7600.00
02037             300.00    -7600.00
02038             340.00    -7600.00
02039             320.00    -7800.00
02040             340.00    -8000.00
02041             360.00    -8000.00
02042             380.00    -8200.00
02043             400.00    -8200.00
02044             420.00    -8200.00
02045             420.00    -8400.00
02046             420.00    -8400.00
02047             460.00    -8400.00
02048             460.00    -8600.00
02049             500.00    -8800.00
02050             500.00    -8800.00
02051             500.00    -8800.00
02052             520.00    -9000.00
02053             580.00    -9000.00
02054             600.00    -9200.00
02055             600.00    -9200.00
02056             620.00    -9200.00
02057             640.00    -9200.00
02058             620.00    -9200.00
02059             680.00    -9200.00
02060             700.00    -9400.00
02061             740.00    -9400.00
02062             780.00    -9400.00
02063             820.00    -9600.00
02064             820.00    -9600.00
02065             860.00    -9600.00
02066             900.00    -9600.00
02067             940.00    -9600.00
02068             980.00    -9600.00
02069            1000.00    -9800.00
02070            1060.00    -9600.00
02071            1080.00    -9800.00
02072            1140.00    -9600.00
02073            1180.00    -9800.00
02074            1260.00    -9800.00
02075            1320.00    -9600.00
02076            1380.00    -9800.00
02077            1400.00    -9600.00
02078            1460.00    -9600.00
02079            1500.00    -9600.00
02080            1580.00    -9800.00
02081            1620.00    -9400.00
02082            1640.00    -9600.00
02083            1660.00    -9600.00
02084            1700.00    -9400.00
02085            1700.00    -9400.00
02086            1720.00    -9200.00
02087            1740.00    -9400.00
02088            1740.00    -9200.00
02089            1720.00    -9200.00
02090            1700.00    -9000.00
02091            1660.00    -9200.00
02092            1640.00    -9000.00
02093            1600.00    -9000.00
02094            1580.00    -8800.00
02095            1540.00    -9000.00
02096            1480.00    -8800.00
02097            1420.00    -8800.00
02098            1380.00    -8400.00
02099            1320.00    -8400.00
02100            1300.00    -8400.00
02101            1220.00    -8200.00
02102            1160.00    -8200.00
02103            1100.00    -8000.00
02104            1060.00    -8000.00
02105            1000.00    -8000.00
02106             980.00    -7600.00
02107             920.00    -7600.00
02108             860.00    -7600.00
02109             820.00    -7600.00
02110             780.00    -7200.00
02111             740.00    -7200.00
02112             700.00    -7000.00
02113             680.00    -7000.00
02114             660.00    -6800.00
02115             620.00    -6600.00
02116             600.00    -6600.00
02117             540.00    -6400.00
02118             540.00    -6400.00
02119             500.00    -6200.00
02120             480.00    -6000.00
02121             460.00    -5800.00
02122             440.00    -5800.00
02123             420.00    -5600.00
02124             380.00    -5400.00
02125             360.00    -5200.00
02126             360.00    -5000.00
02127             360.00    -5000.00
02128             360.00    -5000.00
02129             340.00    -4600.00
02130             300.00    -4400.00
02131             280.00    -4400.00
02132             280.00    -4200.00
02133             260.00    -4000.00
02134             280.00    -3800.00
02135             280.00    -3600.00
02136             220.00    -3400.00
02137             240.00    -3200.00
02138             200.00    -3200.00
02139             200.00    -2800.00
02140             200.00    -2800.00
02141             200.00    -2600.00
02142             200.00    -2400.00
02143             140.00    -2200.00
02144             160.00    -2000.00
02145             140.00    -2000.00
02146             140.00    -1800.00
02147             140.00    -1600.00
02148             120.00    -1400.00
02149             120.00    -1200.00
02150             120.00    -1000.00
02151             100.00     -800.00
02152             100.00     -800.00
02153             100.00     -400.00
02154             100.00     -200.00
02155              60.00        0.00
02156              60.00        0.00
02157              60.00      200.00
02158             100.00      600.00
02159             140.00      600.00
02160             180.00      600.00
02161             120.00      800.00
02162             120.00     1200.00
02163             100.00     1200.00
02164             100.00     1400.00
02165             300.00     1600.00
02166             960.00     2000.00
02167             820.00     2200.00
02168            -260.00     2200.00
02169           -1020.00     2200.00
02170           -1300.00     2600.00
02171            -260.00     3000.00
02172             920.00     3000.00
02173            -200.00     2800.00
02174            -220.00     3200.00
02175             420.00     3200.00
02176            -360.00     3800.00
02177            -120.00     4000.00
02178             100.00     3600.00
02179             -60.00     4600.00
02180             220.00     4000.00
02181            -220.00     4200.00
02182            -200.00     5200.00
02183            -120.00     4400.00
02184            -220.00     4800.00
02185              80.00     5200.00
02186            -220.00     4800.00
02187            -100.00     5600.00
02188            -120.00     5400.00
02189            -220.00     5600.00
02190             -20.00     6000.00
02191            -220.00     6200.00
02192            -200.00     6400.00
02193            -180.00     6000.00
02194            -140.00     6800.00
02195            -260.00     6600.00
02196            -300.00     6800.00
02197            -120.00     7200.00
02198            -220.00     6800.00
02199            -220.00     7200.00
02200            -260.00     7200.00
02201            -260.00     7600.00
02202            -300.00     7600.00
02203            -260.00     7800.00
02204            -280.00     7600.00
02205            -380.00     7800.00
02206            -300.00     8000.00
02207            -380.00     8000.00
02208            -360.00     8000.00
02209            -300.00     8400.00
02210            -360.00     8600.00
02211            -440.00     8600.00
02212            -420.00     8400.00
02213            -440.00     9000.00
02214            -440.00     8600.00
02215            -380.00     9000.00
02216            -460.00     9000.00
02217            -540.00     8800.00
02218            -520.00     9000.00
02219            -500.00     9200.00
02220            -540.00     9200.00
02221            -540.00     9200.00
02222            -580.00     9400.00
02223            -640.00     9400.00
02224            -620.00     9400.00
02225            -660.00     9400.00
02226            -700.00     9600.00
02227            -700.00     9600.00
02228            -700.00     9600.00
02229            -760.00     9600.00
02230            -820.00     9600.00
02231            -820.00     9800.00
02232            -860.00     9800.00
02233            -860.00    10000.00
02234            -860.00    10000.00
02235            -980.00    10000.00
02236           -1020.00    10000.00
02237           -1020.00    10000.00
02238           -1140.00    10000.00
02239           -1200.00     9800.00
02240           -1240.00    10000.00
02241           -1220.00    10000.00
02242           -1240.00    10000.00
02243           -1240.00    10000.00
02244           -1320.00     9600.00
02245           -1460.00    10000.00
02246           -1480.00     9600.00
02247           -1620.00     9800.00
02248           -1660.00     9600.00
02249           -1680.00     9600.00
02250           -1660.00     9800.00
02251           -1720.00     9600.00
02252           -1700.00     9600.00
02253           -1680.00     9400.00
02254           -1680.00     9600.00
02255           -1660.00     9600.00
02256           -1680.00     9400.00
02257           -1700.00     9400.00
02258           -1700.00     9200.00
02259           -1720.00     9200.00
02260           -1680.00     9200.00
02261           -1560.00     9200.00
02262           -1500.00     9000.00
02263           -1480.00     9000.00
02264           -1400.00     8800.00
02265           -1340.00     9000.00
02266           -1320.00     8600.00
02267           -1260.00     8800.00
02268           -1240.00     8400.00
02269           -1220.00     8400.00
02270           -1160.00     8400.00
02271           -1100.00     8200.00
02272            -980.00     8000.00
02273            -920.00     8000.00
02274            -860.00     7800.00
02275            -840.00     7600.00
02276            -840.00     7600.00
02277            -820.00     7600.00
02278            -820.00     7400.00
02279            -760.00     7200.00
02280            -700.00     7000.00
02281            -660.00     7000.00
02282            -620.00     7000.00
02283            -580.00     6800.00
02284            -540.00     6800.00
02285            -520.00     6600.00
02286            -500.00     6200.00
02287            -500.00     6200.00
02288            -500.00     6000.00
02289            -460.00     6000.00
02290            -460.00     5600.00
02291            -420.00     5600.00
02292            -380.00     5400.00
02293            -360.00     5400.00
02294            -340.00     5200.00
02295            -340.00     4800.00
02296            -340.00     4800.00
02297            -340.00     4600.00
02298            -340.00     4600.00
02299            -300.00     4400.00
02300            -300.00     4200.00
02301            -280.00     4000.00
02302            -260.00     3800.00
02303            -220.00     3800.00
02304            -220.00     3600.00
02305            -220.00     3200.00
02306            -220.00     3200.00
02307            -200.00     3000.00
02308            -200.00     2800.00
02309            -200.00     2600.00
02310            -200.00     2400.00
02311            -180.00     2600.00
02312            -140.00     2200.00
02313            -120.00     1800.00
02314            -120.00     1600.00
02315            -120.00     1600.00
02316            -140.00     1400.00
02317            -120.00     1000.00
02318            -120.00     1200.00
02319            -100.00      800.00
02320            -100.00      600.00
02321             -60.00      400.00
02322             -60.00      400.00
02323             -60.00        0.00
02324             -60.00        0.00
02325             -20.00     -200.00
02326              60.00     -400.00
02327              60.00     -600.00
02328              40.00     -800.00
02329              20.00    -1000.00
02330              40.00    -1000.00
02331              40.00    -1200.00
02332             120.00    -1600.00
02333             440.00    -1600.00
02334             900.00    -2000.00
02335             460.00    -2200.00
02336            -380.00    -2400.00
02337            -760.00    -2600.00
02338            -860.00    -2400.00
02339            -280.00    -2400.00
02340             680.00    -3200.00
02341              40.00    -3000.00
02342             -60.00    -3200.00
02343             420.00    -3800.00
02344             -20.00    -3400.00
02345             180.00    -3600.00
02346             180.00    -4200.00
02347              60.00    -3800.00
02348             380.00    -4200.00
02349             100.00    -4400.00
02350             -40.00    -4600.00
02351             100.00    -4800.00
02352              80.00    -4800.00
02353             220.00    -5200.00
02354             180.00    -5000.00
02355             140.00    -5400.00
02356             120.00    -5600.00
02357             220.00    -5400.00
02358             260.00    -6000.00
02359             120.00    -5800.00
02360             260.00    -6000.00
02361             220.00    -6400.00
02362             220.00    -6400.00
02363             260.00    -6600.00
02364             180.00    -6600.00
02365             260.00    -7000.00
02366             340.00    -6800.00
02367             280.00    -7200.00
02368             260.00    -7200.00
02369             340.00    -7400.00
02370             340.00    -7600.00
02371             300.00    -7600.00
02372             340.00    -7600.00
02373             300.00    -8000.00
02374             320.00    -8000.00
02375             380.00    -8000.00
02376             380.00    -8200.00
02377             380.00    -8200.00
02378             440.00    -8200.00
02379             420.00    -8400.00
02380             420.00    -8400.00
02381             460.00    -8400.00
02382             460.00    -8800.00
02383             500.00    -8800.00
02384             500.00    -8800.00
02385             500.00    -8800.00
02386             520.00    -8800.00
02387             580.00    -9000.00
02388             580.00    -9000.00
02389             600.00    -9200.00
02390             620.00    -9200.00
02391             620.00    -9200.00
02392             620.00    -9200.00
02393             680.00    -9200.00
02394             740.00    -9200.00
02395             740.00    -9200.00
02396             780.00    -9600.00
02397             800.00    -9600.00
02398             820.00    -9600.00
02399             840.00    -9600.00
02400             900.00    -9600.00
02401             940.00    -9600.00
02402             980.00    -9600.00
02403            1000.00    -9600.00
02404            1020.00    -9600.00
02405            1080.00    -9600.00
02406            1120.00    -9600.00
02407            1160.00    -9400.00
02408            1240.00    -9800.00
02409            1300.00    -9800.00
02410            1340.00    -9600.00
02411            1400.00    -9600.00
02412            1420.00    -9600.00
02413            1500.00    -9800.00
02414            1560.00    -9600.00
02415            1620.00    -9600.00
02416            1640.00    -9600.00
02417            1660.00    -9400.00
02418            1700.00    -9400.00
02419            1700.00    -9400.00
02420            1720.00    -9200.00
02421            1740.00    -9200.00
02422            1720.00    -9200.00
02423            1720.00    -9200.00
02424            1700.00    -9000.00
02425            1680.00    -9200.00
02426            1640.00    -9000.00
02427            1620.00    -9000.00
02428            1600.00    -9000.00
02429            1540.00    -8800.00
02430            1500.00    -8800.00
02431            1440.00    -8600.00
02432            1380.00    -8400.00
02433            1320.00    -8400.00
02434            1300.00    -8400.00
02435            1240.00    -8200.00
02436            1180.00    -8400.00
02437            1100.00    -8200.00
02438            1080.00    -8000.00
02439            1000.00    -8000.00
02440             980.00    -7800.00
02441             920.00    -7800.00
02442             880.00    -7600.00
02443             840.00    -7400.00
02444             800.00    -7400.00
02445             760.00    -7200.00
02446             720.00    -7200.00
02447             680.00    -6800.00
02448             660.00    -6800.00
02449             620.00    -6600.00
02450             600.00    -6400.00
02451             580.00    -6400.00
02452             520.00    -6200.00
02453             520.00    -6400.00
02454             500.00    -6000.00
02455             460.00    -6000.00
02456             440.00    -5600.00
02457             420.00    -5600.00
02458             420.00    -5400.00
02459             380.00    -5200.00
02460             360.00    -5200.00
02461             360.00    -5000.00
02462             360.00    -4800.00
02463             340.00    -4600.00
02464             300.00    -4400.00
02465             300.00    -4400.00
02466             280.00    -4200.00
02467             260.00    -4000.00
02468             260.00    -3800.00
02469             260.00    -3600.00
02470             220.00    -3400.00
02471             220.00    -3400.00
02472             220.00    -3200.00
02473             200.00    -3000.00
02474             200.00    -2800.00
02475             200.00    -2600.00
02476             200.00    -2600.00
02477             180.00    -2400.00
02478             180.00    -2200.00
02479             140.00    -2000.00
02480             140.00    -1800.00
02481             140.00    -1600.00
02482             120.00    -1600.00
02483             140.00    -1200.00
02484             120.00    -1000.00
02485             100.00     -800.00
02486             100.00     -800.00
02487             100.00     -400.00
02488              60.00     -200.00
02489              80.00     -200.00
02490              60.00        0.00
02491              60.00      200.00
02492             100.00      400.00
02493             140.00      600.00
02494             180.00      800.00
02495             140.00      800.00
02496             120.00     1000.00
02497             100.00     1200.00
02498             100.00     1600.00
02499             220.00     1600.00
02500             780.00     2000.00
02501            1000.00     2200.00
02502              60.00     2200.00
02503            -900.00     2200.00
02504           -1280.00     2400.00
02505            -680.00     3000.00
02506             840.00     3000.00
02507             200.00     2800.00
02508            -420.00     3200.00
02509             420.00     3000.00
02510            -140.00     3800.00
02511            -300.00     4200.00
02512             140.00     3600.00
02513            -100.00     4600.00
02514             200.00     4200.00
02515            -100.00     3800.00
02516            -280.00     5200.00
02517             -60.00     4600.00
02518            -240.00     4600.00
02519              40.00     5400.00
02520            -120.00     4800.00
02521            -180.00     5400.00
02522             -40.00     5400.00
02523            -280.00     5600.00
02524             -40.00     5800.00
02525            -140.00     5800.00
02526            -220.00     6400.00
02527            -160.00     6000.00
02528            -140.00     6400.00
02529            -180.00     6800.00
02530            -340.00     6400.00
02531            -140.00     7200.00
02532            -180.00     7000.00
02533            -260.00     7200.00
02534            -220.00     7200.00
02535            -260.00     7400.00
02536            -300.00     7400.00
02537            -280.00     7600.00
02538            -260.00     7800.00
02539            -380.00     7800.00
02540            -300.00     8000.00
02541            -360.00     8000.00
02542            -360.00     8000.00
02543            -300.00     8400.00
02544            -320.00     8400.00
02545            -420.00     8400.00
02546            -440.00     8600.00
02547            -420.00     8800.00
02548            -440.00     8600.00
02549            -400.00     9000.00
02550            -440.00     9000.00
02551            -520.00     9000.00
02552            -520.00     9200.00
02553            -480.00     9200.00
02554            -520.00     9200.00
02555            -540.00     9200.00
02556            -540.00     9400.00
02557            -640.00     9400.00
02558            -620.00     9400.00
02559            -660.00     9600.00
02560            -680.00     9400.00
02561            -700.00     9600.00
02562            -700.00     9600.00
02563            -740.00     9600.00
02564            -780.00     9600.00
02565            -820.00     9800.00
02566            -840.00     9600.00
02567            -860.00    10000.00
02568            -900.00    10000.00
02569            -940.00     9800.00
02570           -1000.00    10000.00
02571           -1020.00    10000.00
02572           -1080.00    10000.00
02573           -1140.00     9800.00
02574           -1160.00    10000.00
02575           -1220.00    10000.00
02576           -1260.00    10000.00
02577           -1320.00    10000.00
02578           -1380.00     9800.00
02579           -1460.00    10000.00
02580           -1500.00    10000.00
02581           -1520.00     9600.00
02582           -1580.00     9800.00
02583           -1620.00     9600.00
02584           -1660.00     9800.00
02585           -1700.00     9600.00
02586           -1720.00     9600.00
02587           -1720.00     9600.00
02588           -1720.00     9600.00
02589           -1720.00     9400.00
02590           -1700.00     9400.00
02591           -1720.00     9400.00
02592           -1700.00     9400.00
02593           -1660.00     9200.00
02594           -1620.00     9200.00
02595           -1560.00     9200.00
02596           -1500.00     9000.00
02597           -1500.00     9200.00
02598           -1460.00     8800.00
02599           -1420.00     9000.00
02600           -1340.00     8800.00
02601           -1300.00     8600.00
02602           -1240.00     8600.00
02603           -1180.00     8400.00
02604           -1140.00     8200.00
02605           -1080.00     8400.00
02606           -1020.00     8200.00
02607           -1000.00     8000.00
02608            -920.00     8000.00
02609            -860.00     7800.00
02610            -840.00     7600.00
02611            -820.00     7600.00
02612            -780.00     7600.00
02613            -740.00     7200.00
02614            -700.00     7200.00
02615            -660.00     7000.00
02616            -620.00     6800.00
02617            -600.00     6800.00
02618            -580.00     6800.00
02619            -540.00     6600.00
02620            -520.00     6400.00
02621            -500.00     6200.00
02622            -460.00     6200.00
02623            -440.00     6000.00
02624            -440.00     5800.00
02625            -420.00     5600.00
02626            -400.00     5400.00
02627            -380.00     5400.00
02628            -360.00     5200.00
02629            -340.00     4800.00
02630            -340.00     5000.00
02631            -340.00     4600.00
02632            -300.00     4600.00
02633            -280.00     4400.00
02634            -280.00     4200.00
02635            -280.00     4000.00
02636            -260.00     3800.00
02637            -220.00     3800.00
02638            -220.00     3600.00
02639            -220.00     3400.00
02640            -220.00     3200.00
02641            -200.00     3000.00
02642            -200.00     2800.00
02643            -200.00     2600.00
02644            -200.00     2400.00
02645            -180.00     2400.00
02646            -180.00     2200.00
02647            -140.00     2000.00
02648            -120.00     1800.00
02649            -120.00     1600.00
02650            -120.00     1400.00
02651            -120.00     1200.00
02652            -120.00     1200.00
02653            -120.00      800.00
02654            -100.00      800.00
02655             -60.00      600.00
02656             -60.00      400.00
02657             -60.00      200.00
02658             -40.00        0.00
02659             -20.00        0.00
02660              40.00     -400.00
02661              80.00     -600.00
02662              60.00     -800.00
02663              40.00    -1000.00
02664              20.00    -1000.00
02665              40.00    -1200.00
02666              60.00    -1400.00
02667             300.00    -1400.00
02668             820.00    -1800.00
02669             680.00    -2200.00
02670            -180.00    -2400.00
02671            -700.00    -2400.00
02672            -860.00    -2400.00
02673            -580.00    -2400.00
02674             540.00    -2800.00
02675             280.00    -3200.00
02676            -200.00    -2800.00
02677             380.00    -3600.00
02678             100.00    -3400.00
02679              40.00    -3400.00
02680             220.00    -4200.00
02681              20.00    -3800.00
02682             340.00    -4200.00
02683             220.00    -4400.00
02684             -60.00    -4400.00
02685             100.00    -4800.00
02686              60.00    -4800.00
02687             220.00    -5200.00
02688             200.00    -5000.00
02689             140.00    -5400.00
02690             120.00    -5600.00
02691             200.00    -5600.00
02692             300.00    -5800.00
02693             140.00    -6000.00
02694             220.00    -5800.00
02695             260.00    -6400.00
02696             200.00    -6400.00
02697             260.00    -6400.00
02698             200.00    -6600.00
02699             220.00    -6800.00
02700             340.00    -6800.00
02701             300.00    -7200.00
02702             260.00    -7400.00
02703             300.00    -7200.00
02704             340.00    -7600.00
02705             300.00    -7600.00
02706             340.00    -7600.00
02707             340.00    -7800.00
02708             300.00    -7800.00
02709             360.00    -8000.00
02710             380.00    -8000.00
02711             380.00    -8200.00
02712             420.00    -8200.00
02713             420.00    -8400.00
02714             400.00    -8400.00
02715             440.00    -8400.00
02716             480.00    -8400.00
02717             460.00    -8800.00
02718             500.00    -8800.00
02719             500.00    -8800.00
02720             500.00    -9000.00
02721             540.00    -9000.00
02722             580.00    -9000.00
02723             600.00    -9000.00
02724             600.00    -9200.00
02725             620.00    -9000.00
02726             600.00    -9200.00
02727             660.00    -9200.00
02728             700.00    -9400.00
02729             700.00    -9400.00
02730             760.00    -9400.00
02731             820.00    -9600.00
02732             800.00    -9600.00
02733             820.00    -9600.00
02734             860.00    -9600.00
02735             920.00    -9800.00
02736             940.00    -9800.00
02737            1000.00    -9800.00
02738            1000.00    -9800.00
02739            1060.00    -9600.00
02740            1100.00    -9600.00
02741            1160.00    -9600.00
02742            1220.00    -9600.00
02743            1300.00    -9800.00
02744            1340.00    -9600.00
02745            1380.00    -9600.00
02746            1420.00    -9600.00
02747            1480.00    -9600.00
02748            1540.00    -9600.00
02749            1620.00    -9600.00
02750            1640.00    -9400.00
02751            1640.00    -9600.00
02752            1700.00    -9600.00
02753            1720.00    -9400.00
02754            1720.00    -9400.00
02755            1740.00    -9200.00
02756            1720.00    -9200.00
02757            1740.00    -9200.00
02758            1720.00    -9200.00
02759            1700.00    -9000.00
02760            1640.00    -9000.00
02761            1640.00    -9000.00
02762            1580.00    -9000.00
02763            1560.00    -8800.00
02764            1500.00    -8800.00
02765            1460.00    -8800.00
02766            1400.00    -8600.00
02767            1340.00    -8400.00
02768            1300.00    -8400.00
02769            1260.00    -8400.00
02770            1220.00    -8200.00
02771            1140.00    -8200.00
02772            1080.00    -8000.00
02773            1020.00    -7800.00
02774             980.00    -7800.00
02775             940.00    -7800.00
02776             900.00    -7600.00
02777             840.00    -7400.00
02778             820.00    -7400.00
02779             760.00    -7200.00
02780             740.00    -7200.00
02781             680.00    -7000.00
02782             680.00    -7000.00
02783             640.00    -6800.00
02784             600.00    -6400.00
02785             580.00    -6400.00
02786             540.00    -6400.00
02787             520.00    -6000.00
02788             520.00    -6000.00
02789             460.00    -5800.00
02790             460.00    -5800.00
02791             440.00    -5600.00
02792             420.00    -5400.00
02793             380.00    -5200.00
02794             360.00    -5200.00
02795             360.00    -4800.00
02796             360.00    -5000.00
02797             340.00    -4800.00
02798             320.00    -4600.00
02799             280.00    -4400.00
02800             280.00    -4200.00
02801             280.00    -4000.00
02802             260.00    -4000.00
02803             260.00    -3800.00
02804             220.00    -3600.00
02805             220.00    -3200.00
02806             200.00    -3200.00
02807             200.00    -3200.00
02808             200.00    -2800.00
02809             200.00    -2800.00
02810             200.00    -2400.00
02811             180.00    -2400.00
02812             140.00    -2000.00
02813             140.00    -2000.00
02814             140.00    -1800.00
02815             140.00    -1600.00
02816             140.00    -1400.00
02817             140.00    -1200.00
02818             100.00    -1000.00
02819             100.00     -800.00
02820             100.00     -800.00
02821             120.00     -400.00
02822             100.00     -200.00
02823             100.00     -200.00
02824             100.00        0.00
02825              60.00        0.00
02826             100.00      400.00
02827             140.00      600.00
02828             180.00      600.00
02829             180.00      800.00
02830             120.00     1000.00
02831             100.00     1200.00
02832             100.00     1400.00
02833             160.00     1600.00
02834             600.00     1800.00
02835            1060.00     2200.00
02836             360.00     2200.00
02837            -700.00     2200.00
02838           -1220.00     2400.00
02839           -1020.00     2800.00
02840             560.00     3000.00
02841             580.00     2800.00
02842            -500.00     3200.00
02843             260.00     3200.00
02844             120.00     3400.00
02845            -420.00     4000.00
02846             120.00     3600.00
02847             -60.00     4200.00
02848             100.00     4400.00
02849              80.00     3600.00
02850            -340.00     4800.00
02851             -60.00     4800.00
02852            -220.00     4600.00
02853             -40.00     5400.00
02854             -20.00     4800.00
02855            -220.00     5400.00
02856             -20.00     5600.00
02857            -260.00     5400.00
02858            -100.00     6000.00
02859            -100.00     5800.00
02860            -240.00     6200.00
02861            -180.00     6200.00
02862            -200.00     6400.00
02863            -180.00     6800.00
02864            -300.00     6400.00
02865            -220.00     7000.00
02866            -140.00     6800.00
02867            -260.00     7000.00
02868            -220.00     7200.00
02869            -280.00     7200.00
02870            -300.00     7600.00
02871            -300.00     7400.00
02872            -240.00     8000.00
02873            -360.00     7600.00
02874            -300.00     7800.00
02875            -340.00     8000.00
02876            -380.00     8000.00
02877            -300.00     8400.00
02878            -340.00     8400.00
02879            -380.00     8600.00
02880            -440.00     8600.00
02881            -400.00     8800.00
02882            -440.00     9000.00
02883            -420.00     8800.00
02884            -420.00     9000.00
02885            -520.00     8800.00
02886            -540.00     9000.00
02887            -480.00     9200.00
02888            -500.00     9200.00
02889            -540.00     9200.00
02890            -540.00     9400.00
02891            -620.00     9400.00
02892            -620.00     9400.00
02893            -620.00     9600.00
02894            -680.00     9400.00
02895            -700.00     9600.00
02896            -700.00     9600.00
02897            -700.00     9800.00
02898            -760.00     9800.00
02899            -820.00     9800.00
02900            -840.00     9800.00
02901            -860.00     9800.00
02902            -860.00     9800.00
02903            -920.00    10000.00
02904            -980.00    10000.00
02905           -1020.00    10000.00
02906           -1060.00    10000.00
02907           -1100.00    10000.00
02908           -1140.00    10000.00
02909           -1180.00    10000.00
02910           -1240.00    10000.00
02911           -1300.00    10000.00
02912           -1340.00    10000.00
02913           -1420.00     9800.00
02914           -1480.00     9800.00
02915           -1500.00     9800.00
02916           -1560.00     9600.00
02917           -1580.00     9800.00
02918           -1640.00     9800.00
02919           -1660.00     9600.00
02920           -1720.00     9600.00
02921           -1700.00     9600.00
02922           -1720.00     9600.00
02923           -1720.00     9400.00
02924           -1720.00     9600.00
02925           -1720.00     9400.00
02926           -1720.00     9400.00
02927           -1660.00     9400.00
02928           -1640.00     9200.00
02929           -1580.00     9200.00
02930           -1560.00     9200.00
02931           -1500.00     9000.00
02932           -1480.00     8800.00
02933           -1420.00     8800.00
02934           -1340.00     8800.00
02935           -1300.00     8600.00
02936           -1240.00     8600.00
02937           -1200.00     8400.00
02938           -1140.00     8400.00
02939           -1080.00     8400.00
02940           -1060.00     8200.00
02941           -1000.00     8000.00
02942            -940.00     7800.00
02943            -900.00     7800.00
02944            -860.00     7800.00
02945            -840.00     7600.00
02946            -780.00     7400.00
02947            -740.00     7400.00
02948            -700.00     7200.00
02949            -660.00     7000.00
02950            -620.00     6800.00
02951            -600.00     7000.00
02952            -580.00     6800.00
02953            -540.00     6600.00
02954            -520.00     6400.00
02955            -500.00     6200.00
02956            -460.00     6400.00
02957            -440.00     6000.00
02958            -440.00     6000.00
02959            -420.00     5600.00
02960            -420.00     5400.00
02961            -380.00     5400.00
02962            -360.00     5200.00
02963            -340.00     5200.00
02964            -340.00     4800.00
02965            -340.00     4800.00
02966            -300.00     4600.00
02967            -280.00     4400.00
02968            -280.00     4400.00
02969            -260.00     4000.00
02970            -260.00     4000.00
02971            -220.00     3800.00
02972            -220.00     3600.00
02973            -220.00     3400.00
02974            -220.00     3200.00
02975            -200.00     3200.00
02976            -200.00     3000.00
02977            -180.00     2800.00
02978            -200.00     2600.00
02979            -180.00     2400.00
02980            -140.00     2200.00
02981            -140.00     2000.00
02982            -120.00     2000.00
02983            -120.00     1600.00
02984            -120.00     1400.00
02985            -120.00     1400.00
02986            -100.00     1200.00
02987            -120.00     1000.00
02988            -100.00      800.00
02989            -100.00      400.00
02990            -100.00      400.00
02991             -60.00        0.00
02992             -60.00        0.00
02993             -40.00     -200.00
02994              20.00     -200.00
02995             100.00     -600.00
02996              60.00     -800.00
02997              40.00     -800.00
02998              20.00    -1000.00
02999              20.00    -1000.00
03000              40.00    -1400.00
03001             220.00    -1600.00
03002             680.00    -1600.00
03003             820.00    -2200.00
03004              60.00    -2400.00
03005            -640.00    -2600.00
03006            -840.00    -2600.00
03007            -760.00    -2400.00
03008             280.00    -2600.00
03009             520.00    -3400.00
03010            -220.00    -2800.00
03011             260.00    -3400.00
03012             260.00    -3600.00
03013             -40.00    -3200.00
03014             260.00    -4000.00
03015              40.00    -3800.00
03016             260.00    -3800.00
03017             340.00    -4400.00
03018             -60.00    -4400.00
03019              60.00    -4800.00
03020              60.00    -4800.00
03021             180.00    -5200.00
03022             220.00    -5000.00
03023             140.00    -5200.00
03024             120.00    -5600.00
03025             140.00    -5400.00
03026             280.00    -5800.00
03027             180.00    -5800.00
03028             180.00    -5800.00
03029             280.00    -6400.00
03030             180.00    -6200.00
03031             260.00    -6600.00
03032             220.00    -6600.00
03033             200.00    -6600.00
03034             300.00    -6800.00
03035             340.00    -6800.00
03036             260.00    -7200.00
03037             280.00    -7200.00
03038             340.00    -7400.00
03039             320.00    -7600.00
03040             340.00    -7400.00
03041             340.00    -7800.00
03042             300.00    -7800.00
03043             360.00    -8000.00
03044             420.00    -8000.00
03045             380.00    -8200.00
03046             400.00    -8400.00
03047             440.00    -8200.00
03048             400.00    -8400.00
03049             420.00    -8400.00
03050             460.00    -8400.00
03051             460.00    -8800.00
03052             520.00    -8600.00
03053             500.00    -8800.00
03054             500.00    -9000.00
03055             520.00    -9000.00
03056             580.00    -9000.00
03057             600.00    -9200.00
03058             600.00    -9000.00
03059             620.00    -9200.00
03060             620.00    -9200.00
03061             640.00    -9200.00
03062             680.00    -9400.00
03063             720.00    -9200.00
03064             740.00    -9600.00
03065             800.00    -9400.00
03066             780.00    -9600.00
03067             820.00    -9600.00
03068             860.00    -9600.00
03069             900.00    -9600.00
03070             940.00    -9600.00
03071             980.00    -9600.00
03072            1000.00    -9800.00
03073            1060.00    -9600.00
03074            1080.00    -9800.00
03075            1160.00    -9800.00
03076            1220.00    -9600.00
03077            1280.00    -9800.00
03078            1320.00    -9600.00
03079            1380.00    -9600.00
03080            1420.00    -9600.00
03081            1480.00    -9600.00
03082            1540.00    -9600.00
03083            1580.00    -9400.00
03084            1640.00    -9600.00
03085            1660.00    -9600.00
03086            1700.00    -9400.00
03087            1700.00    -9400.00
03088            1720.00    -9400.00
03089            1740.00    -9200.00
03090            1740.00    -9200.00
03091            1740.00    -9200.00
03092            1720.00    -9200.00
03093            1700.00    -9200.00
03094            1660.00    -9000.00
03095            1640.00    -8800.00
03096            1620.00    -9000.00
03097            1580.00    -8800.00
03098            1540.00    -8800.00
03099            1480.00    -8600.00
03100            1420.00    -8800.00
03101            1340.00    -8400.00
03102            1320.00    -8400.00
03103            1260.00    -8200.00
03104            1220.00    -8400.00
03105            1160.00    -8200.00
03106            1080.00    -8000.00
03107            1020.00    -8000.00
03108            1000.00    -7800.00
03109             960.00    -7600.00
03110             920.00    -7800.00
03111             880.00    -7600.00
03112             820.00    -7600.00
03113             760.00    -7200.00
03114             740.00    -7200.00
03115             700.00    -7000.00
03116             680.00    -7000.00
03117             660.00    -6800.00
03118             600.00    -6600.00
03119             580.00    -6400.00
03120             540.00    -6400.00
03121             520.00    -6400.00
03122             500.00    -6200.00
03123             480.00    -6000.00
03124             460.00    -5800.00
03125             440.00    -5800.00
03126             420.00    -5600.00
03127             380.00    -5400.00
03128             380.00    -5400.00
03129             360.00    -5000.00
03130             360.00    -5000.00
03131             340.00    -4800.00
03132             320.00    -4600.00
03133             300.00    -4400.00
03134             280.00    -4200.00
03135             260.00    -4200.00
03136             260.00    -4000.00
03137             260.00    -3800.00
03138             240.00    -3600.00
03139             240.00    -3400.00
03140             220.00    -3200.00
03141             200.00    -3200.00
03142             200.00    -3000.00
03143             200.00    -2800.00
03144             200.00    -2600.00
03145             180.00    -2400.00
03146             180.00    -2400.00
03147             140.00    -1800.00
03148             180.00    -1800.00
03149             160.00    -1600.00
03150             140.00    -1600.00
03151             140.00    -1200.00
03152             100.00    -1200.00
03153             120.00    -1000.00
03154             100.00    -1000.00
03155             100.00     -400.00
03156             100.00     -400.00
03157             100.00     -200.00
03158              80.00        0.00
03159             100.00      200.00
03160              80.00      400.00
03161             120.00      600.00
03162             200.00      600.00
03163             180.00      800.00
03164             140.00     1000.00
03165             100.00     1200.00
03166             120.00     1400.00
03167             120.00     1400.00
03168             420.00     1600.00
03169            1060.00     2000.00
03170             640.00     2200.00
03171            -460.00     2200.00
03172           -1120.00     2200.00
03173           -1220.00     2600.00
03174             120.00     3000.00
03175             840.00     2800.00
03176            -400.00     3000.00
03177              20.00     3200.00
03178             340.00     3200.00
03179            -440.00     4000.00
03180             -20.00     3600.00
03181              20.00     4000.00
03182              20.00     4600.00
03183             200.00     3800.00
03184            -300.00     4600.00
03185            -120.00     5000.00
03186            -180.00     4400.00
03187            -140.00     5400.00
03188              60.00     5000.00
03189            -260.00     5200.00
03190             -40.00     5600.00
03191            -200.00     5400.00
03192            -200.00     5800.00
03193             -40.00     5800.00
03194            -240.00     6200.00
03195            -180.00     6200.00
03196            -180.00     6200.00
03197            -140.00     6800.00
03198            -280.00     6400.00
03199            -260.00     6800.00
03200            -120.00     7000.00
03201            -220.00     7000.00
03202            -220.00     7200.00
03203            -260.00     7200.00
03204            -280.00     7600.00
03205            -300.00     7600.00
03206            -240.00     7600.00
03207            -300.00     7600.00
03208            -340.00     7800.00
03209            -300.00     8000.00
03210            -380.00     8000.00
03211            -340.00     8200.00
03212            -320.00     8400.00
03213            -380.00     8400.00
03214            -440.00     8400.00
03215            -420.00     8800.00
03216            -440.00     8800.00
03217            -440.00     8600.00
03218            -420.00     9200.00
03219            -500.00     9000.00
03220            -520.00     9200.00
03221            -500.00     9200.00
03222            -480.00     9200.00
03223            -540.00     9200.00
03224            -540.00     9200.00
03225            -580.00     9400.00
03226            -660.00     9400.00
03227            -600.00     9400.00
03228            -620.00     9600.00
03229            -700.00     9600.00
03230            -680.00     9600.00
03231            -700.00     9800.00
03232            -760.00     9600.00
03233            -780.00     9800.00
03234            -820.00     9600.00
03235            -860.00    10000.00
03236            -860.00     9800.00
03237            -900.00     9800.00
03238            -980.00     9800.00
03239           -1000.00    10000.00
03240           -1040.00    10000.00
03241           -1100.00    10000.00
03242           -1140.00    10000.00
03243           -1160.00    10000.00
03244           -1240.00    10000.00
03245           -1280.00    10000.00
03246           -1340.00    10000.00
03247           -1420.00    10000.00
03248           -1480.00     9800.00
03249           -1500.00    10000.00
03250           -1560.00     9800.00
03251           -1600.00     9600.00
03252           -1640.00     9600.00
03253           -1700.00     9800.00
03254           -1720.00     9400.00
03255           -1720.00     9600.00
03256           -1720.00     9400.00
03257           -1720.00     9400.00
03258           -1720.00     9600.00
03259           -1720.00     9400.00
03260           -1700.00     9400.00
03261           -1660.00     9200.00
03262           -1660.00     9200.00
03263           -1600.00     9200.00
03264           -1560.00     9200.00
03265           -1520.00     9200.00
03266           -1480.00     8800.00
03267           -1420.00     8800.00
03268           -1380.00     8800.00
03269           -1320.00     8800.00
03270           -1260.00     8600.00
03271           -1220.00     8400.00
03272           -1160.00     8400.00
03273           -1100.00     8200.00
03274           -1060.00     8200.00
03275           -1020.00     8000.00
03276            -940.00     8000.00
03277            -900.00     7800.00
03278            -860.00     7800.00
03279            -840.00     7600.00
03280            -800.00     7600.00
03281            -760.00     7600.00
03282            -680.00     7200.00
03283            -680.00     7200.00
03284            -640.00     7000.00
03285            -620.00     6800.00
03286            -600.00     6800.00
03287            -580.00     6600.00
03288            -520.00     6400.00
03289            -500.00     6400.00
03290            -460.00     6200.00
03291            -460.00     6000.00
03292            -440.00     6000.00
03293            -420.00     5800.00
03294            -380.00     5600.00
03295            -380.00     5400.00
03296            -360.00     5200.00
03297            -360.00     5200.00
03298            -340.00     4800.00
03299            -340.00     4800.00
03300            -300.00     4600.00
03301            -280.00     4400.00
03302            -280.00     4400.00
03303            -280.00     4000.00
03304            -260.00     4000.00
03305            -220.00     3800.00
03306            -220.00     3800.00
03307            -220.00     3600.00
03308            -220.00     3200.00
03309            -220.00     3000.00
03310            -200.00     2800.00
03311            -180.00     2800.00
03312            -200.00     2600.00
03313            -180.00     2400.00
03314            -180.00     2200.00
03315            -140.00     2000.00
03316            -120.00     2000.00
03317            -140.00     1600.00
03318            -120.00     1400.00
03319            -120.00     1200.00
03320            -120.00     1000.00
03321            -120.00     1000.00
03322            -120.00      800.00
03323            -100.00      400.00
03324             -60.00      400.00
03325             -60.00        0.00
03326             -60.00        0.00
03327             -60.00     -200.00
03328             -20.00     -400.00
03329              60.00     -400.00
03330              60.00     -800.00
03331              40.00     -800.00
03332              20.00    -1000.00
03333              20.00    -1200.00
03334              40.00    -1200.00
03335             140.00    -1400.00
03336             540.00    -1600.00
03337             900.00    -2000.00
03338             280.00    -2200.00
03339            -520.00    -2600.00
03340            -780.00    -2600.00
03341            -860.00    -2400.00
03342             -20.00    -2600.00
03343             660.00    -3200.00
03344            -120.00    -2800.00
03345             100.00    -3200.00
03346             360.00    -3800.00
03347             -60.00    -3200.00
03348             260.00    -3800.00
03349             100.00    -4000.00
03350             140.00    -3800.00
03351             420.00    -4400.00
03352              20.00    -4400.00
03353              20.00    -4800.00
03354              60.00    -4800.00
03355             120.00    -5000.00
03356             240.00    -5200.00
03357             180.00    -5000.00
03358             120.00    -5600.00
03359             120.00    -5400.00
03360             260.00    -5600.00
03361             220.00    -6000.00
03362             140.00    -5800.00
03363             280.00    -6200.00
03364             200.00    -6200.00
03365             260.00    -6400.00
03366             260.00    -6600.00
03367             180.00    -6400.00
03368             280.00    -6800.00
03369             340.00    -6800.00
03370             280.00    -7200.00
03371             260.00    -7200.00
03372             340.00    -7400.00
03373             300.00    -7600.00
03374             340.00    -7600.00
03375             340.00    -7600.00
03376             300.00    -7600.00
03377             340.00    -7800.00
03378             380.00    -8000.00
03379             380.00    -8200.00
03380             380.00    -8200.00
03381             420.00    -8400.00
03382             420.00    -8400.00
03383             420.00    -8400.00
03384             440.00    -8400.00
03385             460.00    -8600.00
03386             500.00    -8800.00
03387             500.00    -8800.00
03388             500.00    -8800.00
03389             520.00    -9200.00
03390             580.00    -9000.00
03391             580.00    -9200.00
03392             580.00    -9200.00
03393             620.00    -9200.00
03394             620.00    -9200.00
03395             620.00    -9200.00
03396             680.00    -9200.00
03397             700.00    -9200.00
03398             740.00    -9600.00
03399             780.00    -9600.00
03400             800.00    -9400.00
03401             820.00    -9600.00
03402             840.00    -9600.00
03403             880.00    -9600.00
03404             920.00    -9800.00
03405             980.00    -9600.00
03406            1020.00    -9800.00
03407            1040.00    -9800.00
03408            1080.00    -9800.00
03409            1140.00    -9600.00
03410            1200.00    -9800.00
03411            1260.00    -9600.00
03412            1320.00    -9600.00
03413            1380.00    -9800.00
03414            1400.00    -9800.00
03415            1460.00    -9600.00
03416            1500.00    -9800.00
03417            1580.00    -9800.00
03418            1620.00    -9600.00
03419            1660.00    -9600.00
03420            1700.00    -9200.00
03421            1700.00    -9600.00
03422            1720.00    -9400.00
03423            1720.00    -9200.00
03424            1740.00    -9400.00
03425            1740.00    -9200.00
03426            1720.00    -9200.00
03427            1700.00    -9200.00
03428            1680.00    -9200.00
03429            1640.00    -9200.00
03430            1620.00    -9000.00
03431            1580.00    -9000.00
03432            1540.00    -8800.00
03433            1500.00    -8800.00
03434            1440.00    -8800.00
03435            1380.00    -8600.00
03436            1340.00    -8600.00
03437            1300.00    -8400.00
03438            1240.00    -8400.00
03439            1180.00    -8200.00
03440            1100.00    -8000.00
03441            1060.00    -8000.00
03442            1000.00    -8000.00
03443             980.00    -7800.00
03444             940.00    -7600.00
03445             860.00    -7600.00
03446             840.00    -7400.00
03447             780.00    -7400.00
03448             740.00    -7200.00
03449             700.00    -7200.00
03450             680.00    -7000.00
03451             660.00    -6800.00
03452             620.00    -6800.00
03453             600.00    -6600.00
03454             540.00    -6400.00
03455             520.00    -6400.00
03456             520.00    -6200.00
03457             500.00    -6000.00
03458             460.00    -5800.00
03459             440.00    -5800.00
03460             420.00    -5600.00
03461             380.00    -5400.00
03462             380.00    -5200.00
03463             360.00    -5200.00
03464             360.00    -5000.00
03465             360.00    -4800.00
03466             340.00    -4800.00
03467             280.00    -4400.00
03468             280.00    -4400.00
03469             280.00    -4200.00
03470             260.00    -3800.00
03471             260.00    -3800.00
03472             240.00    -3600.00
03473             220.00    -3400.00
03474             200.00    -3400.00
03475             220.00    -3200.00
03476             200.00    -3000.00
03477             220.00    -2800.00
03478             200.00    -2600.00
03479             180.00    -2600.00
03480             180.00    -2200.00
03481             160.00    -2000.00
03482             140.00    -2000.00
03483             160.00    -1600.00
03484             140.00    -1600.00
03485             140.00    -1600.00
03486             120.00    -1200.00
03487             120.00    -1000.00
03488             120.00     -800.00
03489             100.00     -600.00
03490             100.00     -400.00
03491             120.00     -400.00
03492             100.00     -200.00
03493              80.00        0.00
03494              60.00      200.00
03495             100.00      600.00
03496             140.00      600.00
03497             180.00      800.00
03498             160.00     1000.00
03499             120.00     1200.00
03500             100.00     1200.00
03501             120.00     1400.00
03502             280.00     1600.00
03503             920.00     2000.00
03504             840.00     2200.00
03505            -200.00     2200.00
03506           -1020.00     2200.00
03507           -1300.00     2600.00
03508            -320.00     3000.00
03509             920.00     3000.00
03510            -120.00     3000.00
03511            -260.00     3200.00
03512             420.00     3200.00
03513            -320.00     4000.00
03514            -180.00     3800.00
03515             120.00     3600.00
03516            -100.00     4600.00
03517             220.00     4000.00
03518            -220.00     4000.00
03519            -220.00     5200.00
03520            -100.00     4200.00
03521            -220.00     5000.00
03522              60.00     5200.00
03523            -220.00     5000.00
03524            -120.00     5600.00
03525            -120.00     5400.00
03526            -260.00     5800.00
03527             -20.00     6000.00
03528            -220.00     6000.00
03529            -200.00     6400.00
03530            -200.00     6000.00
03531            -140.00     6800.00
03532            -260.00     6400.00
03533            -300.00     6800.00
03534            -120.00     7200.00
03535            -220.00     7000.00
03536            -260.00     7200.00
03537            -240.00     7200.00
03538            -280.00     7600.00
03539            -320.00     7600.00
03540            -260.00     7800.00
03541            -260.00     8000.00
03542            -340.00     7600.00
03543            -300.00     8400.00
03544            -360.00     8000.00
03545            -380.00     8400.00
03546            -300.00     8400.00
03547            -360.00     8400.00
03548            -440.00     8600.00
03549            -420.00     8600.00
03550            -420.00     9000.00
03551            -440.00     8800.00
03552            -400.00     9000.00
03553            -460.00     9200.00
03554            -520.00     9000.00
03555            -520.00     9200.00
03556            -460.00     9200.00
03557            -540.00     9200.00
03558            -540.00     9200.00
03559            -540.00     9400.00
03560            -620.00     9600.00
03561            -620.00     9400.00
03562            -660.00     9400.00
03563            -680.00     9400.00
03564            -680.00     9600.00
03565            -680.00     9600.00
03566            -740.00     9600.00
03567            -780.00     9800.00
03568            -820.00     9600.00
03569            -860.00     9800.00
03570            -860.00     9800.00
03571            -880.00    10000.00
03572            -940.00    10000.00
03573           -1000.00    10000.00
03574           -1020.00    10000.00
03575           -1080.00     9800.00
03576           -1100.00     9800.00
03577           -1160.00    10000.00
03578           -1220.00    10000.00
03579           -1300.00     9800.00
03580           -1320.00     9800.00
03581           -1400.00     9600.00
03582           -1480.00     9600.00
03583           -1500.00     9800.00
03584           -1540.00     9800.00
03585           -1600.00     9600.00
03586           -1640.00     9600.00
03587           -1660.00     9600.00
03588           -1700.00     9600.00
03589           -1720.00     9600.00
03590           -1720.00     9400.00
03591           -1720.00     9600.00
03592           -1720.00     9400.00
03593           -1720.00     9400.00
03594           -1700.00     9400.00
03595           -1700.00     9200.00
03596           -1660.00     9200.00
03597           -1620.00     9200.00
03598           -1560.00     9200.00
03599           -1500.00     9000.00
03600           -1500.00     9000.00
03601           -1440.00     8800.00
03602           -1380.00     8600.00
03603           -1340.00     8800.00
03604           -1260.00     8600.00
03605           -1240.00     8600.00
03606           -1160.00     8600.00
03607           -1100.00     8400.00
03608           -1060.00     8400.00
03609           -1000.00     8200.00
03610            -960.00     8000.00
03611            -920.00     8000.00
03612            -860.00     7800.00
03613            -840.00     7800.00
03614            -780.00     7600.00
03615            -760.00     7400.00
03616            -700.00     7200.00
03617            -660.00     7200.00
03618            -620.00     7200.00
03619            -600.00     7000.00
03620            -600.00     6800.00
03621            -540.00     6800.00
03622            -520.00     6600.00
03623            -500.00     6400.00
03624            -480.00     6200.00
03625            -460.00     6200.00
03626            -440.00     6000.00
03627            -420.00     5600.00
03628            -420.00     5600.00
03629            -380.00     5400.00
03630            -380.00     5200.00
03631            -340.00     5200.00
03632            -340.00     5200.00
03633            -320.00     4800.00
03634            -300.00     4800.00
03635            -300.00     4400.00
03636            -280.00     4400.00
03637            -280.00     4200.00
03638            -280.00     4000.00
03639            -260.00     3800.00
03640            -260.00     3600.00
03641            -220.00     3400.00
03642            -220.00     3400.00
03643            -220.00     3000.00
03644            -200.00     3000.00
03645            -200.00     2800.00
03646            -200.00     2600.00
03647            -200.00     2400.00
03648            -180.00     2200.00
03649            -140.00     2000.00
03650            -140.00     1800.00
03651            -140.00     1600.00
03652            -120.00     1600.00
03653            -140.00     1400.00
03654            -120.00     1200.00
03655            -120.00      800.00
03656            -120.00      800.00
03657            -100.00      600.00
03658             -80.00      400.00
03659             -60.00      200.00
03660             -60.00        0.00
03661             -60.00        0.00
03662             -20.00     -200.00
03663              60.00     -400.00
03664              60.00     -600.00
03665              40.00     -800.00
03666              20.00    -1000.00
03667              20.00    -1200.00
03668              40.00    -1200.00
03669             100.00    -1200.00
03670             420.00    -1600.00
03671             900.00    -1800.00
03672             520.00    -2200.00
03673            -360.00    -2400.00
03674            -760.00    -2600.00
03675            -900.00    -2400.00
03676            -340.00    -2400.00
03677             660.00    -3000.00
03678              60.00    -3000.00
03679             -60.00    -3000.00
03680             420.00    -4000.00
03681               0.00    -3200.00
03682             180.00    -3600.00
03683             200.00    -4000.00
03684              40.00    -3800.00
03685             400.00    -4400.00
03686             120.00    -4400.00
03687             -40.00    -4600.00
03688             100.00    -4800.00
03689             100.00    -4800.00
03690             260.00    -5200.00
03691             200.00    -5000.00
03692             140.00    -5600.00
03693             120.00    -5600.00
03694             220.00    -5400.00
03695             260.00    -6000.00
03696             140.00    -5800.00
03697             260.00    -6000.00
03698             220.00    -6200.00
03699             200.00    -6400.00
03700             260.00    -6600.00
03701             200.00    -6600.00
03702             260.00    -6800.00
03703             340.00    -7000.00
03704             280.00    -7200.00
03705             260.00    -7400.00
03706             320.00    -7200.00
03707             340.00    -7400.00
03708             300.00    -7600.00
03709             320.00    -7600.00
03710             300.00    -7800.00
03711             320.00    -8000.00
03712             380.00    -8000.00
03713             380.00    -8000.00
03714             360.00    -8200.00
03715             420.00    -8400.00
03716             420.00    -8400.00
03717             420.00    -8400.00
03718             440.00    -8600.00
03719             460.00    -8600.00
03720             460.00    -8800.00
03721             500.00    -8800.00
03722             480.00    -8800.00
03723             500.00    -9000.00
03724             540.00    -9000.00
03725             600.00    -9000.00
03726             600.00    -9200.00
03727             600.00    -9200.00
03728             620.00    -9200.00
03729             600.00    -9200.00
03730             660.00    -9200.00
03731             720.00    -9200.00
03732             740.00    -9400.00
03733             780.00    -9600.00
03734             780.00    -9600.00
03735             820.00    -9600.00
03736             840.00    -9600.00
03737             880.00    -9400.00
03738             920.00    -9600.00
03739             980.00    -9600.00
03740            1000.00    -9600.00
03741            1020.00    -9600.00
03742            1080.00    -9600.00
03743            1140.00    -9600.00
03744            1180.00    -9600.00
03745            1240.00    -9600.00
03746            1300.00    -9600.00
03747            1380.00    -9600.00
03748            1400.00    -9600.00
03749            1460.00    -9600.00
03750            1500.00    -9600.00
03751            1560.00    -9600.00
03752            1620.00    -9600.00
03753            1640.00    -9600.00
03754            1660.00    -9400.00
03755            1700.00    -9600.00
03756            1720.00    -9200.00
03757            1720.00    -9200.00
03758            1740.00    -9200.00
03759            1740.00    -9200.00
03760            1720.00    -9200.00
03761            1720.00    -9000.00
03762            1700.00    -9200.00
03763            1660.00    -9000.00
03764            1620.00    -9000.00
03765            1580.00    -8800.00
03766            1560.00    -8800.00
03767            1500.00    -8600.00
03768            1460.00    -8800.00
03769            1400.00    -8600.00
03770            1340.00    -8400.00
03771            1300.00    -8400.00
03772            1240.00    -8400.00
03773            1180.00    -8200.00
03774            1140.00    -8000.00
03775            1060.00    -8000.00
03776            1020.00    -7800.00
03777             980.00    -7800.00
03778             940.00    -7600.00
03779             900.00    -7600.00
03780             840.00    -7600.00
03781             780.00    -7400.00
03782             740.00    -7200.00
03783             720.00    -7200.00
03784             680.00    -7000.00
03785             660.00    -7000.00
03786             640.00    -6600.00
03787             580.00    -6600.00
03788             560.00    -6400.00
03789             520.00    -6400.00
03790             520.00    -6200.00
03791             500.00    -6000.00
03792             460.00    -5800.00
03793             440.00    -5800.00
03794             420.00    -5600.00
03795             400.00    -5600.00
03796             380.00    -5600.00
03797             360.00    -5200.00
03798             360.00    -5000.00
03799             340.00    -5000.00
03800             340.00    -4800.00
03801             300.00    -4400.00
03802             280.00    -4400.00
03803             280.00    -4000.00
03804             280.00    -4000.00
03805             280.00    -3600.00
03806             260.00    -3600.00
03807             260.00    -3600.00
03808             220.00    -3400.00
03809             220.00    -3200.00
03810             200.00    -3000.00
03811             200.00    -2800.00
03812             200.00    -2800.00
03813             200.00    -2400.00
03814             180.00    -2400.00
03815             180.00    -2000.00
03816             140.00    -2000.00
03817             180.00    -1600.00
03818             160.00    -1600.00
03819             140.00    -1400.00
03820             120.00    -1200.00
03821             120.00    -1000.00
03822             120.00     -800.00
03823             100.00     -800.00
03824             100.00     -400.00
03825             100.00     -200.00
03826             100.00     -200.00
03827             100.00        0.00
03828             100.00      400.00
03829             100.00      400.00
03830             140.00      600.00
03831             180.00      600.00
03832             140.00     1000.00
03833             120.00     1200.00
03834             100.00     1200.00
03835             100.00     1400.00
03836             200.00     1600.00
03837             760.00     2000.00
03838            1000.00     2200.00
03839             100.00     2200.00
03840            -860.00     2200.00
03841           -1260.00     2200.00
03842            -760.00     2800.00
03843             800.00     3000.00
03844             240.00     2800.00
03845            -440.00     3400.00
03846             380.00     3200.00
03847            -120.00     3600.00
03848            -340.00     4000.00
03849             140.00     3600.00
03850            -100.00     4400.00
03851             180.00     4200.00
03852             -60.00     3800.00
03853            -280.00     5200.00
03854             -60.00     4600.00
03855            -260.00     4800.00
03856              40.00     5400.00
03857            -120.00     4800.00
03858            -200.00     5400.00
03859             -40.00     5400.00
03860            -280.00     5600.00
03861             -60.00     6000.00
03862            -140.00     6000.00
03863            -220.00     6400.00
03864            -180.00     6000.00
03865            -180.00     6600.00
03866            -200.00     6600.00
03867            -340.00     6400.00
03868            -180.00     7200.00
03869            -180.00     6800.00
03870            -220.00     7000.00
03871            -220.00     7200.00
03872            -260.00     7400.00
03873            -300.00     7600.00
03874            -280.00     7600.00
03875            -220.00     7800.00
03876            -360.00     7600.00
03877            -300.00     8000.00
03878            -360.00     8000.00
03879            -360.00     8000.00
03880            -300.00     8400.00
03881            -320.00     8600.00
03882            -420.00     8600.00
03883            -440.00     8400.00
03884            -380.00     8800.00
03885            -440.00     8800.00
03886            -420.00     9000.00
03887            -420.00     9000.00
03888            -540.00     8800.00
03889            -520.00     9200.00
03890            -460.00     9200.00
03891            -520.00     9200.00
03892            -540.00     9400.00
03893            -540.00     9400.00
03894            -620.00     9400.00
03895            -620.00     9400.00
03896            -620.00     9400.00
03897            -680.00     9400.00
03898            -700.00     9600.00
03899            -680.00     9600.00
03900            -740.00     9600.00
03901            -780.00     9600.00
03902            -820.00     9600.00
03903            -860.00     9600.00
03904            -860.00     9800.00
03905            -880.00     9800.00
03906            -940.00     9800.00
03907           -1000.00    10000.00
03908           -1020.00     9800.00
03909           -1080.00     9800.00
03910           -1140.00    10000.00
03911           -1160.00    10000.00
03912           -1220.00    10000.00
03913           -1260.00    10000.00
03914           -1320.00     9800.00
03915           -1400.00    10000.00
03916           -1480.00    10000.00
03917           -1500.00    10000.00
03918           -1540.00     9800.00
03919           -1580.00     9600.00
03920           -1620.00     9600.00
03921           -1660.00     9600.00
03922           -1700.00     9600.00
03923           -1720.00     9600.00
03924           -1720.00     9600.00
03925           -1740.00     9400.00
03926           -1720.00     9400.00
03927           -1720.00     9400.00
03928           -1720.00     9400.00
03929           -1700.00     9200.00
03930           -1660.00     9400.00
03931           -1640.00     9200.00
03932           -1560.00     9200.00
03933           -1520.00     9000.00
03934           -1500.00     9000.00
03935           -1460.00     8800.00
03936           -1400.00     8800.00
03937           -1340.00     8800.00
03938           -1300.00     8600.00
03939           -1240.00     8600.00
03940           -1180.00     8400.00
03941           -1160.00     8400.00
03942           -1080.00     8400.00
03943           -1020.00     8200.00
03944            -980.00     8000.00
03945            -920.00     8000.00
03946            -860.00     7800.00
03947            -840.00     7800.00
03948            -820.00     7400.00
03949            -760.00     7400.00
03950            -740.00     7200.00
03951            -680.00     7200.00
03952            -640.00     7200.00
03953            -600.00     6800.00
03954            -600.00     6800.00
03955            -580.00     6600.00
03956            -540.00     6600.00
03957            -520.00     6400.00
03958            -480.00     6200.00
03959            -460.00     6200.00
03960            -440.00     6000.00
03961            -420.00     5800.00
03962            -420.00     5600.00
03963            -380.00     5400.00
03964            -380.00     5200.00
03965            -360.00     5400.00
03966            -340.00     5200.00
03967            -340.00     4800.00
03968            -340.00     4800.00
03969            -320.00     4600.00
03970            -280.00     4600.00
03971            -280.00     4200.00
03972            -260.00     4000.00
03973            -260.00     4000.00
03974            -240.00     3800.00
03975            -260.00     3600.00
03976            -220.00     3400.00
03977            -220.00     3200.00
03978            -200.00     3000.00
03979            -200.00     3000.00
03980            -200.00     2600.00
03981            -200.00     2400.00
03982            -180.00     2200.00
03983            -180.00     2200.00
03984            -140.00     2000.00
03985            -140.00     1600.00
03986            -120.00     1600.00
03987            -140.00     1400.00
03988            -120.00     1200.00
03989            -120.00     1000.00
03990            -120.00      800.00
03991            -100.00      600.00
03992            -100.00      600.00
03993             -60.00      400.00
03994             -60.00        0.00
03995             -60.00        0.00
03996             -40.00     -200.00
03997              40.00     -400.00
03998              80.00     -400.00
03999              60.00     -800.00
04000              40.00     -800.00
04001              20.00    -1000.00
04002              40.00    -1200.00
04003              60.00    -1200.00
04004             280.00    -1600.00
04005             820.00    -1800.00
04006             700.00    -2400.00
04007            -120.00    -2000.00
04008            -700.00    -2400.00
04009            -860.00    -2400.00
04010            -600.00    -2400.00
04011             520.00    -2800.00
04012             340.00    -3200.00
04013            -200.00    -2800.00
04014             380.00    -3600.00
04015             120.00    -3400.00
04016              40.00    -3400.00
04017             260.00    -4200.00
04018              40.00    -3800.00
04019             340.00    -4200.00
04020             260.00    -4400.00
04021             -60.00    -4400.00
04022             100.00    -4600.00
04023              60.00    -4600.00
04024             220.00    -5200.00
04025             200.00    -5200.00
04026             160.00    -5200.00
04027             120.00    -5600.00
04028             180.00    -5600.00
04029             280.00    -5800.00
04030             140.00    -6000.00
04031             200.00    -5800.00
04032             260.00    -6400.00
04033             200.00    -6200.00
04034             260.00    -6600.00
04035             200.00    -6600.00
04036             200.00    -6800.00
04037             320.00    -6800.00
04038             300.00    -7000.00
04039             220.00    -7400.00
04040             280.00    -7200.00
04041             340.00    -7400.00
04042             300.00    -7600.00
04043             320.00    -7600.00
04044             300.00    -7600.00
04045             300.00    -8000.00
04046             360.00    -8000.00
04047             380.00    -8200.00
04048             380.00    -8000.00
04049             420.00    -8200.00
04050             420.00    -8400.00
04051             380.00    -8600.00
04052             420.00    -8400.00
04053             460.00    -8600.00
04054             460.00    -8800.00
04055             500.00    -8800.00
04056             500.00    -8800.00
04057             500.00    -9000.00
04058             540.00    -9000.00
04059             600.00    -8800.00
04060             600.00    -9200.00
04061             600.00    -9000.00
04062             620.00    -9200.00
04063             620.00    -9200.00
04064             660.00    -9200.00
04065             700.00    -9200.00
04066             720.00    -9400.00
04067             780.00    -9400.00
04068             780.00    -9600.00
04069             820.00    -9600.00
04070             820.00    -9600.00
04071             860.00    -9600.00
04072             920.00    -9600.00
04073             940.00    -9600.00
04074            1000.00    -9600.00
04075            1020.00    -9600.00
04076            1060.00    -9600.00
04077            1100.00    -9600.00
04078            1160.00    -9600.00
04079            1220.00    -9600.00
04080            1300.00    -9600.00
04081            1320.00    -9800.00
04082            1380.00    -9800.00
04083            1420.00    -9600.00
04084            1500.00    -9600.00
04085            1560.00    -9600.00
04086            1580.00    -9600.00
04087            1640.00    -9600.00
04088            1660.00    -9600.00
04089            1700.00    -9400.00
04090            1700.00    -9200.00
04091            1720.00    -9200.00
04092            1740.00    -9200.00
04093            1740.00    -9200.00
04094            1740.00    -9200.00
04095            1720.00    -9200.00
04096            1700.00    -9000.00
04097            1640.00    -9000.00
04098            1620.00    -9000.00
04099            1620.00    -8800.00
04100            1560.00    -8800.00
04101            1520.00    -8800.00
04102            1480.00    -8600.00
04103            1400.00    -8800.00
04104            1320.00    -8400.00
04105            1300.00    -8400.00
04106            1240.00    -8400.00
04107            1220.00    -8200.00
04108            1140.00    -8200.00
04109            1080.00    -8000.00
04110            1020.00    -8000.00
04111             980.00    -7800.00
04112             920.00    -7800.00
04113             900.00    -7600.00
04114             860.00    -7600.00
04115             820.00    -7600.00
04116             760.00    -7200.00
04117             720.00    -7200.00
04118             700.00    -7000.00
04119             680.00    -7000.00
04120             640.00    -6800.00
04121             600.00    -6600.00
04122             580.00    -6600.00
04123             540.00    -6400.00
04124             520.00    -6000.00
04125             520.00    -6000.00
04126             460.00    -6000.00
04127             460.00    -5800.00
04128             420.00    -5600.00
04129             420.00    -5400.00
04130             380.00    -5400.00
04131             380.00    -5200.00
04132             360.00    -5000.00
04133             340.00    -4800.00
04134             360.00    -4800.00
04135             300.00    -4800.00
04136             300.00    -4400.00
04137             280.00    -4200.00
04138             280.00    -3800.00
04139             280.00    -3800.00
04140             260.00    -3600.00
04141             260.00    -3400.00
04142             240.00    -3600.00
04143             220.00    -3200.00
04144             220.00    -3000.00
04145             200.00    -2800.00
04146             220.00    -2600.00
04147             200.00    -2600.00
04148             200.00    -2400.00
04149             180.00    -2200.00
04150             180.00    -2000.00
04151             140.00    -1800.00
04152             160.00    -1600.00
04153             140.00    -1400.00
04154             140.00    -1200.00
04155             120.00    -1000.00
04156             120.00     -800.00
04157             100.00     -800.00
04158             100.00     -600.00
04159             100.00     -400.00
04160             100.00     -200.00
04161             100.00        0.00
04162              80.00        0.00
04163             100.00      400.00
04164             120.00      400.00
04165             180.00      600.00
04166             180.00      800.00
04167             120.00      800.00
04168             100.00     1200.00
04169              80.00     1400.00
04170             120.00     1400.00
04171             560.00     1600.00
04172            1060.00     2200.00
04173             420.00     2200.00
04174            -680.00     2200.00
04175           -1220.00     2200.00
04176           -1060.00     2800.00
04177             500.00     3000.00
04178             600.00     2800.00
04179            -500.00     3000.00
04180             220.00     3200.00
04181             140.00     3600.00
04182            -440.00     4000.00
04183             100.00     3600.00
04184             -60.00     4000.00
04185             100.00     4400.00
04186             100.00     3600.00
04187            -340.00     4800.00
04188             -60.00     4800.00
04189            -220.00     4400.00
04190             -40.00     5400.00
04191             -20.00     4800.00
04192            -240.00     5200.00
04193             -20.00     5600.00
04194            -260.00     5400.00
04195            -120.00     6000.00
04196             -60.00     5800.00
04197            -240.00     6200.00
04198            -180.00     6200.00
04199            -200.00     6200.00
04200            -140.00     6800.00
04201            -300.00     6400.00
04202            -220.00     7000.00
04203            -120.00     6800.00
04204            -240.00     7000.00
04205            -220.00     7200.00
04206            -240.00     7400.00
04207            -280.00     7600.00
04208            -280.00     7600.00
04209            -220.00     8000.00
04210            -340.00     7800.00
04211            -320.00     8000.00
04212            -320.00     8200.00
04213            -380.00     8000.00
04214            -300.00     8200.00
04215            -320.00     8600.00
04216            -380.00     8400.00
04217            -440.00     8600.00
04218            -380.00     8800.00
04219            -440.00     8800.00
04220            -420.00     8800.00
04221            -420.00     9000.00
04222            -500.00     9000.00
04223            -540.00     9000.00
04224            -500.00     9200.00
04225            -500.00     9200.00
04226            -540.00     9200.00
04227            -520.00     9200.00
04228            -600.00     9400.00
04229            -620.00     9400.00
04230            -620.00     9400.00
04231            -660.00     9600.00
04232            -680.00     9600.00
04233            -680.00     9600.00
04234            -700.00     9800.00
04235            -760.00     9600.00
04236            -800.00     9800.00
04237            -840.00     9600.00
04238            -860.00     9800.00
04239            -860.00     9800.00
04240            -920.00     9800.00
04241           -1000.00     9800.00
04242           -1020.00     9800.00
04243           -1060.00     9800.00
04244           -1100.00     9800.00
04245           -1140.00    10000.00
04246           -1180.00    10000.00
04247           -1260.00     9800.00
04248           -1320.00    10000.00
04249           -1340.00    10000.00
04250           -1440.00    10000.00
04251           -1500.00    10000.00
04252           -1540.00     9600.00
04253           -1560.00     9800.00
04254           -1620.00     9600.00
04255           -1640.00     9600.00
04256           -1700.00     9600.00
04257           -1720.00     9600.00
04258           -1720.00     9600.00
04259           -1720.00     9600.00
04260           -1720.00     9400.00
04261           -1700.00     9400.00
04262           -1700.00     9400.00
04263           -1700.00     9400.00
04264           -1660.00     9200.00
04265           -1640.00     9200.00
04266           -1580.00     9200.00
04267           -1540.00     9200.00
04268           -1500.00     8800.00
04269           -1480.00     9000.00
04270           -1400.00     8800.00
04271           -1340.00     8800.00
04272           -1300.00     8600.00
04273           -1240.00     8600.00
04274           -1180.00     8600.00
04275           -1140.00     8400.00
04276           -1080.00     8400.00
04277           -1060.00     8400.00
04278           -1000.00     8000.00
04279            -940.00     8000.00
04280            -900.00     7800.00
04281            -860.00     7800.00
04282            -800.00     7600.00
04283            -780.00     7600.00
04284            -740.00     7400.00
04285            -700.00     7200.00
04286            -660.00     7000.00
04287            -620.00     7000.00
04288            -600.00     6800.00
04289            -580.00     6800.00
04290            -540.00     6400.00
04291            -520.00     6400.00
04292            -500.00     6400.00
04293            -460.00     6200.00
04294            -460.00     6000.00
04295            -440.00     6000.00
04296            -440.00     5600.00
04297            -420.00     5600.00
04298            -380.00     5400.00
04299            -360.00     5200.00
04300            -360.00     5200.00
04301            -340.00     4800.00
04302            -340.00     4800.00
04303            -300.00     4400.00
04304            -280.00     4400.00
04305            -280.00     4400.00
04306            -280.00     4000.00
04307            -260.00     4000.00
04308            -260.00     3800.00
04309            -260.00     3600.00
04310            -220.00     3600.00
04311            -220.00     3200.00
04312            -200.00     3000.00
04313            -200.00     3000.00
04314            -200.00     2800.00
04315            -180.00     2600.00
04316            -180.00     2400.00
04317            -180.00     2200.00
04318            -140.00     2000.00
04319            -140.00     1800.00
04320            -120.00     1600.00
04321            -120.00     1400.00
04322            -120.00     1400.00
04323            -120.00     1200.00
04324            -100.00     1000.00
04325            -100.00      800.00
04326            -100.00      600.00
04327             -60.00      400.00
04328             -60.00        0.00
04329             -60.00        0.00
04330             -40.00     -200.00
04331              20.00     -400.00
04332             100.00     -400.00
04333              60.00     -400.00
04334              40.00     -800.00
04335              20.00    -1000.00
04336              40.00    -1200.00
04337              40.00    -1200.00
04338             200.00    -1400.00
04339             680.00    -1600.00
04340             840.00    -2000.00
04341             100.00    -2200.00
04342            -620.00    -2400.00
04343            -820.00    -2600.00
04344            -760.00    -2400.00
04345             260.00    -2600.00
04346             540.00    -3200.00
04347            -220.00    -2800.00
04348             260.00    -3400.00
04349             260.00    -3600.00
04350             -40.00    -3200.00
04351             280.00    -4200.00
04352              40.00    -3800.00
04353             220.00    -4000.00
04354             340.00    -4400.00
04355             -40.00    -4400.00
04356              60.00    -4600.00
04357              60.00    -4800.00
04358             180.00    -5000.00
04359             220.00    -5000.00
04360             140.00    -5000.00
04361             120.00    -5800.00
04362             140.00    -5400.00
04363             280.00    -5800.00
04364             180.00    -6000.00
04365             180.00    -5800.00
04366             260.00    -6400.00
04367             180.00    -6400.00
04368             260.00    -6400.00
04369             220.00    -6400.00
04370             200.00    -6600.00
04371             300.00    -7000.00
04372             300.00    -6800.00
04373             260.00    -7200.00
04374             280.00    -7200.00
04375             340.00    -7200.00
04376             300.00    -7600.00
04377             340.00    -7600.00
04378             340.00    -7800.00
04379             300.00    -7800.00
04380             340.00    -8000.00
04381             380.00    -8000.00
04382             380.00    -8200.00
04383             380.00    -8400.00
04384             420.00    -8400.00
04385             420.00    -8400.00
04386             400.00    -8400.00
04387             460.00    -8600.00
04388             460.00    -8400.00
04389             500.00    -8800.00
04390             520.00    -8800.00
04391             500.00    -9000.00
04392             520.00    -9000.00
04393             580.00    -9000.00
04394             600.00    -9200.00
04395             600.00    -9000.00
04396             620.00    -9200.00
04397             620.00    -9200.00
04398             660.00    -9200.00
04399             700.00    -9200.00
04400             700.00    -9200.00
04401             760.00    -9400.00
04402             820.00    -9600.00
04403             820.00    -9600.00
04404             820.00    -9600.00
04405             840.00    -9600.00
04406             900.00    -9600.00
04407             940.00    -9800.00
04408             980.00    -9600.00
04409            1020.00    -9600.00
04410            1060.00    -9800.00
04411            1100.00    -9800.00
04412            1160.00    -9600.00
04413            1220.00    -9600.00
04414            1260.00    -9800.00
04415            1320.00    -9600.00
04416            1380.00    -9600.00
04417            1420.00    -9600.00
04418            1480.00    -9600.00
04419            1520.00    -9600.00
04420            1580.00    -9400.00
04421            1640.00    -9600.00
04422            1660.00    -9600.00
04423            1700.00    -9400.00
04424            1700.00    -9600.00
04425            1720.00    -9200.00
04426            1720.00    -9200.00
04427            1740.00    -9200.00
04428            1740.00    -9400.00
04429            1720.00    -9200.00
04430            1700.00    -9200.00
04431            1660.00    -9000.00
04432            1640.00    -9000.00
04433            1620.00    -8800.00
04434            1580.00    -9000.00
04435            1540.00    -8800.00
04436            1480.00    -8800.00
04437            1400.00    -8600.00
04438            1380.00    -8600.00
04439            1320.00    -8400.00
04440            1260.00    -8400.00
04441            1220.00    -8200.00
04442            1160.00    -8200.00
04443            1080.00    -8000.00
04444            1060.00    -8000.00
04445            1000.00    -8000.00
04446             940.00    -7800.00
04447             900.00    -7600.00
04448             860.00    -7600.00
04449             820.00    -7400.00
04450             780.00    -7400.00
04451             740.00    -7200.00
04452             700.00    -7200.00
04453             680.00    -6800.00
04454             660.00    -6800.00
04455             620.00    -6600.00
04456             580.00    -6600.00
04457             540.00    -6400.00
04458             520.00    -6200.00
04459             500.00    -6000.00
04460             500.00    -6000.00
04461             460.00    -5800.00
04462             440.00    -5600.00
04463             420.00    -5600.00
04464             400.00    -5400.00
04465             380.00    -5200.00
04466             360.00    -5000.00
04467             360.00    -5000.00
04468             340.00    -4800.00
04469             340.00    -4400.00
04470             320.00    -4400.00
04471             280.00    -4200.00
04472             280.00    -4200.00
04473             280.00    -3800.00
04474             260.00    -3600.00
04475             260.00    -3600.00
04476             240.00    -3600.00
04477             220.00    -3200.00
04478             220.00    -3200.00
04479             220.00    -2800.00
04480             200.00    -2600.00
04481             200.00    -2600.00
04482             200.00    -2400.00
04483             180.00    -2400.00
04484             180.00    -2000.00
04485             180.00    -2000.00
04486             140.00    -1600.00
04487             140.00    -1600.00
04488             140.00    -1200.00
04489             120.00    -1200.00
04490             100.00    -1000.00
04491             100.00     -800.00
04492             100.00     -400.00
04493             100.00     -400.00
04494             100.00     -200.00
04495              80.00        0.00
04496             100.00      200.00
04497             100.00      400.00
04498             120.00      600.00
04499             180.00      600.00
04500             180.00      800.00
04501             120.00     1000.00
04502             120.00     1000.00
04503             100.00     1200.00
04504             120.00     1400.00
04505             420.00     1600.00
04506            1020.00     2200.00
04507             680.00     2000.00
04508            -440.00     2200.00
04509           -1100.00     2200.00
04510           -1240.00     2600.00
04511              60.00     3000.00
04512             840.00     2800.00
04513            -360.00     3000.00
04514             -40.00     3200.00
04515             340.00     3200.00
04516            -440.00     4000.00
04517             -20.00     3600.00
04518              40.00     3600.00
04519              20.00     4600.00
04520             200.00     3600.00
04521            -300.00     4400.00
04522            -120.00     5200.00
04523            -140.00     4200.00
04524            -140.00     5200.00
04525              40.00     5000.00
04526            -240.00     5200.00
04527             -60.00     5600.00
04528            -180.00     5400.00
04529            -200.00     6000.00
04530             -40.00     5800.00
04531            -220.00     6200.00
04532            -180.00     6200.00
04533            -180.00     6000.00
04534            -140.00     6800.00
04535            -280.00     6400.00
04536            -280.00     6800.00
04537            -120.00     7200.00
04538            -260.00     6800.00
04539            -220.00     7200.00
04540            -260.00     7200.00
04541            -280.00     7600.00
04542            -300.00     7400.00
04543            -220.00     7800.00
04544            -300.00     7600.00
04545            -360.00     7800.00
04546            -300.00     8000.00
04547            -380.00     8000.00
04548            -340.00     8400.00
04549            -300.00     8400.00
04550            -360.00     8600.00
04551            -440.00     8400.00
04552            -420.00     8600.00
04553            -420.00     8800.00
04554            -440.00     8600.00
04555            -420.00     9000.00
04556            -500.00     8800.00
04557            -520.00     9200.00
04558            -520.00     9200.00
04559            -500.00     9200.00
04560            -560.00     9200.00
04561            -540.00     9200.00
04562            -600.00     9400.00
04563            -660.00     9400.00
04564            -620.00     9400.00
04565            -620.00     9600.00
04566            -660.00     9600.00
04567            -620.00     9600.00
04568            -680.00     9600.00
04569            -760.00     9600.00
04570            -820.00     9800.00
04571            -860.00     9600.00
04572            -920.00     9600.00
04573            -920.00     9600.00
04574            -920.00     9800.00
04575            -980.00     9800.00
04576            -980.00     9800.00
04577           -1000.00     9800.00
04578           -1060.00    10000.00
04579           -1100.00     9800.00
04580           -1180.00     9800.00
04581           -1260.00     9600.00
04582           -1340.00    10000.00
04583           -1400.00     9800.00
04584           -1460.00     9800.00
04585           -1480.00     9800.00
04586           -1480.00    10000.00
04587           -1500.00     9800.00
04588           -1560.00     9600.00
04589           -1620.00     9800.00
04590           -1680.00     9600.00
04591           -1720.00     9600.00
04592           -1740.00     9600.00
04593           -1740.00     9600.00
04594           -1740.00     9600.00
04595           -1700.00     9400.00
04596           -1680.00     9400.00
04597           -1660.00     9400.00
04598           -1640.00     9200.00
04599           -1620.00     9200.00
04600           -1580.00     9200.00
04601           -1560.00     9200.00
04602           -1540.00     9200.00
04603           -1520.00     9000.00
04604           -1460.00     8800.00
04605           -1380.00     8800.00
04606           -1320.00     8800.00
04607           -1240.00     8400.00
04608           -1160.00     8400.00
04609           -1140.00     8400.00
04610           -1080.00     8200.00
04611           -1060.00     8200.00
04612           -1020.00     8000.00
04613            -980.00     8000.00
04614            -920.00     7800.00
04615            -860.00     7800.00
04616            -820.00     7600.00
04617            -760.00     7600.00
04618            -720.00     7600.00
04619            -680.00     7200.00
04620            -680.00     7000.00
04621            -680.00     7200.00
04622            -660.00     6800.00
04623            -600.00     6800.00
04624            -580.00     6600.00
04625            -520.00     6400.00
04626            -500.00     6200.00
04627            -460.00     6200.00
04628            -440.00     6000.00
04629            -420.00     6000.00
04630            -440.00     5800.00
04631            -420.00     5600.00
04632            -380.00     5400.00
04633            -380.00     5200.00
04634            -360.00     5200.00
04635            -340.00     4800.00
04636            -340.00     4800.00
04637            -300.00     4600.00
04638            -300.00     4600.00
04639            -280.00     4200.00
04640            -280.00     4000.00
04641            -260.00     4000.00
04642            -260.00     3800.00
04643            -260.00     3600.00
04644            -220.00     3600.00
04645            -220.00     3200.00
04646            -200.00     3200.00
04647            -200.00     3000.00
04648            -180.00     2800.00
04649            -200.00     2600.00
04650            -180.00     2600.00
04651            -180.00     2200.00
04652            -160.00     2000.00
04653            -140.00     2000.00
04654            -120.00     1600.00
04655            -140.00     1600.00
04656            -120.00     1200.00
04657            -100.00     1200.00
04658            -100.00      800.00
04659            -100.00      800.00
04660            -100.00      600.00
04661             -80.00      600.00
04662             -60.00      200.00
04663             -60.00        0.00
04664             -40.00        0.00
04665               0.00     -200.00
04666             100.00     -400.00
04667             100.00     -600.00
04668              40.00     -800.00
04669              40.00    -1000.00
04670              20.00    -1000.00
04671              40.00    -1200.00
04672             120.00    -1400.00
04673             540.00    -1600.00
04674             920.00    -2000.00
04675             340.00    -2400.00
04676            -480.00    -2400.00
04677            -780.00    -2600.00
04678            -860.00    -2400.00
04679             -60.00    -2400.00
04680             660.00    -3200.00
04681            -100.00    -3000.00
04682              60.00    -3200.00
04683             380.00    -3600.00
04684             -60.00    -3200.00
04685             220.00    -3800.00
04686             120.00    -4000.00
04687             100.00    -3800.00
04688             420.00    -4400.00
04689              20.00    -4400.00
04690              20.00    -4800.00
04691              80.00    -4600.00
04692             120.00    -5000.00
04693             260.00    -5200.00
04694             180.00    -5000.00
04695             140.00    -5600.00
04696             120.00    -5400.00
04697             260.00    -5600.00
04698             220.00    -6000.00
04699             120.00    -5800.00
04700             260.00    -6200.00
04701             200.00    -6400.00
04702             220.00    -6400.00
04703             260.00    -6600.00
04704             180.00    -6600.00
04705             280.00    -7000.00
04706             320.00    -6800.00
04707             260.00    -7200.00
04708             260.00    -7200.00
04709             340.00    -7400.00
04710             340.00    -7600.00
04711             300.00    -7400.00
04712             340.00    -7600.00
04713             300.00    -7800.00
04714             340.00    -7800.00
04715             380.00    -8000.00
04716             380.00    -8200.00
04717             380.00    -8200.00
04718             420.00    -8200.00
04719             420.00    -8400.00
04720             420.00    -8400.00
04721             460.00    -8400.00
04722             480.00    -8800.00
04723             480.00    -8800.00
04724             520.00    -8800.00
04725             500.00    -8800.00
04726             500.00    -8800.00
04727             580.00    -9000.00
04728             580.00    -9000.00
04729             600.00    -9200.00
04730             640.00    -9200.00
04731             620.00    -9200.00
04732             620.00    -9200.00
04733             680.00    -9400.00
04734             720.00    -9200.00
04735             740.00    -9200.00
04736             780.00    -9400.00
04737             820.00    -9600.00
04738             820.00    -9600.00
04739             840.00    -9600.00
04740             900.00    -9600.00
04741             920.00    -9600.00
04742             980.00    -9600.00
04743            1000.00    -9600.00
04744            1020.00    -9800.00
04745            1080.00    -9600.00
04746            1140.00    -9600.00
04747            1180.00    -9600.00
04748            1240.00    -9600.00
04749            1320.00    -9600.00
04750            1380.00    -9600.00
04751            1400.00    -9600.00
04752            1460.00    -9600.00
04753            1500.00    -9600.00
04754            1560.00    -9600.00
04755            1620.00    -9600.00
04756            1640.00    -9600.00
04757            1660.00    -9600.00
04758            1700.00    -9400.00
04759            1700.00    -9600.00
04760            1720.00    -9400.00
04761            1740.00    -9200.00
04762            1740.00    -9200.00
04763            1720.00    -9200.00
04764            1700.00    -9000.00
04765            1660.00    -9000.00
04766            1640.00    -9000.00
04767            1620.00    -9000.00
04768            1580.00    -8800.00
04769            1540.00    -8800.00
04770            1500.00    -8800.00
04771            1440.00    -8800.00
04772            1380.00    -8600.00
04773            1320.00    -8400.00
04774            1280.00    -8400.00
04775            1220.00    -8200.00
04776            1180.00    -8200.00
04777            1100.00    -8200.00
04778            1060.00    -8000.00
04779            1020.00    -8000.00
04780             980.00    -7800.00
04781             920.00    -7800.00
04782             880.00    -7600.00
04783             840.00    -7400.00
04784             780.00    -7400.00
04785             740.00    -7000.00
04786             720.00    -7200.00
04787             680.00    -7000.00
04788             660.00    -6800.00
04789             600.00    -6600.00
04790             580.00    -6600.00
04791             580.00    -6400.00
04792             520.00    -6400.00
04793             520.00    -6200.00
04794             500.00    -6000.00
04795             480.00    -5800.00
04796             460.00    -5800.00
04797             420.00    -5600.00
04798             420.00    -5400.00
04799             380.00    -5200.00
04800             360.00    -5200.00
04801             380.00    -5000.00
04802             340.00    -5000.00
04803             340.00    -4800.00
04804             300.00    -4600.00
04805             300.00    -4400.00
04806             280.00    -4200.00
04807             280.00    -4000.00
04808             280.00    -3800.00
04809             260.00    -3600.00
04810             260.00    -3400.00
04811             220.00    -3200.00
04812             200.00    -3200.00
04813             200.00    -3000.00
04814             220.00    -2800.00
04815             200.00    -2800.00
04816             180.00    -2400.00
04817             180.00    -2400.00
04818             140.00    -2000.00
04819             140.00    -2000.00
04820             140.00    -1600.00
04821             140.00    -1800.00
04822             140.00    -1400.00
04823             120.00    -1200.00
04824             120.00    -1000.00
04825             100.00     -800.00
04826             100.00     -800.00
04827             120.00     -400.00
04828             100.00     -200.00
04829             100.00        0.00
04830              80.00        0.00
04831              60.00      200.00
04832             100.00      400.00
04833             180.00      600.00
04834             180.00      600.00
04835             140.00      800.00
04836             100.00     1000.00
04837              80.00     1200.00
04838             120.00     1400.00
04839             260.00     1600.00
04840             900.00     2000.00
04841             900.00     2200.00
04842            -140.00     2200.00
04843           -1000.00     2200.00
04844           -1300.00     2600.00
04845            -380.00     3000.00
04846             920.00     2800.00
04847             -60.00     2800.00
04848            -280.00     3200.00
04849             420.00     3000.00
04850            -280.00     4000.00
04851            -200.00     4000.00
04852             120.00     3600.00
04853            -100.00     4600.00
04854             220.00     4000.00
04855            -180.00     4000.00
04856            -220.00     5200.00
04857            -100.00     4400.00
04858            -220.00     5200.00
04859              60.00     5200.00
04860            -180.00     4800.00
04861            -120.00     5600.00
04862             -60.00     5400.00
04863            -260.00     5800.00
04864             -40.00     5600.00
04865            -200.00     6000.00
04866            -200.00     6200.00
04867            -180.00     6000.00
04868            -140.00     6600.00
04869            -220.00     6400.00
04870            -300.00     6600.00
04871            -120.00     7200.00
04872            -200.00     6800.00
04873            -220.00     7200.00
04874            -220.00     7400.00
04875            -280.00     7600.00
04876            -300.00     7400.00
04877            -260.00     7600.00
04878            -260.00     7800.00
04879            -360.00     7800.00
04880            -300.00     8000.00
04881            -360.00     8000.00
04882            -360.00     8000.00
04883            -320.00     8400.00
04884            -340.00     8400.00
04885            -440.00     8400.00
04886            -420.00     8600.00
04887            -420.00     8600.00
04888            -440.00     8600.00
04889            -400.00     9000.00
04890            -460.00     8800.00
04891            -540.00     9000.00
04892            -520.00     9200.00
04893            -500.00     9200.00
04894            -540.00     9200.00
04895            -540.00     9200.00
04896            -580.00     9200.00
04897            -640.00     9400.00
04898            -620.00     9400.00
04899            -660.00     9400.00
04900            -680.00     9400.00
04901            -700.00     9600.00
04902            -700.00     9600.00
04903            -760.00     9600.00
04904            -800.00     9800.00
04905            -820.00     9600.00
04906            -860.00     9600.00
04907            -860.00     9600.00
04908            -900.00    10000.00
04909            -960.00     9800.00
04910           -1020.00    10000.00
04911           -1020.00    10000.00
04912           -1080.00    10000.00
04913           -1120.00    10000.00
04914           -1160.00    10000.00
04915           -1220.00     9800.00
04916           -1300.00    10000.00
04917           -1340.00    10000.00
04918           -1400.00     9600.00
04919           -1480.00     9600.00
04920           -1500.00    10000.00
04921           -1540.00     9800.00
04922           -1580.00     9800.00
04923           -1620.00     9600.00
04924           -1660.00     9600.00
04925           -1700.00     9600.00
04926           -1700.00     9600.00
04927           -1720.00     9600.00
04928           -1720.00     9600.00
04929           -1720.00     9400.00
04930           -1720.00     9400.00
04931           -1700.00     9400.00
04932           -1660.00     9400.00
04933           -1660.00     9200.00
04934           -1620.00     9200.00
04935           -1560.00     9200.00
04936           -1500.00     9200.00
04937           -1500.00     9000.00
04938           -1460.00     8800.00
04939           -1400.00     8800.00
04940           -1320.00     8800.00
04941           -1260.00     8600.00
04942           -1240.00     8600.00
04943           -1180.00     8400.00
04944           -1120.00     8400.00
04945           -1080.00     8400.00
04946           -1020.00     8000.00
04947            -980.00     8000.00
04948            -920.00     7800.00
04949            -860.00     7800.00
04950            -860.00     7600.00
04951            -820.00     7600.00
04952            -780.00     7400.00
04953            -720.00     7200.00
04954            -680.00     7200.00
04955            -640.00     7000.00
04956            -620.00     7000.00
04957            -600.00     6800.00
04958            -580.00     6800.00
04959            -540.00     6400.00
04960            -520.00     6400.00
04961            -500.00     6200.00
04962            -460.00     6200.00
04963            -440.00     6000.00
04964            -420.00     5600.00
04965            -420.00     5600.00
04966            -380.00     5400.00
04967            -380.00     5200.00
04968            -380.00     5200.00
04969            -340.00     5000.00
04970            -340.00     4800.00
04971            -340.00     4600.00
04972            -300.00     4600.00
04973            -280.00     4400.00
04974            -280.00     4200.00
04975            -280.00     4000.00
04976            -260.00     3800.00
04977            -240.00     3800.00
04978            -220.00     3600.00
04979            -220.00     3200.00
04980            -220.00     3200.00
04981            -220.00     3000.00
04982            -200.00     2800.00
04983            -200.00     2800.00
04984            -200.00     2400.00
04985            -180.00     2200.00
04986            -140.00     2000.00
04987            -140.00     1800.00
04988            -140.00     1600.00
04989            -120.00     1400.00
04990            -120.00     1400.00
04991            -120.00     1200.00
04992            -120.00     1200.00
04993            -100.00      800.00
04994            -100.00      600.00
04995             -60.00      400.00
04996             -60.00      400.00
04997             -60.00      200.00
04998             -60.00     -200.00
04999             -20.00     -200.00
05000              60.00     -400.00
