Unit:(mV)
                     CH1         CH2
Frequency              ? 299.169 kHz
00001             -40.00    -3200.00
00002             360.00    -3800.00
00003             -60.00    -3200.00
00004             180.00    -3600.00
00005             120.00    -4200.00
00006              40.00    -3800.00
00007             360.00    -4400.00
00008              60.00    -4200.00
00009             -40.00    -4400.00
00010              40.00    -4400.00
00011              60.00    -4800.00
00012             200.00    -5200.00
00013             120.00    -4800.00
00014             100.00    -5600.00
00015              60.00    -5600.00
00016             180.00    -5400.00
00017             200.00    -6000.00
00018              60.00    -5800.00
00019             200.00    -6000.00
00020             140.00    -6200.00
00021             120.00    -6400.00
00022             180.00    -6400.00
00023              60.00    -6600.00
00024             180.00    -6800.00
00025             220.00    -6800.00
00026             180.00    -7200.00
00027             120.00    -7200.00
00028             200.00    -7200.00
00029             180.00    -7400.00
00030             180.00    -7600.00
00031             180.00    -7600.00
00032             160.00    -7800.00
00033             140.00    -8000.00
00034             200.00    -8000.00
00035             200.00    -8200.00
00036             200.00    -8200.00
00037             220.00    -8200.00
00038             200.00    -8200.00
00039             180.00    -8400.00
00040             220.00    -8600.00
00041             220.00    -8600.00
00042             200.00    -8800.00
00043             220.00    -8800.00
00044             180.00    -8800.00
00045             200.00    -8800.00
00046             260.00    -9000.00
00047             260.00    -9000.00
00048             260.00    -9200.00
00049             240.00    -9200.00
00050             220.00    -9200.00
00051             200.00    -9200.00
00052             240.00    -9200.00
00053             260.00    -9200.00
00054             260.00    -9600.00
00055             260.00    -9600.00
00056             260.00    -9600.00
00057             220.00    -9600.00
00058             260.00    -9600.00
00059             260.00    -9600.00
00060             280.00    -9600.00
00061             260.00    -9600.00
00062             280.00    -9600.00
00063             260.00    -9600.00
00064             240.00    -9800.00
00065             260.00    -9800.00
00066             260.00    -9600.00
00067             280.00    -9600.00
00068             280.00    -9600.00
00069             260.00    -9600.00
00070             260.00    -9600.00
00071             260.00    -9600.00
00072             260.00    -9600.00
00073             280.00    -9600.00
00074             280.00    -9600.00
00075             280.00    -9600.00
00076             260.00    -9400.00
00077             260.00    -9200.00
00078             260.00    -9200.00
00079             260.00    -9200.00
00080             280.00    -9200.00
00081             280.00    -9200.00
00082             280.00    -9200.00
00083             260.00    -9200.00
00084             260.00    -9000.00
00085             260.00    -9000.00
00086             260.00    -8800.00
00087             260.00    -9000.00
00088             280.00    -8800.00
00089             260.00    -8800.00
00090             260.00    -8600.00
00091             260.00    -8800.00
00092             240.00    -8400.00
00093             260.00    -8400.00
00094             260.00    -8200.00
00095             260.00    -8200.00
00096             260.00    -8000.00
00097             240.00    -7800.00
00098             240.00    -8000.00
00099             260.00    -7800.00
00100             260.00    -7600.00
00101             260.00    -7600.00
00102             240.00    -7400.00
00103             220.00    -7400.00
00104             220.00    -7200.00
00105             200.00    -7200.00
00106             220.00    -7200.00
00107             220.00    -7000.00
00108             220.00    -6600.00
00109             200.00    -6600.00
00110             200.00    -6600.00
00111             200.00    -6400.00
00112             200.00    -6200.00
00113             200.00    -6400.00
00114             200.00    -6000.00
00115             200.00    -5800.00
00116             200.00    -5600.00
00117             200.00    -5600.00
00118             180.00    -5400.00
00119             180.00    -5000.00
00120             200.00    -5000.00
00121             180.00    -4800.00
00122             180.00    -4600.00
00123             160.00    -4400.00
00124             180.00    -4400.00
00125             160.00    -4200.00
00126             160.00    -3800.00
00127             160.00    -3800.00
00128             180.00    -3600.00
00129             140.00    -3600.00
00130             120.00    -3400.00
00131             140.00    -3200.00
00132             140.00    -2800.00
00133             120.00    -2800.00
00134             140.00    -2600.00
00135             140.00    -2400.00
00136             120.00    -2200.00
00137             120.00    -2000.00
00138             120.00    -2000.00
00139             100.00    -1800.00
00140             100.00    -1600.00
00141             100.00    -1400.00
00142             100.00    -1200.00
00143             100.00    -1000.00
00144              60.00     -800.00
00145              80.00     -800.00
00146              60.00     -400.00
00147              80.00     -200.00
00148              60.00        0.00
00149              60.00        0.00
00150              60.00      200.00
00151              80.00      600.00
00152             140.00      600.00
00153             160.00      800.00
00154             120.00      800.00
00155             100.00     1200.00
00156              80.00     1200.00
00157             100.00     1400.00
00158             220.00     1600.00
00159             780.00     2000.00
00160             940.00     2000.00
00161              40.00     2200.00
00162            -860.00     2200.00
00163           -1240.00     2600.00
00164            -600.00     2800.00
00165             820.00     3000.00
00166             180.00     2800.00
00167            -380.00     3400.00
00168             380.00     3200.00
00169            -140.00     3800.00
00170            -260.00     4000.00
00171             180.00     3400.00
00172             -60.00     4400.00
00173             220.00     4000.00
00174             -60.00     3800.00
00175            -240.00     5000.00
00176             -40.00     4600.00
00177            -200.00     4800.00
00178             100.00     5200.00
00179             -80.00     4800.00
00180            -120.00     5600.00
00181             -20.00     5600.00
00182            -200.00     5600.00
00183              20.00     6000.00
00184            -100.00     6000.00
00185            -140.00     6200.00
00186            -100.00     6000.00
00187             -80.00     6400.00
00188            -100.00     6800.00
00189            -220.00     6600.00
00190             -60.00     7200.00
00191             -80.00     7000.00
00192            -120.00     7200.00
00193            -100.00     7200.00
00194            -140.00     7400.00
00195            -180.00     7600.00
00196            -120.00     7600.00
00197            -120.00     7800.00
00198            -200.00     7800.00
00199            -140.00     8000.00
00200            -200.00     8000.00
00201            -180.00     8000.00
00202            -120.00     8400.00
00203            -140.00     8400.00
00204            -220.00     8600.00
00205            -200.00     8600.00
00206            -180.00     9000.00
00207            -220.00     8800.00
00208            -160.00     9000.00
00209            -200.00     9000.00
00210            -260.00     9000.00
00211            -220.00     9200.00
00212            -180.00     9200.00
00213            -200.00     9200.00
00214            -220.00     9400.00
00215            -200.00     9400.00
00216            -260.00     9400.00
00217            -220.00     9400.00
00218            -220.00     9600.00
00219            -260.00     9600.00
00220            -240.00     9600.00
00221            -220.00     9600.00
00222            -220.00     9600.00
00223            -260.00     9800.00
00224            -260.00     9600.00
00225            -260.00     9600.00
00226            -240.00     9600.00
00227            -220.00     9800.00
00228            -280.00     9800.00
00229            -280.00    10000.00
00230            -260.00    10000.00
00231            -260.00    10000.00
00232            -280.00    10000.00
00233            -260.00    10000.00
00234            -260.00    10000.00
00235            -280.00     9800.00
00236            -260.00    10000.00
00237            -260.00     9800.00
00238            -300.00     9800.00
00239            -280.00     9600.00
00240            -260.00     9800.00
00241            -260.00     9800.00
00242            -260.00     9800.00
00243            -260.00     9600.00
00244            -280.00     9600.00
00245            -280.00     9600.00
00246            -260.00     9600.00
00247            -260.00     9400.00
00248            -260.00     9600.00
00249            -260.00     9400.00
00250            -280.00     9400.00
00251            -280.00     9200.00
00252            -260.00     9400.00
00253            -260.00     9200.00
00254            -260.00     9200.00
00255            -220.00     9000.00
00256            -280.00     9000.00
00257            -280.00     8800.00
00258            -260.00     9000.00
00259            -240.00     8800.00
00260            -240.00     8800.00
00261            -240.00     8600.00
00262            -260.00     8400.00
00263            -260.00     8400.00
00264            -240.00     8200.00
00265            -220.00     8200.00
00266            -220.00     8000.00
00267            -220.00     8000.00
00268            -220.00     7800.00
00269            -220.00     7600.00
00270            -220.00     7600.00
00271            -220.00     7400.00
00272            -220.00     7200.00
00273            -220.00     7200.00
00274            -220.00     7000.00
00275            -220.00     7000.00
00276            -220.00     6800.00
00277            -200.00     6800.00
00278            -220.00     6800.00
00279            -200.00     6400.00
00280            -200.00     6200.00
00281            -200.00     6200.00
00282            -200.00     6000.00
00283            -200.00     5800.00
00284            -200.00     5600.00
00285            -200.00     5400.00
00286            -200.00     5400.00
00287            -180.00     5200.00
00288            -180.00     5000.00
00289            -180.00     4800.00
00290            -180.00     4600.00
00291            -200.00     4600.00
00292            -140.00     4400.00
00293            -160.00     4200.00
00294            -180.00     4000.00
00295            -160.00     3800.00
00296            -140.00     3600.00
00297            -140.00     3600.00
00298            -140.00     3600.00
00299            -140.00     3200.00
00300            -140.00     3000.00
00301            -120.00     2800.00
00302            -120.00     2600.00
00303            -120.00     2400.00
00304            -120.00     2200.00
00305            -120.00     2200.00
00306            -120.00     2000.00
00307            -100.00     1800.00
00308            -100.00     1600.00
00309            -100.00     1400.00
00310             -80.00     1200.00
00311             -60.00     1200.00
00312             -80.00      800.00
00313             -60.00      600.00
00314             -60.00      600.00
00315             -40.00      400.00
00316             -60.00      200.00
00317             -60.00        0.00
00318             -20.00     -200.00
00319              40.00     -400.00
00320             100.00     -600.00
00321              40.00     -800.00
00322              40.00    -1000.00
00323              40.00    -1000.00
00324              40.00    -1200.00
00325              60.00    -1200.00
00326             320.00    -1600.00
00327             820.00    -1800.00
00328             620.00    -2000.00
00329            -200.00    -2200.00
00330            -700.00    -2400.00
00331            -860.00    -2400.00
00332            -520.00    -2400.00
00333             540.00    -2800.00
00334             220.00    -3200.00
00335            -180.00    -2800.00
00336             360.00    -3600.00
00337              60.00    -3400.00
00338              60.00    -3400.00
00339             200.00    -4200.00
00340               0.00    -3600.00
00341             340.00    -4200.00
00342             180.00    -4400.00
00343             -60.00    -4400.00
00344              40.00    -4800.00
00345              40.00    -4800.00
00346             180.00    -5200.00
00347             140.00    -5000.00
00348             100.00    -5200.00
00349              60.00    -5800.00
00350             120.00    -5400.00
00351             200.00    -5800.00
00352              60.00    -6000.00
00353             140.00    -6000.00
00354             180.00    -6400.00
00355             100.00    -6400.00
00356             180.00    -6600.00
00357             100.00    -6600.00
00358             120.00    -6800.00
00359             220.00    -6800.00
00360             180.00    -7000.00
00361             120.00    -7200.00
00362             180.00    -7200.00
00363             200.00    -7400.00
00364             140.00    -7600.00
00365             180.00    -7600.00
00366             180.00    -7800.00
00367             140.00    -8000.00
00368             200.00    -8000.00
00369             220.00    -8000.00
00370             200.00    -8200.00
00371             200.00    -8200.00
00372             200.00    -8200.00
00373             180.00    -8400.00
00374             200.00    -8400.00
00375             200.00    -8600.00
00376             220.00    -8800.00
00377             220.00    -8800.00
00378             200.00    -8800.00
00379             200.00    -8800.00
00380             220.00    -8800.00
00381             260.00    -9000.00
00382             220.00    -9200.00
00383             260.00    -9200.00
00384             220.00    -9200.00
00385             200.00    -9200.00
00386             240.00    -9200.00
00387             260.00    -9200.00
00388             260.00    -9200.00
00389             260.00    -9400.00
00390             260.00    -9600.00
00391             260.00    -9400.00
00392             240.00    -9600.00
00393             260.00    -9600.00
00394             260.00    -9600.00
00395             260.00    -9600.00
00396             260.00    -9600.00
00397             260.00    -9600.00
00398             260.00    -9600.00
00399             260.00    -9600.00
00400             260.00    -9800.00
00401             260.00    -9600.00
00402             280.00    -9600.00
00403             280.00    -9600.00
00404             260.00    -9600.00
00405             260.00    -9600.00
00406             260.00    -9600.00
00407             280.00    -9600.00
00408             280.00    -9400.00
00409             280.00    -9600.00
00410             260.00    -9600.00
00411             260.00    -9400.00
00412             260.00    -9400.00
00413             260.00    -9200.00
00414             280.00    -9200.00
00415             280.00    -9200.00
00416             260.00    -9200.00
00417             260.00    -9200.00
00418             260.00    -9200.00
00419             260.00    -9000.00
00420             260.00    -9000.00
00421             280.00    -8800.00
00422             280.00    -8800.00
00423             260.00    -8800.00
00424             260.00    -8800.00
00425             260.00    -8600.00
00426             260.00    -8400.00
00427             280.00    -8400.00
00428             260.00    -8200.00
00429             260.00    -8200.00
00430             260.00    -8000.00
00431             240.00    -8000.00
00432             240.00    -8000.00
00433             260.00    -8000.00
00434             240.00    -7800.00
00435             260.00    -7600.00
00436             220.00    -7600.00
00437             240.00    -7400.00
00438             220.00    -7200.00
00439             220.00    -7200.00
00440             220.00    -6800.00
00441             220.00    -6800.00
00442             260.00    -6800.00
00443             220.00    -6600.00
00444             220.00    -6400.00
00445             200.00    -6400.00
00446             200.00    -6400.00
00447             200.00    -6000.00
00448             200.00    -6000.00
00449             200.00    -5800.00
00450             200.00    -5600.00
00451             200.00    -5600.00
00452             200.00    -5200.00
00453             180.00    -5200.00
00454             180.00    -5000.00
00455             200.00    -5000.00
00456             180.00    -4800.00
00457             180.00    -4600.00
00458             180.00    -4200.00
00459             140.00    -4200.00
00460             180.00    -4000.00
00461             180.00    -3800.00
00462             160.00    -3800.00
00463             160.00    -3600.00
00464             140.00    -3400.00
00465             140.00    -3200.00
00466             120.00    -3000.00
00467             140.00    -2800.00
00468             140.00    -2800.00
00469             120.00    -2600.00
00470             120.00    -2200.00
00471             120.00    -2200.00
00472             100.00    -2000.00
00473             100.00    -1800.00
00474             120.00    -1600.00
00475             100.00    -1400.00
00476             100.00    -1200.00
00477              60.00    -1000.00
00478             100.00    -1000.00
00479              60.00     -800.00
00480              60.00     -400.00
00481              60.00     -200.00
00482              60.00     -200.00
00483              60.00        0.00
00484              40.00      200.00
00485              60.00      400.00
00486             120.00      600.00
00487             160.00      600.00
00488             160.00      800.00
00489             100.00     1000.00
00490             100.00     1000.00
00491             100.00     1400.00
00492             140.00     1400.00
00493             600.00     1800.00
00494            1020.00     2200.00
00495             300.00     2200.00
00496            -700.00     2600.00
00497           -1180.00     2200.00
00498            -940.00     2800.00
00499             580.00     3000.00
00500             540.00     2800.00
00501            -460.00     3200.00
00502             280.00     3200.00
00503             100.00     3400.00
00504            -380.00     4000.00
00505             160.00     3400.00
00506             -40.00     4000.00
00507             140.00     4400.00
00508              60.00     3600.00
00509            -280.00     5200.00
00510             -20.00     4800.00
00511            -200.00     4600.00
00512              20.00     5400.00
00513              20.00     4800.00
00514            -180.00     5200.00
00515              40.00     5600.00
00516            -200.00     5400.00
00517             -40.00     5800.00
00518             -40.00     5800.00
00519            -180.00     6400.00
00520            -100.00     6000.00
00521            -100.00     6400.00
00522             -60.00     6800.00
00523            -220.00     6400.00
00524            -100.00     7000.00
00525             -60.00     7000.00
00526            -140.00     7000.00
00527            -120.00     7400.00
00528            -140.00     7400.00
00529            -180.00     7600.00
00530            -160.00     7400.00
00531            -100.00     7800.00
00532            -180.00     7800.00
00533            -180.00     8000.00
00534            -180.00     8200.00
00535            -200.00     8000.00
00536            -140.00     8200.00
00537            -120.00     8400.00
00538            -200.00     8600.00
00539            -220.00     8400.00
00540            -180.00     8800.00
00541            -200.00     8800.00
00542            -180.00     8800.00
00543            -180.00     9000.00
00544            -240.00     9000.00
00545            -260.00     9200.00
00546            -180.00     9200.00
00547            -220.00     9200.00
00548            -220.00     9200.00
00549            -200.00     9200.00
00550            -260.00     9400.00
00551            -260.00     9400.00
00552            -220.00     9400.00
00553            -240.00     9600.00
00554            -220.00     9600.00
00555            -220.00     9600.00
00556            -220.00     9600.00
00557            -260.00     9600.00
00558            -260.00     9800.00
00559            -260.00     9600.00
00560            -240.00     9800.00
00561            -220.00     9600.00
00562            -240.00    10000.00
00563            -280.00    10000.00
00564            -260.00    10000.00
00565            -260.00    10000.00
00566            -260.00     9800.00
00567            -280.00    10000.00
00568            -260.00     9800.00
00569            -260.00     9800.00
00570            -260.00    10000.00
00571            -260.00    10000.00
00572            -280.00     9800.00
00573            -260.00     9800.00
00574            -260.00     9800.00
00575            -260.00     9600.00
00576            -260.00     9600.00
00577            -260.00     9600.00
00578            -280.00     9600.00
00579            -280.00     9600.00
00580            -280.00     9600.00
00581            -260.00     9600.00
00582            -260.00     9400.00
00583            -240.00     9400.00
00584            -260.00     9600.00
00585            -280.00     9400.00
00586            -260.00     9200.00
00587            -260.00     9200.00
00588            -260.00     9200.00
00589            -220.00     9200.00
00590            -260.00     8800.00
00591            -280.00     9000.00
00592            -280.00     8800.00
00593            -260.00     8800.00
00594            -260.00     8600.00
00595            -220.00     8600.00
00596            -240.00     8600.00
00597            -280.00     8400.00
00598            -220.00     8200.00
00599            -260.00     8200.00
00600            -220.00     8000.00
00601            -220.00     8000.00
00602            -220.00     7800.00
00603            -220.00     7800.00
00604            -240.00     7600.00
00605            -220.00     7400.00
00606            -220.00     7400.00
00607            -220.00     7200.00
00608            -220.00     7200.00
00609            -220.00     7000.00
00610            -220.00     7000.00
00611            -220.00     6800.00
00612            -220.00     6600.00
00613            -220.00     6400.00
00614            -200.00     6200.00
00615            -200.00     6200.00
00616            -200.00     6000.00
00617            -200.00     5800.00
00618            -220.00     5600.00
00619            -200.00     5600.00
00620            -200.00     5200.00
00621            -180.00     5200.00
00622            -180.00     5200.00
00623            -180.00     5000.00
00624            -180.00     4800.00
00625            -200.00     4600.00
00626            -180.00     4600.00
00627            -180.00     4400.00
00628            -180.00     4000.00
00629            -180.00     4000.00
00630            -140.00     3800.00
00631            -160.00     3600.00
00632            -140.00     3400.00
00633            -120.00     3200.00
00634            -140.00     3000.00
00635            -120.00     3000.00
00636            -120.00     2800.00
00637            -140.00     2600.00
00638            -120.00     2400.00
00639            -120.00     2400.00
00640            -100.00     2000.00
00641            -100.00     1800.00
00642            -100.00     1600.00
00643            -100.00     1400.00
00644            -100.00     1200.00
00645             -80.00     1200.00
00646             -60.00     1000.00
00647             -60.00      800.00
00648             -60.00      600.00
00649             -60.00      600.00
00650             -60.00      400.00
00651             -40.00        0.00
00652             -40.00        0.00
00653              40.00     -200.00
00654              80.00     -400.00
00655              60.00     -600.00
00656              40.00     -800.00
00657              40.00    -1200.00
00658              40.00    -1200.00
00659              60.00    -1200.00
00660             220.00    -1400.00
00661             680.00    -1600.00
00662             780.00    -2000.00
00663              40.00    -2400.00
00664            -620.00    -2400.00
00665            -820.00    -2600.00
00666            -720.00    -2400.00
00667             320.00    -2800.00
00668             460.00    -3200.00
00669            -220.00    -2800.00
00670             260.00    -3400.00
00671             180.00    -3600.00
00672             -40.00    -3200.00
00673             240.00    -4000.00
00674             -20.00    -3800.00
00675             200.00    -4000.00
00676             260.00    -4400.00
00677            -100.00    -4400.00
00678              20.00    -4800.00
00679              20.00    -4600.00
00680             120.00    -5000.00
00681             180.00    -5200.00
00682             100.00    -5200.00
00683              60.00    -5600.00
00684             100.00    -5400.00
00685             220.00    -5800.00
00686             100.00    -5800.00
00687             100.00    -5800.00
00688             200.00    -6400.00
00689             100.00    -6400.00
00690             140.00    -6400.00
00691             120.00    -6400.00
00692             100.00    -6600.00
00693             200.00    -6800.00
00694             200.00    -6800.00
00695             120.00    -7200.00
00696             140.00    -7200.00
00697             200.00    -7400.00
00698             180.00    -7600.00
00699             180.00    -7400.00
00700             180.00    -7600.00
00701             140.00    -8000.00
00702             180.00    -7800.00
00703             220.00    -8000.00
00704             200.00    -8000.00
00705             200.00    -8200.00
00706             220.00    -8400.00
00707             180.00    -8200.00
00708             200.00    -8400.00
00709             220.00    -8400.00
00710             200.00    -8800.00
00711             220.00    -8800.00
00712             220.00    -8800.00
00713             200.00    -8800.00
00714             220.00    -8800.00
00715             260.00    -9000.00
00716             260.00    -9200.00
00717             220.00    -9000.00
00718             260.00    -9200.00
00719             220.00    -9200.00
00720             200.00    -9200.00
00721             260.00    -9400.00
00722             240.00    -9400.00
00723             260.00    -9600.00
00724             260.00    -9400.00
00725             260.00    -9200.00
00726             260.00    -9400.00
00727             260.00    -9600.00
00728             280.00    -9600.00
00729             260.00    -9600.00
00730             260.00    -9600.00
00731             280.00    -9800.00
00732             260.00    -9600.00
00733             260.00    -9600.00
00734             260.00    -9800.00
00735             260.00    -9600.00
00736             280.00    -9600.00
00737             260.00    -9400.00
00738             260.00    -9600.00
00739             260.00    -9600.00
00740             260.00    -9600.00
00741             260.00    -9600.00
00742             280.00    -9600.00
00743             280.00    -9400.00
00744             260.00    -9600.00
00745             260.00    -9400.00
00746             260.00    -9200.00
00747             260.00    -9200.00
00748             280.00    -9200.00
00749             280.00    -9200.00
00750             280.00    -9200.00
00751             260.00    -9200.00
00752             260.00    -9000.00
00753             260.00    -9000.00
00754             260.00    -9000.00
00755             280.00    -8800.00
00756             280.00    -8800.00
00757             260.00    -8800.00
00758             260.00    -8800.00
00759             260.00    -8600.00
00760             240.00    -8400.00
00761             260.00    -8400.00
00762             260.00    -8400.00
00763             260.00    -8400.00
00764             260.00    -8200.00
00765             260.00    -8000.00
00766             220.00    -7800.00
00767             260.00    -7800.00
00768             260.00    -7800.00
00769             260.00    -7600.00
00770             260.00    -7600.00
00771             220.00    -7400.00
00772             220.00    -7200.00
00773             220.00    -7200.00
00774             220.00    -6800.00
00775             220.00    -6800.00
00776             240.00    -6800.00
00777             220.00    -6600.00
00778             200.00    -6400.00
00779             200.00    -6400.00
00780             200.00    -6000.00
00781             200.00    -6000.00
00782             200.00    -6000.00
00783             200.00    -5800.00
00784             200.00    -5600.00
00785             200.00    -5600.00
00786             180.00    -5400.00
00787             180.00    -5200.00
00788             200.00    -5200.00
00789             200.00    -5000.00
00790             180.00    -4800.00
00791             180.00    -4800.00
00792             180.00    -4400.00
00793             180.00    -4200.00
00794             160.00    -3800.00
00795             180.00    -4000.00
00796             140.00    -3800.00
00797             180.00    -3600.00
00798             140.00    -3400.00
00799             140.00    -3200.00
00800             140.00    -3200.00
00801             120.00    -2800.00
00802             140.00    -2800.00
00803             120.00    -2600.00
00804             120.00    -2400.00
00805             100.00    -2000.00
00806             100.00    -2000.00
00807             100.00    -1800.00
00808             100.00    -1600.00
00809             100.00    -1600.00
00810             100.00    -1200.00
00811             100.00    -1200.00
00812              60.00    -1000.00
00813              80.00     -800.00
00814              60.00     -800.00
00815              60.00     -400.00
00816              60.00        0.00
00817              40.00        0.00
00818              40.00        0.00
00819              60.00      400.00
00820             120.00      600.00
00821             140.00      600.00
00822             140.00      800.00
00823             120.00      800.00
00824             100.00     1200.00
00825             100.00     1200.00
00826             120.00     1600.00
00827             440.00     1600.00
00828            1000.00     2200.00
00829             580.00     2200.00
00830            -480.00     2200.00
00831           -1080.00     2200.00
00832           -1160.00     2800.00
00833             180.00     3200.00
00834             820.00     3000.00
00835            -360.00     3000.00
00836              40.00     3200.00
00837             300.00     3200.00
00838            -420.00     4000.00
00839              40.00     3600.00
00840              40.00     3800.00
00841              40.00     4600.00
00842             200.00     3800.00
00843            -280.00     4600.00
00844             -60.00     5000.00
00845            -120.00     4400.00
00846             -60.00     5400.00
00847             100.00     5200.00
00848            -200.00     5200.00
00849              20.00     5600.00
00850            -120.00     5400.00
00851            -120.00     6000.00
00852              20.00     5800.00
00853            -180.00     6200.00
00854            -100.00     6200.00
00855            -120.00     6400.00
00856             -60.00     6800.00
00857            -200.00     6400.00
00858            -180.00     7000.00
00859             -20.00     7000.00
00860            -120.00     7000.00
00861            -120.00     7200.00
00862            -120.00     7200.00
00863            -180.00     7600.00
00864            -180.00     7400.00
00865            -100.00     7800.00
00866            -180.00     7800.00
00867            -200.00     7800.00
00868            -140.00     8000.00
00869            -220.00     8000.00
00870            -140.00     8200.00
00871            -140.00     8400.00
00872            -180.00     8400.00
00873            -220.00     8400.00
00874            -200.00     8600.00
00875            -200.00     8600.00
00876            -200.00     8800.00
00877            -180.00     9000.00
00878            -220.00     9000.00
00879            -260.00     9000.00
00880            -200.00     9200.00
00881            -180.00     9200.00
00882            -220.00     9200.00
00883            -200.00     9400.00
00884            -220.00     9400.00
00885            -260.00     9400.00
00886            -220.00     9400.00
00887            -220.00     9600.00
00888            -260.00     9400.00
00889            -220.00     9600.00
00890            -220.00     9600.00
00891            -240.00     9600.00
00892            -260.00     9600.00
00893            -260.00     9600.00
00894            -260.00     9600.00
00895            -220.00     9800.00
00896            -220.00     9800.00
00897            -280.00    10000.00
00898            -280.00     9600.00
00899            -260.00     9800.00
00900            -260.00    10000.00
00901            -260.00     9800.00
00902            -260.00    10000.00
00903            -260.00     9800.00
00904            -260.00     9800.00
00905            -260.00    10000.00
00906            -280.00     9800.00
00907            -280.00    10000.00
00908            -260.00     9800.00
00909            -260.00     9800.00
00910            -260.00     9600.00
00911            -260.00     9800.00
00912            -260.00     9600.00
00913            -280.00     9600.00
00914            -260.00     9600.00
00915            -260.00     9600.00
00916            -260.00     9400.00
00917            -260.00     9400.00
00918            -260.00     9400.00
00919            -260.00     9400.00
00920            -260.00     9200.00
00921            -260.00     9200.00
00922            -240.00     9200.00
00923            -220.00     9200.00
00924            -260.00     9000.00
00925            -260.00     8800.00
00926            -260.00     8800.00
00927            -260.00     8800.00
00928            -260.00     8800.00
00929            -240.00     8600.00
00930            -220.00     8600.00
00931            -260.00     8400.00
00932            -260.00     8200.00
00933            -240.00     8000.00
00934            -260.00     8000.00
00935            -260.00     8000.00
00936            -220.00     7800.00
00937            -220.00     7800.00
00938            -240.00     7600.00
00939            -220.00     7600.00
00940            -260.00     7400.00
00941            -200.00     7200.00
00942            -220.00     7200.00
00943            -220.00     7000.00
00944            -220.00     6800.00
00945            -220.00     6800.00
00946            -220.00     6600.00
00947            -220.00     6400.00
00948            -220.00     6400.00
00949            -200.00     6200.00
00950            -220.00     6000.00
00951            -200.00     5800.00
00952            -200.00     5600.00
00953            -200.00     5600.00
00954            -200.00     5400.00
00955            -180.00     5200.00
00956            -180.00     5200.00
00957            -200.00     4800.00
00958            -200.00     4800.00
00959            -200.00     4600.00
00960            -180.00     4600.00
00961            -160.00     4400.00
00962            -180.00     4200.00
00963            -160.00     4000.00
00964            -140.00     3800.00
00965            -140.00     3600.00
00966            -140.00     3600.00
00967            -140.00     3200.00
00968            -140.00     3200.00
00969            -120.00     2800.00
00970            -120.00     2800.00
00971            -120.00     2600.00
00972            -120.00     2400.00
00973            -120.00     2200.00
00974            -100.00     2000.00
00975            -100.00     2000.00
00976            -100.00     1600.00
00977            -100.00     1600.00
00978             -80.00     1400.00
00979            -100.00     1200.00
00980             -60.00     1000.00
00981             -60.00      600.00
00982             -60.00      600.00
00983             -60.00      400.00
00984             -60.00      400.00
00985             -40.00      200.00
00986             -40.00     -200.00
00987              20.00     -400.00
00988             100.00     -400.00
00989              60.00     -600.00
00990              40.00    -1000.00
00991              40.00    -1000.00
00992              40.00    -1200.00
00993              60.00    -1200.00
00994             140.00    -1400.00
00995             560.00    -1600.00
00996             840.00    -2000.00
00997             260.00    -2400.00
00998            -520.00    -2400.00
00999            -780.00    -2400.00
01000            -840.00    -2400.00
01001              20.00    -2400.00
01002             600.00    -3400.00
01003            -180.00    -2800.00
01004              60.00    -3200.00
01005             300.00    -3600.00
01006            -100.00    -3200.00
01007             200.00    -4000.00
01008              40.00    -4000.00
01009             100.00    -3800.00
01010             340.00    -4400.00
01011             -40.00    -4400.00
01012             -20.00    -4800.00
01013              40.00    -4800.00
01014              60.00    -5000.00
01015             180.00    -5200.00
01016             120.00    -5000.00
01017              80.00    -5600.00
01018              60.00    -5400.00
01019             200.00    -5600.00
01020             180.00    -6000.00
01021              60.00    -5800.00
01022             180.00    -6000.00
01023             100.00    -6200.00
01024             140.00    -6400.00
01025             140.00    -6600.00
01026             100.00    -6600.00
01027             180.00    -6800.00
01028             200.00    -6800.00
01029             140.00    -7000.00
01030             120.00    -7200.00
01031             200.00    -7400.00
01032             180.00    -7600.00
01033             180.00    -7600.00
01034             180.00    -7600.00
01035             140.00    -7800.00
01036             140.00    -8000.00
01037             220.00    -8000.00
01038             200.00    -8200.00
01039             200.00    -8200.00
01040             220.00    -8400.00
01041             200.00    -8400.00
01042             200.00    -8400.00
01043             220.00    -8400.00
01044             220.00    -8600.00
01045             220.00    -8600.00
01046             200.00    -8800.00
01047             200.00    -8800.00
01048             200.00    -9000.00
01049             260.00    -9000.00
01050             260.00    -9000.00
01051             240.00    -9200.00
01052             260.00    -9200.00
01053             240.00    -9200.00
01054             200.00    -9200.00
01055             220.00    -9200.00
01056             260.00    -9200.00
01057             240.00    -9600.00
01058             260.00    -9400.00
01059             260.00    -9200.00
01060             260.00    -9600.00
01061             280.00    -9600.00
01062             300.00    -9400.00
01063             300.00    -9600.00
01064             280.00    -9800.00
01065             260.00    -9600.00
01066             220.00    -9600.00
01067             200.00    -9800.00
01068             200.00    -9600.00
01069             220.00    -9600.00
01070             260.00    -9800.00
01071             300.00    -9600.00
01072             280.00    -9600.00
01073             300.00    -9600.00
01074             280.00    -9600.00
01075             280.00    -9600.00
01076             260.00    -9600.00
01077             260.00    -9600.00
01078             260.00    -9400.00
01079             220.00    -9400.00
01080             260.00    -9400.00
01081             260.00    -9200.00
01082             280.00    -9200.00
01083             300.00    -9200.00
01084             280.00    -9200.00
01085             280.00    -9200.00
01086             260.00    -9200.00
01087             220.00    -9000.00
01088             220.00    -9000.00
01089             260.00    -8800.00
01090             260.00    -8800.00
01091             280.00    -8600.00
01092             260.00    -8800.00
01093             280.00    -8400.00
01094             260.00    -8600.00
01095             260.00    -8400.00
01096             260.00    -8400.00
01097             260.00    -8200.00
01098             220.00    -8000.00
01099             200.00    -8000.00
01100             220.00    -8000.00
01101             240.00    -8000.00
01102             260.00    -7800.00
01103             280.00    -7600.00
01104             260.00    -7600.00
01105             260.00    -7400.00
01106             220.00    -7600.00
01107             220.00    -7200.00
01108             200.00    -7000.00
01109             200.00    -6800.00
01110             220.00    -6800.00
01111             220.00    -6600.00
01112             240.00    -6600.00
01113             220.00    -6400.00
01114             220.00    -6200.00
01115             200.00    -6200.00
01116             180.00    -6000.00
01117             200.00    -6000.00
01118             180.00    -5600.00
01119             200.00    -5600.00
01120             180.00    -5400.00
01121             200.00    -5200.00
01122             200.00    -5000.00
01123             200.00    -5000.00
01124             200.00    -4800.00
01125             180.00    -4800.00
01126             180.00    -4400.00
01127             140.00    -4400.00
01128             140.00    -4200.00
01129             160.00    -3800.00
01130             160.00    -3800.00
01131             140.00    -3600.00
01132             140.00    -3400.00
01133             140.00    -3200.00
01134             120.00    -3200.00
01135             120.00    -3200.00
01136             120.00    -2800.00
01137             120.00    -2600.00
01138             120.00    -2400.00
01139             100.00    -2200.00
01140             100.00    -2000.00
01141             120.00    -1800.00
01142             100.00    -1600.00
01143             120.00    -1600.00
01144             100.00    -1400.00
01145              80.00    -1200.00
01146              60.00    -1000.00
01147              40.00     -800.00
01148              60.00     -800.00
01149              60.00     -400.00
01150              60.00     -200.00
01151              60.00     -200.00
01152              60.00        0.00
01153              60.00      400.00
01154             100.00      400.00
01155             140.00      600.00
01156             180.00      800.00
01157             120.00     1000.00
01158             100.00     1200.00
01159             100.00     1200.00
01160             100.00     1600.00
01161             280.00     1400.00
01162             920.00     2000.00
01163             820.00     2200.00
01164            -200.00     2400.00
01165           -1000.00     2200.00
01166           -1240.00     2600.00
01167            -280.00     3000.00
01168             900.00     3000.00
01169            -120.00     2800.00
01170            -200.00     3600.00
01171             420.00     3200.00
01172            -300.00     4000.00
01173            -120.00     3800.00
01174             140.00     3600.00
01175             -60.00     4600.00
01176             220.00     4000.00
01177            -200.00     4200.00
01178            -140.00     5200.00
01179             -40.00     4400.00
01180            -180.00     5200.00
01181             100.00     5200.00
01182            -140.00     4800.00
01183             -60.00     5600.00
01184             -60.00     5400.00
01185            -200.00     5600.00
01186              40.00     5800.00
01187            -120.00     6200.00
01188            -120.00     6400.00
01189            -100.00     6200.00
01190             -60.00     6800.00
01191            -140.00     6400.00
01192            -220.00     6800.00
01193             -40.00     7200.00
01194            -120.00     6800.00
01195            -120.00     7200.00
01196            -140.00     7200.00
01197            -160.00     7600.00
01198            -200.00     7600.00
01199            -120.00     7800.00
01200            -140.00     7600.00
01201            -220.00     7800.00
01202            -160.00     8200.00
01203            -220.00     7800.00
01204            -180.00     8200.00
01205            -140.00     8400.00
01206            -180.00     8400.00
01207            -220.00     8400.00
01208            -200.00     8600.00
01209            -200.00     8800.00
01210            -220.00     8600.00
01211            -140.00     9000.00
01212            -220.00     9000.00
01213            -260.00     9000.00
01214            -220.00     9200.00
01215            -180.00     9200.00
01216            -220.00     9200.00
01217            -200.00     9200.00
01218            -220.00     9400.00
01219            -260.00     9400.00
01220            -220.00     9400.00
01221            -220.00     9600.00
01222            -240.00     9600.00
01223            -220.00     9400.00
01224            -200.00     9800.00
01225            -220.00     9600.00
01226            -260.00     9600.00
01227            -220.00     9800.00
01228            -280.00     9800.00
01229            -220.00     9800.00
01230            -220.00     9800.00
01231            -260.00    10000.00
01232            -280.00    10000.00
01233            -260.00    10000.00
01234            -260.00    10000.00
01235            -280.00     9800.00
01236            -260.00    10000.00
01237            -260.00    10000.00
01238            -260.00     9800.00
01239            -240.00    10000.00
01240            -260.00     9800.00
01241            -280.00     9800.00
01242            -260.00     9800.00
01243            -260.00     9800.00
01244            -220.00     9800.00
01245            -240.00     9600.00
01246            -260.00     9600.00
01247            -280.00     9600.00
01248            -260.00     9600.00
01249            -260.00     9600.00
01250            -260.00     9400.00
01251            -260.00     9600.00
01252            -260.00     9400.00
01253            -260.00     9200.00
01254            -280.00     9200.00
01255            -260.00     9200.00
01256            -240.00     9200.00
01257            -240.00     9200.00
01258            -220.00     9000.00
01259            -280.00     9000.00
01260            -260.00     8800.00
01261            -260.00     8800.00
01262            -260.00     8800.00
01263            -260.00     8600.00
01264            -220.00     8400.00
01265            -240.00     8400.00
01266            -260.00     8200.00
01267            -240.00     8200.00
01268            -260.00     8000.00
01269            -260.00     8000.00
01270            -220.00     7800.00
01271            -220.00     7800.00
01272            -260.00     7600.00
01273            -260.00     7600.00
01274            -260.00     7400.00
01275            -220.00     7200.00
01276            -220.00     7200.00
01277            -220.00     7000.00
01278            -220.00     7000.00
01279            -220.00     6800.00
01280            -220.00     6800.00
01281            -220.00     6400.00
01282            -220.00     6400.00
01283            -220.00     6200.00
01284            -200.00     6000.00
01285            -200.00     6000.00
01286            -220.00     5800.00
01287            -200.00     5600.00
01288            -200.00     5400.00
01289            -200.00     5200.00
01290            -180.00     5200.00
01291            -180.00     4800.00
01292            -180.00     4800.00
01293            -200.00     4800.00
01294            -160.00     4600.00
01295            -160.00     4400.00
01296            -180.00     4200.00
01297            -180.00     4000.00
01298            -140.00     3800.00
01299            -140.00     3600.00
01300            -140.00     3600.00
01301            -140.00     3200.00
01302            -120.00     3200.00
01303            -120.00     3000.00
01304            -120.00     2800.00
01305            -120.00     2800.00
01306            -120.00     2400.00
01307            -120.00     2200.00
01308            -120.00     2000.00
01309            -100.00     2000.00
01310            -100.00     1600.00
01311            -100.00     1400.00
01312            -100.00     1200.00
01313            -100.00     1400.00
01314             -60.00     1000.00
01315             -60.00      800.00
01316             -60.00      800.00
01317             -60.00      400.00
01318             -60.00      400.00
01319             -60.00        0.00
01320             -40.00        0.00
01321               0.00     -200.00
01322              60.00     -400.00
01323              80.00     -600.00
01324              60.00     -800.00
01325              20.00    -1000.00
01326              20.00    -1200.00
01327              40.00    -1200.00
01328              80.00    -1400.00
01329             420.00    -1600.00
01330             840.00    -2000.00
01331             460.00    -2200.00
01332            -380.00    -2400.00
01333            -760.00    -2600.00
01334            -860.00    -2400.00
01335            -340.00    -2400.00
01336             620.00    -3200.00
01337              20.00    -3000.00
01338             -80.00    -3000.00
01339             360.00    -3800.00
01340             -60.00    -3200.00
01341             140.00    -3600.00
01342             140.00    -4200.00
01343              20.00    -3800.00
01344             340.00    -4400.00
01345              60.00    -4400.00
01346             -60.00    -4600.00
01347              60.00    -4800.00
01348              40.00    -4800.00
01349             180.00    -5000.00
01350             120.00    -4800.00
01351             100.00    -5600.00
01352              40.00    -5600.00
01353             180.00    -5600.00
01354             200.00    -6000.00
01355              60.00    -5800.00
01356             200.00    -6000.00
01357             140.00    -6400.00
01358             120.00    -6400.00
01359             180.00    -6600.00
01360             100.00    -6600.00
01361             140.00    -6800.00
01362             220.00    -6800.00
01363             180.00    -7200.00
01364             120.00    -7200.00
01365             200.00    -7200.00
01366             200.00    -7600.00
01367             180.00    -7600.00
01368             200.00    -7600.00
01369             180.00    -7600.00
01370             160.00    -7800.00
01371             220.00    -7800.00
01372             200.00    -8000.00
01373             180.00    -8200.00
01374             220.00    -8200.00
01375             200.00    -8400.00
01376             180.00    -8400.00
01377             220.00    -8400.00
01378             220.00    -8600.00
01379             200.00    -8800.00
01380             240.00    -8800.00
01381             200.00    -8800.00
01382             200.00    -8800.00
01383             260.00    -9000.00
01384             260.00    -9000.00
01385             260.00    -9000.00
01386             240.00    -9200.00
01387             220.00    -9200.00
01388             200.00    -9200.00
01389             260.00    -9200.00
01390             260.00    -9200.00
01391             260.00    -9600.00
01392             260.00    -9400.00
01393             260.00    -9600.00
01394             220.00    -9600.00
01395             240.00    -9600.00
01396             260.00    -9600.00
01397             260.00    -9800.00
01398             260.00    -9600.00
01399             260.00    -9600.00
01400             260.00    -9600.00
01401             260.00    -9800.00
01402             260.00    -9600.00
01403             260.00    -9600.00
01404             260.00    -9600.00
01405             280.00    -9600.00
01406             260.00    -9600.00
01407             260.00    -9800.00
01408             260.00    -9600.00
01409             260.00    -9600.00
01410             260.00    -9600.00
01411             280.00    -9600.00
01412             280.00    -9600.00
01413             280.00    -9200.00
01414             260.00    -9400.00
01415             260.00    -9400.00
01416             260.00    -9200.00
01417             260.00    -9200.00
01418             260.00    -9200.00
01419             280.00    -9200.00
01420             260.00    -9200.00
01421             260.00    -9000.00
01422             260.00    -9000.00
01423             260.00    -9000.00
01424             280.00    -8800.00
01425             280.00    -8800.00
01426             260.00    -8800.00
01427             260.00    -8800.00
01428             260.00    -8600.00
01429             260.00    -8400.00
01430             260.00    -8400.00
01431             260.00    -8200.00
01432             260.00    -8200.00
01433             260.00    -8000.00
01434             260.00    -8000.00
01435             260.00    -8000.00
01436             260.00    -7800.00
01437             260.00    -7600.00
01438             260.00    -7600.00
01439             260.00    -7400.00
01440             220.00    -7400.00
01441             240.00    -7200.00
01442             220.00    -7200.00
01443             220.00    -6800.00
01444             220.00    -6800.00
01445             220.00    -6800.00
01446             220.00    -6600.00
01447             200.00    -6400.00
01448             220.00    -6400.00
01449             200.00    -6200.00
01450             220.00    -6000.00
01451             200.00    -6000.00
01452             200.00    -5800.00
01453             200.00    -5600.00
01454             200.00    -5400.00
01455             180.00    -5400.00
01456             180.00    -5200.00
01457             200.00    -5000.00
01458             180.00    -5000.00
01459             180.00    -4800.00
01460             180.00    -4600.00
01461             180.00    -4400.00
01462             140.00    -4000.00
01463             140.00    -4000.00
01464             140.00    -3800.00
01465             140.00    -3600.00
01466             140.00    -3600.00
01467             120.00    -3400.00
01468             140.00    -3200.00
01469             120.00    -2800.00
01470             120.00    -2800.00
01471             120.00    -2600.00
01472             120.00    -2600.00
01473             120.00    -2400.00
01474             100.00    -2000.00
01475             100.00    -1800.00
01476             100.00    -1800.00
01477             100.00    -1600.00
01478              80.00    -1400.00
01479             100.00    -1200.00
01480              80.00    -1000.00
01481              60.00    -1000.00
01482              60.00     -800.00
01483              60.00     -400.00
01484              60.00     -200.00
01485              60.00     -200.00
01486              60.00        0.00
01487              60.00      200.00
01488             100.00      400.00
01489             140.00      600.00
01490             160.00      800.00
01491             140.00      800.00
01492             100.00     1200.00
01493             100.00     1200.00
01494             100.00     1400.00
01495             200.00     1600.00
01496             760.00     2200.00
01497             980.00     2200.00
01498             100.00     2200.00
01499            -860.00     2200.00
01500           -1240.00     2400.00
01501            -700.00     3000.00
01502             820.00     3000.00
01503             260.00     3000.00
01504            -420.00     3200.00
01505             400.00     3000.00
01506            -100.00     3800.00
01507            -280.00     4000.00
01508             200.00     3400.00
01509             -60.00     4400.00
01510             220.00     4400.00
01511             -40.00     4000.00
01512            -240.00     5200.00
01513             -20.00     4600.00
01514            -200.00     4800.00
01515              60.00     5200.00
01516             -60.00     4800.00
01517            -120.00     5400.00
01518              20.00     5400.00
01519            -200.00     5600.00
01520               0.00     6000.00
01521             -60.00     6000.00
01522            -160.00     6400.00
01523            -100.00     6200.00
01524            -100.00     6400.00
01525            -120.00     6600.00
01526            -260.00     6600.00
01527             -60.00     7200.00
01528            -100.00     6800.00
01529            -140.00     7000.00
01530            -120.00     7200.00
01531            -160.00     7600.00
01532            -200.00     7600.00
01533            -140.00     7600.00
01534            -120.00     7800.00
01535            -220.00     7600.00
01536            -180.00     8000.00
01537            -200.00     8000.00
01538            -200.00     8200.00
01539            -140.00     8200.00
01540            -140.00     8400.00
01541            -220.00     8400.00
01542            -220.00     8400.00
01543            -200.00     8600.00
01544            -220.00     8600.00
01545            -140.00     8800.00
01546            -200.00     9000.00
01547            -260.00     9000.00
01548            -220.00     9200.00
01549            -180.00     9200.00
01550            -220.00     9200.00
01551            -220.00     9200.00
01552            -180.00     9400.00
01553            -240.00     9400.00
01554            -220.00     9400.00
01555            -220.00     9600.00
01556            -240.00     9600.00
01557            -220.00     9600.00
01558            -220.00     9800.00
01559            -220.00     9600.00
01560            -260.00     9600.00
01561            -260.00     9600.00
01562            -260.00     9800.00
01563            -240.00     9600.00
01564            -220.00    10000.00
01565            -260.00    10000.00
01566            -280.00     9800.00
01567            -240.00     9800.00
01568            -280.00    10000.00
01569            -260.00    10000.00
01570            -220.00    10000.00
01571            -260.00     9800.00
01572            -260.00     9800.00
01573            -260.00     9800.00
01574            -260.00     9800.00
01575            -280.00     9800.00
01576            -280.00     9800.00
01577            -240.00     9600.00
01578            -260.00     9600.00
01579            -240.00     9600.00
01580            -280.00     9600.00
01581            -260.00     9600.00
01582            -260.00     9600.00
01583            -260.00     9600.00
01584            -260.00     9600.00
01585            -260.00     9400.00
01586            -260.00     9400.00
01587            -280.00     9400.00
01588            -280.00     9200.00
01589            -260.00     9200.00
01590            -260.00     9200.00
01591            -260.00     9200.00
01592            -240.00     9000.00
01593            -280.00     9000.00
01594            -260.00     8800.00
01595            -260.00     8600.00
01596            -260.00     8800.00
01597            -260.00     8600.00
01598            -260.00     8600.00
01599            -260.00     8400.00
01600            -260.00     8400.00
01601            -260.00     8200.00
01602            -260.00     8000.00
01603            -240.00     8000.00
01604            -220.00     7800.00
01605            -220.00     7800.00
01606            -260.00     7600.00
01607            -260.00     7600.00
01608            -240.00     7400.00
01609            -220.00     7200.00
01610            -220.00     7000.00
01611            -220.00     7000.00
01612            -220.00     7000.00
01613            -220.00     6800.00
01614            -220.00     6800.00
01615            -220.00     6600.00
01616            -200.00     6400.00
01617            -200.00     6400.00
01618            -200.00     6200.00
01619            -200.00     6000.00
01620            -200.00     5800.00
01621            -200.00     5600.00
01622            -200.00     5600.00
01623            -200.00     5400.00
01624            -180.00     5200.00
01625            -180.00     5200.00
01626            -180.00     4800.00
01627            -200.00     4600.00
01628            -160.00     4600.00
01629            -140.00     4400.00
01630            -140.00     4400.00
01631            -140.00     4000.00
01632            -140.00     3800.00
01633            -160.00     3800.00
01634            -140.00     3600.00
01635            -120.00     3400.00
01636            -140.00     3200.00
01637            -120.00     3000.00
01638            -120.00     2800.00
01639            -120.00     2800.00
01640            -120.00     2400.00
01641            -120.00     2400.00
01642            -100.00     2200.00
01643            -100.00     2000.00
01644             -80.00     1600.00
01645            -100.00     1600.00
01646            -100.00     1600.00
01647            -100.00     1200.00
01648             -80.00     1000.00
01649             -60.00      800.00
01650             -80.00      600.00
01651             -60.00      600.00
01652             -40.00      400.00
01653             -60.00      200.00
01654             -40.00        0.00
01655             -20.00     -400.00
01656              40.00     -400.00
01657              60.00     -600.00
01658              40.00     -800.00
01659              20.00    -1000.00
01660              20.00    -1000.00
01661              40.00    -1200.00
01662              60.00    -1400.00
01663             280.00    -1600.00
01664             780.00    -2000.00
01665             640.00    -2200.00
01666            -180.00    -2400.00
01667            -700.00    -2600.00
01668            -860.00    -2400.00
01669            -600.00    -2200.00
01670             520.00    -2800.00
01671             280.00    -3200.00
01672            -220.00    -2800.00
01673             340.00    -3600.00
01674              60.00    -3400.00
01675              40.00    -3400.00
01676             200.00    -4200.00
01677             -20.00    -3800.00
01678             280.00    -4200.00
01679             200.00    -4400.00
01680            -100.00    -4400.00
01681              40.00    -4400.00
01682              20.00    -4800.00
01683             140.00    -5200.00
01684             140.00    -4800.00
01685             100.00    -5200.00
01686              80.00    -5600.00
01687             120.00    -5400.00
01688             220.00    -6000.00
01689              60.00    -5800.00
01690             140.00    -6000.00
01691             160.00    -6200.00
01692             120.00    -6200.00
01693             180.00    -6400.00
01694             120.00    -6600.00
01695             100.00    -6800.00
01696             220.00    -6800.00
01697             180.00    -6800.00
01698             120.00    -7200.00
01699             180.00    -7200.00
01700             200.00    -7400.00
01701             180.00    -7400.00
01702             180.00    -7600.00
01703             180.00    -7800.00
01704             120.00    -8000.00
01705             200.00    -8000.00
01706             220.00    -8000.00
01707             180.00    -8200.00
01708             200.00    -8200.00
01709             200.00    -8200.00
01710             180.00    -8400.00
01711             200.00    -8400.00
01712             220.00    -8600.00
01713             220.00    -8600.00
01714             220.00    -8800.00
01715             200.00    -8800.00
01716             200.00    -8800.00
01717             220.00    -9000.00
01718             260.00    -9000.00
01719             260.00    -9200.00
01720             260.00    -9200.00
01721             220.00    -9200.00
01722             200.00    -9200.00
01723             220.00    -9400.00
01724             260.00    -9200.00
01725             220.00    -9600.00
01726             260.00    -9400.00
01727             260.00    -9600.00
01728             220.00    -9600.00
01729             220.00    -9400.00
01730             240.00    -9400.00
01731             240.00    -9600.00
01732             260.00    -9600.00
01733             260.00    -9800.00
01734             260.00    -9600.00
01735             240.00    -9800.00
01736             260.00    -9600.00
01737             260.00    -9600.00
01738             260.00    -9600.00
01739             260.00    -9800.00
01740             280.00    -9800.00
01741             260.00    -9600.00
01742             260.00    -9600.00
01743             260.00    -9600.00
01744             260.00    -9600.00
01745             280.00    -9600.00
01746             280.00    -9600.00
01747             260.00    -9600.00
01748             260.00    -9600.00
01749             260.00    -9400.00
01750             260.00    -9200.00
01751             260.00    -9200.00
01752             280.00    -9200.00
01753             260.00    -9200.00
01754             260.00    -9000.00
01755             260.00    -9000.00
01756             260.00    -8800.00
01757             260.00    -8800.00
01758             260.00    -9000.00
01759             260.00    -8800.00
01760             260.00    -8800.00
01761             260.00    -8800.00
01762             260.00    -8800.00
01763             260.00    -8400.00
01764             260.00    -8400.00
01765             280.00    -8400.00
01766             260.00    -8200.00
01767             260.00    -8000.00
01768             260.00    -8000.00
01769             260.00    -8000.00
01770             260.00    -8000.00
01771             260.00    -7800.00
01772             260.00    -7600.00
01773             260.00    -7600.00
01774             220.00    -7200.00
01775             220.00    -7200.00
01776             220.00    -7200.00
01777             220.00    -7000.00
01778             220.00    -6800.00
01779             240.00    -6600.00
01780             220.00    -6600.00
01781             220.00    -6400.00
01782             200.00    -6400.00
01783             200.00    -6000.00
01784             220.00    -6000.00
01785             200.00    -6000.00
01786             200.00    -5800.00
01787             200.00    -5800.00
01788             180.00    -5600.00
01789             200.00    -5400.00
01790             200.00    -5200.00
01791             200.00    -5000.00
01792             180.00    -4800.00
01793             180.00    -4800.00
01794             180.00    -4600.00
01795             160.00    -4400.00
01796             140.00    -4200.00
01797             160.00    -4000.00
01798             140.00    -3800.00
01799             160.00    -3600.00
01800             140.00    -3600.00
01801             140.00    -3400.00
01802             120.00    -3200.00
01803             140.00    -3000.00
01804             140.00    -3000.00
01805             120.00    -2600.00
01806             120.00    -2600.00
01807             120.00    -2400.00
01808             100.00    -2200.00
01809             100.00    -2000.00
01810             100.00    -1800.00
01811             100.00    -1600.00
01812             100.00    -1400.00
01813             100.00    -1200.00
01814             100.00    -1000.00
01815              60.00    -1000.00
01816              80.00     -600.00
01817             100.00     -400.00
01818              60.00     -400.00
01819              80.00        0.00
01820              40.00        0.00
01821              60.00      200.00
01822              60.00      400.00
01823             120.00      400.00
01824             180.00      800.00
01825             140.00      800.00
01826             120.00     1200.00
01827             100.00     1200.00
01828             100.00     1400.00
01829             140.00     1400.00
01830             580.00     1800.00
01831            1020.00     2200.00
01832             380.00     2200.00
01833            -660.00     2400.00
01834           -1160.00     2200.00
01835           -1000.00     2800.00
01836             500.00     3200.00
01837             600.00     3000.00
01838            -460.00     3200.00
01839             260.00     3200.00
01840             140.00     3400.00
01841            -380.00     4200.00
01842             140.00     3400.00
01843             -20.00     4000.00
01844             120.00     4600.00
01845             100.00     3800.00
01846            -280.00     4800.00
01847             -40.00     4800.00
01848            -180.00     4600.00
01849             -40.00     5400.00
01850              40.00     5000.00
01851            -200.00     5200.00
01852              40.00     5600.00
01853            -200.00     5400.00
01854             -60.00     6000.00
01855             -20.00     5600.00
01856            -180.00     6400.00
01857            -100.00     6200.00
01858            -100.00     6400.00
01859             -60.00     6800.00
01860            -240.00     6400.00
01861            -120.00     6800.00
01862             -60.00     6800.00
01863            -140.00     7000.00
01864            -120.00     7200.00
01865            -140.00     7200.00
01866            -180.00     7600.00
01867            -180.00     7600.00
01868            -100.00     7800.00
01869            -200.00     7600.00
01870            -200.00     7800.00
01871            -160.00     8400.00
01872            -220.00     8000.00
01873            -140.00     8400.00
01874            -140.00     8400.00
01875            -200.00     8600.00
01876            -220.00     8400.00
01877            -180.00     8800.00
01878            -200.00     8800.00
01879            -180.00     8800.00
01880            -180.00     9000.00
01881            -240.00     8800.00
01882            -260.00     9200.00
01883            -200.00     9200.00
01884            -200.00     9200.00
01885            -220.00     9400.00
01886            -200.00     9400.00
01887            -220.00     9400.00
01888            -260.00     9400.00
01889            -220.00     9600.00
01890            -260.00     9600.00
01891            -240.00     9600.00
01892            -220.00     9600.00
01893            -200.00     9600.00
01894            -260.00     9600.00
01895            -260.00     9600.00
01896            -260.00     9600.00
01897            -260.00     9800.00
01898            -220.00     9800.00
01899            -220.00    10000.00
01900            -280.00     9800.00
01901            -260.00    10000.00
01902            -260.00     9800.00
01903            -260.00    10000.00
01904            -260.00    10000.00
01905            -240.00    10000.00
01906            -260.00     9800.00
01907            -260.00    10000.00
01908            -260.00     9800.00
01909            -280.00     9800.00
01910            -280.00     9600.00
01911            -240.00     9800.00
01912            -260.00     9800.00
01913            -280.00     9600.00
01914            -260.00     9600.00
01915            -280.00     9600.00
01916            -280.00     9600.00
01917            -260.00     9600.00
01918            -280.00     9400.00
01919            -280.00     9400.00
01920            -260.00     9400.00
01921            -260.00     9400.00
01922            -280.00     9400.00
01923            -260.00     9200.00
01924            -280.00     9200.00
01925            -260.00     9200.00
01926            -220.00     9200.00
01927            -280.00     9000.00
01928            -280.00     8800.00
01929            -260.00     8800.00
01930            -260.00     8600.00
01931            -260.00     8600.00
01932            -260.00     8600.00
01933            -260.00     8400.00
01934            -260.00     8400.00
01935            -240.00     8200.00
01936            -260.00     8000.00
01937            -260.00     8000.00
01938            -220.00     7800.00
01939            -220.00     8000.00
01940            -260.00     7600.00
01941            -240.00     7600.00
01942            -240.00     7400.00
01943            -220.00     7400.00
01944            -220.00     7200.00
01945            -220.00     7200.00
01946            -220.00     7000.00
01947            -220.00     6800.00
01948            -220.00     6800.00
01949            -220.00     6800.00
01950            -220.00     6400.00
01951            -200.00     6200.00
01952            -200.00     6200.00
01953            -200.00     6000.00
01954            -180.00     5800.00
01955            -200.00     5600.00
01956            -200.00     5600.00
01957            -180.00     5400.00
01958            -180.00     5400.00
01959            -180.00     5200.00
01960            -180.00     4800.00
01961            -180.00     4800.00
01962            -180.00     4600.00
01963            -180.00     4400.00
01964            -140.00     4400.00
01965            -140.00     4000.00
01966            -140.00     4000.00
01967            -140.00     3800.00
01968            -140.00     3600.00
01969            -140.00     3400.00
01970            -120.00     3200.00
01971            -120.00     3000.00
01972            -120.00     2800.00
01973            -120.00     2800.00
01974            -120.00     2400.00
01975            -120.00     2400.00
01976            -120.00     2200.00
01977             -80.00     2000.00
01978            -100.00     1800.00
01979            -100.00     1600.00
01980            -100.00     1400.00
01981             -80.00     1200.00
01982            -100.00     1000.00
01983             -80.00      800.00
01984            -100.00      800.00
01985             -60.00      600.00
01986             -60.00      400.00
01987             -40.00      200.00
01988             -60.00        0.00
01989             -40.00     -200.00
01990              20.00     -200.00
01991              80.00     -600.00
01992              60.00     -800.00
01993              40.00    -1000.00
01994              20.00    -1000.00
01995              40.00    -1200.00
01996              40.00    -1200.00
01997             200.00    -1400.00
01998             660.00    -1800.00
01999             780.00    -2000.00
02000              60.00    -2400.00
02001            -620.00    -2400.00
02002            -820.00    -2400.00
02003            -760.00    -2200.00
02004             260.00    -2600.00
02005             500.00    -3200.00
02006            -220.00    -2800.00
02007             220.00    -3400.00
02008             220.00    -3600.00
02009             -60.00    -3200.00
02010             260.00    -4000.00
02011               0.00    -3800.00
02012             200.00    -4000.00
02013             280.00    -4400.00
02014             -60.00    -4400.00
02015              20.00    -4800.00
02016              20.00    -4800.00
02017             100.00    -5000.00
02018             180.00    -5200.00
02019             100.00    -5000.00
02020             100.00    -5600.00
02021              60.00    -5400.00
02022             220.00    -5800.00
02023             120.00    -6000.00
02024             100.00    -5800.00
02025             200.00    -6200.00
02026             100.00    -6400.00
02027             180.00    -6400.00
02028             140.00    -6600.00
02029             100.00    -6800.00
02030             200.00    -6800.00
02031             200.00    -6800.00
02032             140.00    -7200.00
02033             140.00    -7200.00
02034             220.00    -7400.00
02035             180.00    -7400.00
02036             200.00    -7600.00
02037             200.00    -7600.00
02038             140.00    -7600.00
02039             180.00    -7600.00
02040             220.00    -8000.00
02041             200.00    -8000.00
02042             200.00    -8200.00
02043             200.00    -8200.00
02044             180.00    -8400.00
02045             200.00    -8400.00
02046             220.00    -8400.00
02047             200.00    -8600.00
02048             220.00    -8800.00
02049             200.00    -8800.00
02050             180.00    -9000.00
02051             200.00    -8800.00
02052             240.00    -9000.00
02053             260.00    -9000.00
02054             260.00    -9200.00
02055             220.00    -9200.00
02056             200.00    -9200.00
02057             220.00    -9200.00
02058             240.00    -9200.00
02059             240.00    -9200.00
02060             260.00    -9400.00
02061             260.00    -9600.00
02062             260.00    -9600.00
02063             220.00    -9400.00
02064             240.00    -9600.00
02065             260.00    -9400.00
02066             260.00    -9600.00
02067             260.00    -9600.00
02068             260.00    -9600.00
02069             240.00    -9600.00
02070             260.00    -9800.00
02071             260.00    -9600.00
02072             280.00    -9800.00
02073             280.00    -9600.00
02074             280.00    -9800.00
02075             260.00    -9600.00
02076             260.00    -9600.00
02077             260.00    -9600.00
02078             260.00    -9400.00
02079             280.00    -9600.00
02080             280.00    -9400.00
02081             260.00    -9600.00
02082             260.00    -9400.00
02083             280.00    -9400.00
02084             260.00    -9200.00
02085             260.00    -9200.00
02086             280.00    -9200.00
02087             260.00    -9200.00
02088             280.00    -9200.00
02089             280.00    -9000.00
02090             260.00    -9000.00
02091             260.00    -9000.00
02092             260.00    -8800.00
02093             280.00    -8800.00
02094             260.00    -8800.00
02095             260.00    -8800.00
02096             260.00    -8600.00
02097             260.00    -8400.00
02098             260.00    -8400.00
02099             260.00    -8200.00
02100             260.00    -8200.00
02101             260.00    -8000.00
02102             240.00    -8000.00
02103             260.00    -8000.00
02104             260.00    -7800.00
02105             260.00    -7600.00
02106             260.00    -7600.00
02107             260.00    -7400.00
02108             220.00    -7400.00
02109             220.00    -7400.00
02110             220.00    -7200.00
02111             220.00    -7200.00
02112             220.00    -6800.00
02113             220.00    -6800.00
02114             220.00    -6800.00
02115             220.00    -6600.00
02116             220.00    -6400.00
02117             200.00    -6400.00
02118             200.00    -6200.00
02119             200.00    -6000.00
02120             200.00    -5800.00
02121             200.00    -5800.00
02122             200.00    -5600.00
02123             180.00    -5400.00
02124             180.00    -5200.00
02125             200.00    -5000.00
02126             200.00    -5000.00
02127             180.00    -4800.00
02128             180.00    -4600.00
02129             140.00    -4400.00
02130             180.00    -4200.00
02131             160.00    -4000.00
02132             140.00    -3800.00
02133             180.00    -3800.00
02134             140.00    -3600.00
02135             140.00    -3400.00
02136             120.00    -3400.00
02137             120.00    -3000.00
02138             140.00    -2800.00
02139             140.00    -2800.00
02140             140.00    -2600.00
02141             120.00    -2400.00
02142             120.00    -2200.00
02143             120.00    -2000.00
02144             100.00    -1800.00
02145             100.00    -1600.00
02146             100.00    -1600.00
02147             100.00    -1200.00
02148             100.00    -1200.00
02149              60.00    -1000.00
02150              80.00     -800.00
02151              60.00     -600.00
02152             100.00     -400.00
02153              60.00     -200.00
02154              80.00        0.00
02155              60.00      200.00
02156              60.00      400.00
02157             100.00      600.00
02158             140.00      600.00
02159             140.00      800.00
02160             140.00      800.00
02161             100.00     1200.00
02162             100.00     1400.00
02163             120.00     1400.00
02164             420.00     1600.00
02165            1020.00     2200.00
02166             640.00     2000.00
02167            -420.00     2200.00
02168           -1080.00     2400.00
02169           -1180.00     2600.00
02170             100.00     3200.00
02171             840.00     2800.00
02172            -340.00     3200.00
02173              20.00     3200.00
02174             340.00     3200.00
02175            -400.00     4000.00
02176              20.00     3600.00
02177              60.00     3800.00
02178              20.00     4600.00
02179             200.00     3800.00
02180            -260.00     4400.00
02181            -100.00     5000.00
02182            -120.00     4400.00
02183            -120.00     5200.00
02184             100.00     5200.00
02185            -200.00     5200.00
02186             -20.00     5600.00
02187            -120.00     5400.00
02188            -140.00     6000.00
02189              20.00     5600.00
02190            -180.00     6200.00
02191            -100.00     6200.00
02192            -120.00     6200.00
02193             -60.00     7000.00
02194            -200.00     6400.00
02195            -180.00     6800.00
02196             -40.00     7000.00
02197            -140.00     6800.00
02198            -120.00     7200.00
02199            -120.00     7200.00
02200            -180.00     7600.00
02201            -200.00     7600.00
02202            -100.00     7800.00
02203            -160.00     7600.00
02204            -200.00     7800.00
02205            -140.00     8000.00
02206            -220.00     8000.00
02207            -140.00     8400.00
02208            -120.00     8400.00
02209            -180.00     8400.00
02210            -220.00     8400.00
02211            -200.00     8600.00
02212            -200.00     8600.00
02213            -200.00     8800.00
02214            -140.00     9000.00
02215            -220.00     8800.00
02216            -280.00     9200.00
02217            -200.00     9200.00
02218            -180.00     9200.00
02219            -220.00     9200.00
02220            -200.00     9400.00
02221            -220.00     9400.00
02222            -280.00     9200.00
02223            -220.00     9400.00
02224            -220.00     9600.00
02225            -260.00     9600.00
02226            -220.00     9600.00
02227            -200.00     9600.00
02228            -260.00     9600.00
02229            -260.00     9600.00
02230            -240.00     9800.00
02231            -260.00     9800.00
02232            -220.00     9800.00
02233            -220.00    10000.00
02234            -280.00     9800.00
02235            -260.00     9800.00
02236            -260.00    10000.00
02237            -260.00    10000.00
02238            -260.00     9800.00
02239            -260.00    10000.00
02240            -260.00     9800.00
02241            -280.00     9800.00
02242            -260.00     9800.00
02243            -280.00     9600.00
02244            -280.00     9800.00
02245            -260.00     9600.00
02246            -260.00     9600.00
02247            -260.00     9800.00
02248            -260.00     9600.00
02249            -280.00     9600.00
02250            -280.00     9600.00
02251            -280.00     9600.00
02252            -260.00     9600.00
02253            -280.00     9600.00
02254            -260.00     9400.00
02255            -260.00     9200.00
02256            -280.00     9200.00
02257            -260.00     9400.00
02258            -260.00     9200.00
02259            -260.00     9200.00
02260            -240.00     8800.00
02261            -260.00     9000.00
02262            -280.00     8800.00
02263            -280.00     8800.00
02264            -260.00     8800.00
02265            -260.00     8800.00
02266            -260.00     8600.00
02267            -260.00     8600.00
02268            -260.00     8400.00
02269            -260.00     8400.00
02270            -240.00     8200.00
02271            -240.00     8000.00
02272            -220.00     8000.00
02273            -220.00     7600.00
02274            -220.00     7800.00
02275            -240.00     7600.00
02276            -240.00     7600.00
02277            -220.00     7400.00
02278            -220.00     7200.00
02279            -220.00     7200.00
02280            -220.00     7000.00
02281            -220.00     6800.00
02282            -220.00     6800.00
02283            -220.00     6600.00
02284            -220.00     6600.00
02285            -220.00     6400.00
02286            -200.00     6200.00
02287            -200.00     6000.00
02288            -200.00     5800.00
02289            -200.00     5600.00
02290            -200.00     5600.00
02291            -200.00     5400.00
02292            -180.00     5400.00
02293            -180.00     5200.00
02294            -200.00     5000.00
02295            -180.00     4800.00
02296            -180.00     4600.00
02297            -180.00     4400.00
02298            -140.00     4200.00
02299            -180.00     4200.00
02300            -140.00     4000.00
02301            -140.00     3800.00
02302            -140.00     3800.00
02303            -120.00     3400.00
02304            -140.00     3000.00
02305            -120.00     3200.00
02306            -120.00     3000.00
02307            -140.00     2800.00
02308            -120.00     2800.00
02309            -120.00     2400.00
02310            -120.00     2200.00
02311            -120.00     2000.00
02312            -120.00     1800.00
02313            -100.00     1600.00
02314             -80.00     1400.00
02315            -100.00     1400.00
02316            -100.00     1200.00
02317            -100.00     1000.00
02318             -80.00      800.00
02319             -60.00      600.00
02320             -40.00      400.00
02321             -60.00      200.00
02322             -40.00        0.00
02323             -40.00     -200.00
02324              20.00     -400.00
02325             100.00     -400.00
02326              60.00     -600.00
02327              40.00     -800.00
02328              20.00    -1000.00
02329              40.00    -1000.00
02330              40.00    -1200.00
02331             140.00    -1600.00
02332             520.00    -1600.00
02333             840.00    -2000.00
02334             300.00    -2200.00
02335            -500.00    -2400.00
02336            -760.00    -2400.00
02337            -860.00    -2400.00
02338             -60.00    -2400.00
02339             660.00    -3200.00
02340            -120.00    -2800.00
02341              40.00    -3200.00
02342             340.00    -3600.00
02343             -80.00    -3200.00
02344             220.00    -3800.00
02345              60.00    -4000.00
02346             100.00    -3600.00
02347             340.00    -4400.00
02348              20.00    -4400.00
02349             -20.00    -4600.00
02350              40.00    -4400.00
02351              60.00    -4800.00
02352             180.00    -5000.00
02353             120.00    -5000.00
02354              80.00    -5600.00
02355              60.00    -5600.00
02356             200.00    -5600.00
02357             160.00    -5800.00
02358              60.00    -5800.00
02359             200.00    -6200.00
02360             120.00    -6200.00
02361             140.00    -6400.00
02362             160.00    -6400.00
02363             100.00    -6400.00
02364             180.00    -7000.00
02365             220.00    -6800.00
02366             180.00    -7200.00
02367             120.00    -7200.00
02368             200.00    -7200.00
02369             180.00    -7600.00
02370             180.00    -7600.00
02371             200.00    -7600.00
02372             140.00    -7800.00
02373             140.00    -8000.00
02374             200.00    -8000.00
02375             200.00    -8200.00
02376             180.00    -8200.00
02377             220.00    -8400.00
02378             180.00    -8400.00
02379             180.00    -8400.00
02380             220.00    -8600.00
02381             200.00    -8600.00
02382             220.00    -8800.00
02383             200.00    -8800.00
02384             180.00    -8800.00
02385             200.00    -9000.00
02386             240.00    -8800.00
02387             260.00    -9000.00
02388             220.00    -9200.00
02389             220.00    -9200.00
02390             200.00    -9400.00
02391             200.00    -9200.00
02392             260.00    -9200.00
02393             240.00    -9200.00
02394             260.00    -9400.00
02395             260.00    -9600.00
02396             240.00    -9600.00
02397             220.00    -9600.00
02398             240.00    -9400.00
02399             260.00    -9600.00
02400             260.00    -9600.00
02401             260.00    -9600.00
02402             260.00    -9600.00
02403             260.00    -9600.00
02404             260.00    -9600.00
02405             260.00    -9800.00
02406             260.00    -9600.00
02407             280.00    -9600.00
02408             280.00    -9600.00
02409             260.00    -9600.00
02410             260.00    -9600.00
02411             260.00    -9600.00
02412             260.00    -9600.00
02413             280.00    -9600.00
02414             280.00    -9400.00
02415             280.00    -9600.00
02416             260.00    -9400.00
02417             260.00    -9400.00
02418             280.00    -9200.00
02419             260.00    -9200.00
02420             280.00    -9200.00
02421             280.00    -9000.00
02422             280.00    -9200.00
02423             260.00    -9000.00
02424             260.00    -9000.00
02425             260.00    -8800.00
02426             260.00    -8800.00
02427             280.00    -8800.00
02428             260.00    -8800.00
02429             260.00    -8800.00
02430             260.00    -8600.00
02431             260.00    -8400.00
02432             260.00    -8400.00
02433             260.00    -8400.00
02434             260.00    -8200.00
02435             260.00    -8200.00
02436             260.00    -8000.00
02437             260.00    -8000.00
02438             260.00    -8000.00
02439             240.00    -7800.00
02440             260.00    -7800.00
02441             240.00    -7600.00
02442             240.00    -7400.00
02443             220.00    -7400.00
02444             220.00    -7400.00
02445             220.00    -7200.00
02446             220.00    -6800.00
02447             220.00    -6800.00
02448             220.00    -6600.00
02449             200.00    -6600.00
02450             200.00    -6400.00
02451             200.00    -6200.00
02452             200.00    -6200.00
02453             200.00    -6000.00
02454             200.00    -6000.00
02455             200.00    -5800.00
02456             200.00    -5600.00
02457             180.00    -5600.00
02458             200.00    -5200.00
02459             180.00    -5000.00
02460             180.00    -5000.00
02461             180.00    -4800.00
02462             180.00    -4600.00
02463             160.00    -4400.00
02464             180.00    -4200.00
02465             180.00    -4200.00
02466             180.00    -3800.00
02467             160.00    -3800.00
02468             160.00    -3600.00
02469             140.00    -3600.00
02470             140.00    -3200.00
02471             120.00    -3200.00
02472             120.00    -2800.00
02473             120.00    -2800.00
02474             120.00    -2800.00
02475             120.00    -2400.00
02476             120.00    -2400.00
02477             120.00    -2000.00
02478             120.00    -2000.00
02479             120.00    -1600.00
02480             100.00    -1600.00
02481             100.00    -1200.00
02482             100.00    -1200.00
02483             100.00    -1000.00
02484              60.00     -800.00
02485             100.00     -800.00
02486              80.00     -400.00
02487              80.00     -400.00
02488              80.00        0.00
02489              60.00        0.00
02490              60.00      200.00
02491             100.00      600.00
02492             180.00      400.00
02493             160.00      800.00
02494             140.00      800.00
02495             120.00     1200.00
02496             100.00     1200.00
02497             100.00     1400.00
02498             260.00     1600.00
02499             900.00     2000.00
02500             860.00     2200.00
02501            -140.00     2000.00
02502            -940.00     2200.00
02503           -1260.00     2600.00
02504            -380.00     3000.00
02505             900.00     3000.00
02506             -60.00     2800.00
02507            -280.00     3200.00
02508             420.00     3200.00
02509            -280.00     4000.00
02510            -180.00     4000.00
02511             160.00     3600.00
02512             -60.00     4400.00
02513             220.00     4000.00
02514            -160.00     4000.00
02515            -200.00     5200.00
02516             -40.00     4400.00
02517            -200.00     5000.00
02518             100.00     5200.00
02519            -120.00     4800.00
02520             -60.00     5600.00
02521             -40.00     5400.00
02522            -200.00     5600.00
02523              40.00     5800.00
02524            -120.00     6000.00
02525            -120.00     6400.00
02526            -100.00     6000.00
02527             -60.00     6600.00
02528            -120.00     6400.00
02529            -220.00     6800.00
02530             -40.00     7200.00
02531            -100.00     6800.00
02532            -120.00     7200.00
02533            -120.00     7200.00
02534            -160.00     7600.00
02535            -200.00     7400.00
02536            -120.00     7600.00
02537            -140.00     7800.00
02538            -200.00     7800.00
02539            -160.00     8000.00
02540            -200.00     8000.00
02541            -180.00     8000.00
02542            -120.00     8400.00
02543            -160.00     8400.00
02544            -220.00     8400.00
02545            -200.00     8600.00
02546            -180.00     8800.00
02547            -220.00     8600.00
02548            -140.00     9000.00
02549            -200.00     9000.00
02550            -260.00     8800.00
02551            -220.00     9200.00
02552            -180.00     9200.00
02553            -200.00     9200.00
02554            -200.00     9400.00
02555            -200.00     9400.00
02556            -260.00     9400.00
02557            -220.00     9400.00
02558            -220.00     9600.00
02559            -220.00     9600.00
02560            -220.00     9400.00
02561            -200.00     9800.00
02562            -220.00     9600.00
02563            -260.00     9800.00
02564            -240.00     9800.00
02565            -280.00     9600.00
02566            -220.00     9800.00
02567            -220.00    10000.00
02568            -280.00    10000.00
02569            -260.00    10000.00
02570            -260.00    10000.00
02571            -280.00    10000.00
02572            -280.00     9800.00
02573            -260.00    10000.00
02574            -260.00     9800.00
02575            -280.00     9800.00
02576            -260.00    10000.00
02577            -260.00     9800.00
02578            -280.00     9800.00
02579            -260.00     9800.00
02580            -260.00    10000.00
02581            -280.00     9600.00
02582            -260.00     9600.00
02583            -280.00     9600.00
02584            -280.00     9600.00
02585            -280.00     9400.00
02586            -260.00     9600.00
02587            -260.00     9400.00
02588            -260.00     9400.00
02589            -260.00     9400.00
02590            -280.00     9400.00
02591            -280.00     9400.00
02592            -260.00     9200.00
02593            -260.00     9200.00
02594            -260.00     9200.00
02595            -260.00     9200.00
02596            -260.00     8800.00
02597            -260.00     8800.00
02598            -260.00     8800.00
02599            -260.00     8600.00
02600            -220.00     8600.00
02601            -260.00     8600.00
02602            -260.00     8400.00
02603            -260.00     8400.00
02604            -240.00     8200.00
02605            -260.00     8000.00
02606            -260.00     8000.00
02607            -220.00     7800.00
02608            -220.00     7800.00
02609            -220.00     7600.00
02610            -220.00     7600.00
02611            -220.00     7400.00
02612            -200.00     7200.00
02613            -220.00     7200.00
02614            -200.00     7000.00
02615            -220.00     7000.00
02616            -220.00     6800.00
02617            -220.00     6800.00
02618            -220.00     6600.00
02619            -220.00     6400.00
02620            -200.00     6400.00
02621            -200.00     6200.00
02622            -200.00     6000.00
02623            -200.00     5800.00
02624            -220.00     5600.00
02625            -200.00     5600.00
02626            -200.00     5400.00
02627            -200.00     5200.00
02628            -180.00     5000.00
02629            -180.00     4800.00
02630            -180.00     4600.00
02631            -180.00     4600.00
02632            -140.00     4400.00
02633            -180.00     4200.00
02634            -140.00     4000.00
02635            -140.00     4000.00
02636            -160.00     3800.00
02637            -140.00     3600.00
02638            -140.00     3600.00
02639            -140.00     3000.00
02640            -120.00     2800.00
02641            -120.00     2800.00
02642            -120.00     2800.00
02643            -140.00     2400.00
02644            -120.00     2200.00
02645            -120.00     2000.00
02646            -120.00     2000.00
02647            -100.00     2000.00
02648            -100.00     1600.00
02649            -100.00     1400.00
02650            -100.00     1200.00
02651            -100.00      800.00
02652             -60.00      800.00
02653             -60.00      600.00
02654             -60.00      400.00
02655             -60.00      400.00
02656             -60.00        0.00
02657             -40.00        0.00
02658             -20.00     -200.00
02659              60.00     -400.00
02660             100.00     -400.00
02661              60.00     -800.00
02662              40.00     -800.00
02663              40.00    -1000.00
02664              40.00    -1200.00
02665             100.00    -1200.00
02666             360.00    -1600.00
02667             840.00    -1800.00
02668             520.00    -2200.00
02669            -300.00    -2200.00
02670            -740.00    -2400.00
02671            -860.00    -2400.00
02672            -380.00    -2400.00
02673             620.00    -2800.00
02674             100.00    -3000.00
02675            -120.00    -2800.00
02676             380.00    -3600.00
02677             -20.00    -3200.00
02678             120.00    -3400.00
02679             180.00    -4000.00
02680              20.00    -3600.00
02681             340.00    -4200.00
02682             100.00    -4200.00
02683             -60.00    -4600.00
02684              60.00    -4600.00
02685              40.00    -4800.00
02686             160.00    -5200.00
02687             140.00    -5000.00
02688             100.00    -5400.00
02689              40.00    -5600.00
02690             180.00    -5600.00
02691             200.00    -6000.00
02692              60.00    -5800.00
02693             180.00    -6000.00
02694             160.00    -6400.00
02695             120.00    -6200.00
02696             180.00    -6600.00
02697             100.00    -6600.00
02698             120.00    -6800.00
02699             220.00    -6800.00
02700             180.00    -7000.00
02701             120.00    -7200.00
02702             180.00    -7200.00
02703             180.00    -7400.00
02704             180.00    -7600.00
02705             200.00    -7600.00
02706             180.00    -7800.00
02707             140.00    -7800.00
02708             200.00    -8000.00
02709             200.00    -8200.00
02710             180.00    -8400.00
02711             220.00    -8200.00
02712             200.00    -8400.00
02713             180.00    -8400.00
02714             220.00    -8400.00
02715             220.00    -8600.00
02716             220.00    -8800.00
02717             220.00    -8800.00
02718             200.00    -8800.00
02719             200.00    -9000.00
02720             220.00    -8800.00
02721             260.00    -9000.00
02722             220.00    -9200.00
02723             260.00    -9200.00
02724             220.00    -9200.00
02725             200.00    -9400.00
02726             260.00    -9200.00
02727             260.00    -9400.00
02728             260.00    -9400.00
02729             260.00    -9600.00
02730             260.00    -9400.00
02731             240.00    -9400.00
02732             240.00    -9600.00
02733             260.00    -9600.00
02734             260.00    -9600.00
02735             260.00    -9600.00
02736             280.00    -9600.00
02737             260.00    -9600.00
02738             260.00    -9600.00
02739             260.00    -9600.00
02740             260.00    -9600.00
02741             280.00    -9800.00
02742             280.00    -9600.00
02743             280.00    -9600.00
02744             260.00    -9600.00
02745             260.00    -9600.00
02746             260.00    -9600.00
02747             260.00    -9600.00
02748             280.00    -9600.00
02749             280.00    -9400.00
02750             280.00    -9400.00
02751             260.00    -9200.00
02752             260.00    -9400.00
02753             260.00    -9400.00
02754             260.00    -9200.00
02755             280.00    -9200.00
02756             280.00    -9200.00
02757             260.00    -9200.00
02758             260.00    -9000.00
02759             260.00    -9000.00
02760             260.00    -9000.00
02761             280.00    -8800.00
02762             280.00    -8800.00
02763             260.00    -8800.00
02764             260.00    -8800.00
02765             260.00    -8800.00
02766             260.00    -8400.00
02767             260.00    -8400.00
02768             260.00    -8200.00
02769             260.00    -8200.00
02770             260.00    -8000.00
02771             240.00    -8000.00
02772             220.00    -8000.00
02773             240.00    -7600.00
02774             240.00    -7800.00
02775             260.00    -7600.00
02776             220.00    -7600.00
02777             240.00    -7400.00
02778             220.00    -7200.00
02779             220.00    -7200.00
02780             220.00    -7000.00
02781             220.00    -7000.00
02782             220.00    -6600.00
02783             220.00    -6600.00
02784             200.00    -6400.00
02785             200.00    -6400.00
02786             200.00    -6200.00
02787             200.00    -6000.00
02788             200.00    -6000.00
02789             200.00    -5600.00
02790             200.00    -5600.00
02791             180.00    -5600.00
02792             200.00    -5200.00
02793             200.00    -5200.00
02794             180.00    -5000.00
02795             180.00    -4800.00
02796             180.00    -4800.00
02797             180.00    -4400.00
02798             160.00    -4400.00
02799             180.00    -4200.00
02800             160.00    -3800.00
02801             180.00    -3800.00
02802             180.00    -3600.00
02803             140.00    -3400.00
02804             140.00    -3400.00
02805             140.00    -3000.00
02806             140.00    -3000.00
02807             140.00    -2800.00
02808             120.00    -2600.00
02809             140.00    -2400.00
02810             120.00    -2400.00
02811             100.00    -2000.00
02812             120.00    -2000.00
02813             120.00    -1600.00
02814             100.00    -1600.00
02815             100.00    -1200.00
02816             100.00    -1200.00
02817             100.00    -1000.00
02818              80.00    -1000.00
02819              60.00     -800.00
02820              80.00     -400.00
02821              60.00     -200.00
02822             100.00     -200.00
02823             100.00        0.00
02824              60.00      400.00
02825              60.00      400.00
02826             140.00      600.00
02827             160.00      800.00
02828             140.00     1000.00
02829             100.00     1200.00
02830             100.00     1400.00
02831             100.00     1400.00
02832             180.00     1400.00
02833             700.00     2000.00
02834             980.00     2000.00
02835             180.00     2200.00
02836            -820.00     2200.00
02837           -1220.00     2400.00
02838            -780.00     2800.00
02839             760.00     3000.00
02840             340.00     2800.00
02841            -440.00     3200.00
02842             360.00     3200.00
02843             -60.00     3600.00
02844            -300.00     4000.00
02845             180.00     3600.00
02846             -60.00     4400.00
02847             180.00     4400.00
02848             -20.00     3800.00
02849            -260.00     5000.00
02850               0.00     4600.00
02851            -200.00     4600.00
02852              40.00     5400.00
02853             -40.00     4800.00
02854            -140.00     5400.00
02855              20.00     5600.00
02856            -220.00     5600.00
02857             -20.00     6000.00
02858             -60.00     5800.00
02859            -140.00     6400.00
02860            -100.00     6000.00
02861            -100.00     6400.00
02862            -100.00     6600.00
02863            -260.00     6400.00
02864             -60.00     7200.00
02865             -60.00     6800.00
02866            -140.00     7000.00
02867            -120.00     7200.00
02868            -140.00     7200.00
02869            -180.00     7600.00
02870            -140.00     7600.00
02871            -100.00     7800.00
02872            -200.00     7600.00
02873            -160.00     8000.00
02874            -200.00     8000.00
02875            -200.00     8000.00
02876            -120.00     8400.00
02877            -140.00     8400.00
02878            -220.00     8600.00
02879            -220.00     8600.00
02880            -180.00     9000.00
02881            -220.00     8800.00
02882            -160.00     9000.00
02883            -180.00     9000.00
02884            -260.00     9000.00
02885            -220.00     9200.00
02886            -200.00     9200.00
02887            -220.00     9200.00
02888            -200.00     9200.00
02889            -200.00     9400.00
02890            -260.00     9400.00
02891            -240.00     9400.00
02892            -220.00     9600.00
02893            -260.00     9400.00
02894            -260.00     9400.00
02895            -220.00     9800.00
02896            -220.00     9600.00
02897            -260.00     9600.00
02898            -260.00     9600.00
02899            -260.00     9600.00
02900            -260.00     9800.00
02901            -220.00    10000.00
02902            -260.00     9800.00
02903            -280.00    10000.00
02904            -260.00     9800.00
02905            -260.00    10000.00
02906            -280.00     9600.00
02907            -260.00    10000.00
02908            -260.00     9800.00
02909            -280.00    10000.00
02910            -260.00    10000.00
02911            -260.00     9600.00
02912            -280.00     9800.00
02913            -280.00     9800.00
02914            -260.00     9600.00
02915            -260.00     9600.00
02916            -280.00     9600.00
02917            -280.00     9800.00
02918            -280.00     9600.00
02919            -280.00     9600.00
02920            -260.00     9600.00
02921            -260.00     9400.00
02922            -260.00     9600.00
02923            -260.00     9400.00
02924            -280.00     9600.00
02925            -280.00     9400.00
02926            -260.00     9200.00
02927            -260.00     9200.00
02928            -260.00     9400.00
02929            -260.00     9200.00
02930            -260.00     9000.00
02931            -260.00     9000.00
02932            -260.00     8800.00
02933            -260.00     8800.00
02934            -260.00     8600.00
02935            -260.00     8600.00
02936            -240.00     8400.00
02937            -260.00     8400.00
02938            -260.00     8000.00
02939            -240.00     8400.00
02940            -260.00     8000.00
02941            -220.00     7800.00
02942            -220.00     7800.00
02943            -220.00     7800.00
02944            -240.00     7600.00
02945            -240.00     7600.00
02946            -220.00     7200.00
02947            -220.00     7200.00
02948            -220.00     7000.00
02949            -200.00     6800.00
02950            -220.00     6800.00
02951            -220.00     6800.00
02952            -220.00     6600.00
02953            -200.00     6400.00
02954            -200.00     6200.00
02955            -220.00     6200.00
02956            -200.00     6000.00
02957            -220.00     5800.00
02958            -200.00     5600.00
02959            -200.00     5600.00
02960            -200.00     5400.00
02961            -180.00     5200.00
02962            -180.00     5200.00
02963            -200.00     4800.00
02964            -200.00     4600.00
02965            -180.00     4600.00
02966            -180.00     4400.00
02967            -180.00     4400.00
02968            -140.00     4000.00
02969            -140.00     3800.00
02970            -140.00     3800.00
02971            -160.00     3600.00
02972            -140.00     3600.00
02973            -140.00     3200.00
02974            -120.00     3000.00
02975            -140.00     2800.00
02976            -120.00     2600.00
02977            -140.00     2800.00
02978            -120.00     2400.00
02979            -120.00     2200.00
02980            -100.00     2000.00
02981            -100.00     1800.00
02982            -100.00     1600.00
02983            -100.00     1400.00
02984            -100.00     1200.00
02985            -100.00      800.00
02986             -60.00      800.00
02987             -60.00      600.00
02988             -60.00      600.00
02989             -60.00      400.00
02990             -40.00      400.00
02991             -60.00        0.00
02992             -20.00        0.00
02993              40.00     -400.00
02994             100.00     -400.00
02995              60.00     -800.00
02996              20.00     -800.00
02997              20.00    -1000.00
02998              40.00    -1200.00
02999              40.00    -1200.00
03000             260.00    -1400.00
03001             760.00    -1600.00
03002             700.00    -2200.00
03003            -100.00    -2200.00
03004            -680.00    -2400.00
03005            -840.00    -2600.00
03006            -620.00    -2400.00
03007             440.00    -2800.00
03008             340.00    -3200.00
03009            -220.00    -2800.00
03010             340.00    -3600.00
03011             120.00    -3400.00
03012               0.00    -3200.00
03013             220.00    -4200.00
03014             -20.00    -3800.00
03015             260.00    -4000.00
03016             220.00    -4400.00
03017            -100.00    -4400.00
03018              40.00    -4600.00
03019              20.00    -4800.00
03020             180.00    -5200.00
03021             180.00    -5000.00
03022             100.00    -5200.00
03023              60.00    -5600.00
03024             100.00    -5400.00
03025             220.00    -5800.00
03026              80.00    -5800.00
03027             120.00    -6000.00
03028             180.00    -6000.00
03029             100.00    -6200.00
03030             180.00    -6400.00
03031             120.00    -6600.00
03032             120.00    -6800.00
03033             200.00    -6800.00
03034             180.00    -7000.00
03035             120.00    -7200.00
03036             180.00    -7200.00
03037             200.00    -7400.00
03038             180.00    -7600.00
03039             180.00    -7600.00
03040             180.00    -7600.00
03041             120.00    -7800.00
03042             200.00    -7800.00
03043             220.00    -8000.00
03044             200.00    -8200.00
03045             220.00    -8200.00
03046             200.00    -8400.00
03047             180.00    -8400.00
03048             200.00    -8400.00
03049             220.00    -8400.00
03050             200.00    -8800.00
03051             220.00    -8800.00
03052             200.00    -8800.00
03053             200.00    -9000.00
03054             220.00    -8800.00
03055             260.00    -9000.00
03056             260.00    -9000.00
03057             220.00    -9200.00
03058             220.00    -9200.00
03059             200.00    -9200.00
03060             220.00    -9200.00
03061             260.00    -9200.00
03062             260.00    -9400.00
03063             260.00    -9400.00
03064             260.00    -9400.00
03065             260.00    -9600.00
03066             260.00    -9600.00
03067             260.00    -9400.00
03068             260.00    -9600.00
03069             280.00    -9600.00
03070             260.00    -9600.00
03071             260.00    -9600.00
03072             260.00    -9600.00
03073             260.00    -9600.00
03074             260.00    -9600.00
03075             260.00    -9600.00
03076             280.00    -9600.00
03077             280.00    -9600.00
03078             260.00    -9600.00
03079             260.00    -9600.00
03080             260.00    -9600.00
03081             260.00    -9400.00
03082             280.00    -9400.00
03083             300.00    -9600.00
03084             260.00    -9200.00
03085             260.00    -9400.00
03086             260.00    -9200.00
03087             260.00    -9200.00
03088             280.00    -9200.00
03089             260.00    -9200.00
03090             280.00    -9200.00
03091             260.00    -9200.00
03092             260.00    -9200.00
03093             260.00    -9000.00
03094             260.00    -9000.00
03095             280.00    -8800.00
03096             280.00    -8800.00
03097             260.00    -8600.00
03098             260.00    -8800.00
03099             260.00    -8800.00
03100             260.00    -8600.00
03101             260.00    -8400.00
03102             260.00    -8200.00
03103             260.00    -8200.00
03104             260.00    -8000.00
03105             220.00    -8000.00
03106             220.00    -8000.00
03107             260.00    -8000.00
03108             240.00    -7600.00
03109             240.00    -7600.00
03110             260.00    -7400.00
03111             220.00    -7400.00
03112             220.00    -7200.00
03113             220.00    -7200.00
03114             220.00    -7200.00
03115             220.00    -6800.00
03116             240.00    -6800.00
03117             200.00    -6600.00
03118             200.00    -6400.00
03119             220.00    -6400.00
03120             200.00    -6200.00
03121             220.00    -6000.00
03122             200.00    -5800.00
03123             200.00    -5800.00
03124             200.00    -5600.00
03125             180.00    -5400.00
03126             200.00    -5600.00
03127             200.00    -5200.00
03128             200.00    -5000.00
03129             200.00    -4800.00
03130             180.00    -4800.00
03131             180.00    -4600.00
03132             180.00    -4400.00
03133             160.00    -4200.00
03134             160.00    -4000.00
03135             180.00    -3800.00
03136             140.00    -3600.00
03137             140.00    -3600.00
03138             140.00    -3400.00
03139             140.00    -3200.00
03140             120.00    -3000.00
03141             140.00    -2800.00
03142             120.00    -2600.00
03143             120.00    -2600.00
03144             120.00    -2400.00
03145             120.00    -2000.00
03146             100.00    -2000.00
03147             100.00    -1800.00
03148             100.00    -1600.00
03149             100.00    -1400.00
03150             100.00    -1400.00
03151             100.00    -1200.00
03152              60.00    -1000.00
03153              60.00     -800.00
03154              60.00     -600.00
03155              60.00     -400.00
03156              60.00     -200.00
03157              60.00        0.00
03158              40.00      200.00
03159              60.00      400.00
03160             100.00      600.00
03161             160.00      600.00
03162             140.00      800.00
03163             120.00     1200.00
03164             100.00     1200.00
03165             100.00     1200.00
03166             120.00     1600.00
03167             520.00     1800.00
03168            1020.00     2000.00
03169             460.00     2200.00
03170            -600.00     2200.00
03171           -1140.00     2400.00
03172           -1060.00     2600.00
03173             380.00     3000.00
03174             680.00     2800.00
03175            -460.00     3000.00
03176             180.00     3200.00
03177             200.00     3400.00
03178            -420.00     4000.00
03179             120.00     3600.00
03180              20.00     4000.00
03181             100.00     4400.00
03182             140.00     3600.00
03183            -280.00     4800.00
03184             -40.00     4800.00
03185            -180.00     4400.00
03186             -40.00     5400.00
03187              40.00     5200.00
03188            -200.00     5200.00
03189              20.00     5600.00
03190            -180.00     5400.00
03191             -60.00     6000.00
03192             -20.00     5800.00
03193            -180.00     6400.00
03194             -80.00     6200.00
03195            -100.00     6400.00
03196             -60.00     6800.00
03197            -220.00     6400.00
03198            -120.00     7000.00
03199             -40.00     7000.00
03200            -140.00     7000.00
03201            -120.00     7400.00
03202            -120.00     7200.00
03203            -180.00     7400.00
03204            -180.00     7600.00
03205            -100.00     7800.00
03206            -180.00     7600.00
03207            -180.00     7800.00
03208            -180.00     8200.00
03209            -220.00     8000.00
03210            -140.00     8400.00
03211            -140.00     8400.00
03212            -200.00     8600.00
03213            -220.00     8400.00
03214            -160.00     8800.00
03215            -220.00     8800.00
03216            -200.00     9000.00
03217            -180.00     9200.00
03218            -240.00     9000.00
03219            -240.00     9000.00
03220            -200.00     9200.00
03221            -200.00     9200.00
03222            -220.00     9200.00
03223            -180.00     9400.00
03224            -220.00     9400.00
03225            -260.00     9400.00
03226            -220.00     9600.00
03227            -260.00     9600.00
03228            -260.00     9400.00
03229            -220.00     9600.00
03230            -220.00     9600.00
03231            -260.00     9600.00
03232            -260.00     9600.00
03233            -260.00     9600.00
03234            -260.00     9600.00
03235            -220.00     9800.00
03236            -220.00     9800.00
03237            -280.00     9800.00
03238            -260.00    10000.00
03239            -260.00    10000.00
03240            -280.00    10000.00
03241            -260.00    10000.00
03242            -260.00    10000.00
03243            -260.00     9800.00
03244            -260.00     9800.00
03245            -260.00    10000.00
03246            -280.00     9800.00
03247            -280.00     9800.00
03248            -260.00     9600.00
03249            -260.00     9800.00
03250            -260.00     9600.00
03251            -260.00     9800.00
03252            -280.00     9600.00
03253            -280.00     9600.00
03254            -260.00     9600.00
03255            -260.00     9400.00
03256            -280.00     9400.00
03257            -240.00     9400.00
03258            -260.00     9400.00
03259            -280.00     9400.00
03260            -260.00     9400.00
03261            -260.00     9400.00
03262            -260.00     9200.00
03263            -220.00     9200.00
03264            -240.00     9000.00
03265            -260.00     8800.00
03266            -260.00     9000.00
03267            -260.00     8800.00
03268            -240.00     8600.00
03269            -220.00     8600.00
03270            -260.00     8600.00
03271            -260.00     8400.00
03272            -260.00     8400.00
03273            -260.00     8200.00
03274            -260.00     8200.00
03275            -220.00     8000.00
03276            -220.00     7800.00
03277            -220.00     7600.00
03278            -240.00     7600.00
03279            -220.00     7600.00
03280            -240.00     7200.00
03281            -220.00     7200.00
03282            -220.00     7200.00
03283            -220.00     7000.00
03284            -220.00     6800.00
03285            -220.00     6800.00
03286            -220.00     6600.00
03287            -220.00     6400.00
03288            -220.00     6200.00
03289            -220.00     6200.00
03290            -200.00     6000.00
03291            -200.00     6000.00
03292            -220.00     5800.00
03293            -200.00     5400.00
03294            -200.00     5400.00
03295            -180.00     5200.00
03296            -200.00     5200.00
03297            -180.00     4800.00
03298            -200.00     4800.00
03299            -180.00     4600.00
03300            -180.00     4400.00
03301            -160.00     4200.00
03302            -180.00     4000.00
03303            -140.00     4000.00
03304            -160.00     3800.00
03305            -140.00     3600.00
03306            -160.00     3400.00
03307            -140.00     3200.00
03308            -140.00     3000.00
03309            -120.00     2800.00
03310            -120.00     2800.00
03311            -140.00     2600.00
03312            -120.00     2400.00
03313            -100.00     2200.00
03314            -120.00     2000.00
03315             -60.00     2000.00
03316            -100.00     1600.00
03317            -100.00     1400.00
03318            -100.00     1200.00
03319             -60.00     1000.00
03320             -80.00     1000.00
03321             -60.00      600.00
03322             -60.00      600.00
03323             -60.00      400.00
03324             -60.00      200.00
03325             -40.00        0.00
03326             -40.00        0.00
03327              40.00     -200.00
03328             100.00     -400.00
03329              60.00     -600.00
03330              40.00     -800.00
03331              40.00    -1000.00
03332              20.00    -1200.00
03333              40.00    -1200.00
03334             180.00    -1200.00
03335             660.00    -1800.00
03336             820.00    -2000.00
03337             140.00    -2400.00
03338            -580.00    -2400.00
03339            -780.00    -2600.00
03340            -780.00    -2400.00
03341             180.00    -2600.00
03342             580.00    -3200.00
03343            -200.00    -2800.00
03344             200.00    -3400.00
03345             260.00    -3600.00
03346             -60.00    -3200.00
03347             260.00    -4000.00
03348              20.00    -3800.00
03349             180.00    -3800.00
03350             300.00    -4200.00
03351             -60.00    -4400.00
03352              20.00    -4800.00
03353              20.00    -4600.00
03354             100.00    -5000.00
03355             180.00    -5200.00
03356             100.00    -5200.00
03357             100.00    -5600.00
03358              60.00    -5200.00
03359             200.00    -5600.00
03360             140.00    -6000.00
03361             100.00    -5800.00
03362             200.00    -6200.00
03363             120.00    -6000.00
03364             160.00    -6400.00
03365             140.00    -6600.00
03366              60.00    -6600.00
03367             200.00    -6800.00
03368             200.00    -6800.00
03369             140.00    -7200.00
03370             140.00    -7200.00
03371             200.00    -7200.00
03372             180.00    -7600.00
03373             180.00    -7600.00
03374             180.00    -7600.00
03375             140.00    -7800.00
03376             180.00    -7800.00
03377             220.00    -8000.00
03378             200.00    -8200.00
03379             200.00    -8200.00
03380             220.00    -8200.00
03381             180.00    -8400.00
03382             200.00    -8400.00
03383             240.00    -8400.00
03384             200.00    -8400.00
03385             220.00    -8800.00
03386             200.00    -8800.00
03387             200.00    -8800.00
03388             200.00    -8800.00
03389             260.00    -9000.00
03390             260.00    -9200.00
03391             240.00    -9000.00
03392             240.00    -9200.00
03393             200.00    -9200.00
03394             220.00    -9200.00
03395             260.00    -9400.00
03396             260.00    -9200.00
03397             260.00    -9600.00
03398             280.00    -9400.00
03399             260.00    -9600.00
03400             240.00    -9600.00
03401             260.00    -9600.00
03402             260.00    -9600.00
03403             260.00    -9600.00
03404             280.00    -9600.00
03405             260.00    -9600.00
03406             260.00    -9600.00
03407             260.00    -9600.00
03408             260.00    -9600.00
03409             260.00    -9600.00
03410             280.00    -9600.00
03411             260.00    -9600.00
03412             260.00    -9600.00
03413             260.00    -9600.00
03414             260.00    -9600.00
03415             260.00    -9600.00
03416             280.00    -9600.00
03417             280.00    -9400.00
03418             260.00    -9600.00
03419             260.00    -9200.00
03420             260.00    -9400.00
03421             260.00    -9200.00
03422             260.00    -9200.00
03423             260.00    -9200.00
03424             280.00    -9200.00
03425             260.00    -9200.00
03426             260.00    -9000.00
03427             260.00    -9000.00
03428             260.00    -9000.00
03429             260.00    -9000.00
03430             260.00    -8800.00
03431             260.00    -8800.00
03432             260.00    -8800.00
03433             260.00    -8800.00
03434             260.00    -8400.00
03435             260.00    -8400.00
03436             260.00    -8400.00
03437             260.00    -8200.00
03438             260.00    -8000.00
03439             260.00    -8000.00
03440             240.00    -8000.00
03441             260.00    -7800.00
03442             260.00    -7600.00
03443             260.00    -7600.00
03444             260.00    -7400.00
03445             240.00    -7400.00
03446             220.00    -7400.00
03447             220.00    -7400.00
03448             220.00    -7000.00
03449             220.00    -6800.00
03450             220.00    -6800.00
03451             220.00    -6800.00
03452             200.00    -6400.00
03453             200.00    -6400.00
03454             200.00    -6400.00
03455             220.00    -6200.00
03456             200.00    -6000.00
03457             200.00    -5800.00
03458             200.00    -5600.00
03459             200.00    -5600.00
03460             180.00    -5400.00
03461             180.00    -5200.00
03462             200.00    -5200.00
03463             180.00    -5000.00
03464             200.00    -4800.00
03465             180.00    -4400.00
03466             180.00    -4200.00
03467             160.00    -4200.00
03468             180.00    -4200.00
03469             180.00    -3800.00
03470             180.00    -3600.00
03471             140.00    -3600.00
03472             140.00    -3400.00
03473             140.00    -3200.00
03474             140.00    -3200.00
03475             140.00    -2800.00
03476             140.00    -2800.00
03477             120.00    -2600.00
03478             140.00    -2400.00
03479             120.00    -2200.00
03480             100.00    -2000.00
03481             100.00    -1800.00
03482             100.00    -1600.00
03483             100.00    -1600.00
03484             100.00    -1200.00
03485             100.00    -1200.00
03486              60.00    -1000.00
03487              60.00     -800.00
03488              60.00     -600.00
03489              60.00     -400.00
03490              60.00     -200.00
03491              60.00        0.00
03492              60.00      200.00
03493              40.00      400.00
03494             100.00      600.00
03495             140.00      800.00
03496             160.00      800.00
03497             120.00      800.00
03498             100.00     1200.00
03499             100.00     1200.00
03500             120.00     1400.00
03501             360.00     1600.00
03502             980.00     2000.00
03503             700.00     2200.00
03504            -360.00     2200.00
03505           -1020.00     2200.00
03506           -1220.00     2600.00
03507             -40.00     3000.00
03508             880.00     3000.00
03509            -280.00     3000.00
03510             -60.00     3200.00
03511             380.00     3200.00
03512            -360.00     4000.00
03513             -20.00     3600.00
03514             100.00     3600.00
03515             -20.00     4600.00
03516             220.00     4000.00
03517            -220.00     4400.00
03518            -120.00     5200.00
03519            -100.00     4400.00
03520            -120.00     5200.00
03521             120.00     5200.00
03522            -180.00     5200.00
03523             -20.00     5600.00
03524            -100.00     5400.00
03525            -160.00     6000.00
03526              40.00     6000.00
03527            -160.00     6200.00
03528            -100.00     6200.00
03529            -120.00     6200.00
03530             -60.00     6800.00
03531            -180.00     6400.00
03532            -200.00     6800.00
03533             -40.00     7000.00
03534            -120.00     6800.00
03535            -120.00     7400.00
03536            -120.00     7200.00
03537            -160.00     7600.00
03538            -180.00     7600.00
03539            -100.00     7800.00
03540            -140.00     7600.00
03541            -200.00     7800.00
03542            -140.00     8200.00
03543            -220.00     8000.00
03544            -180.00     8400.00
03545            -140.00     8200.00
03546            -180.00     8600.00
03547            -260.00     8600.00
03548            -180.00     8600.00
03549            -200.00     8800.00
03550            -200.00     8800.00
03551            -180.00     9000.00
03552            -220.00     9000.00
03553            -260.00     9000.00
03554            -220.00     9200.00
03555            -180.00     9200.00
03556            -220.00     9400.00
03557            -200.00     9400.00
03558            -220.00     9400.00
03559            -260.00     9400.00
03560            -220.00     9400.00
03561            -240.00     9600.00
03562            -260.00     9600.00
03563            -240.00     9600.00
03564            -200.00     9800.00
03565            -220.00     9600.00
03566            -260.00     9800.00
03567            -260.00     9600.00
03568            -260.00     9600.00
03569            -240.00    10000.00
03570            -240.00     9800.00
03571            -280.00    10000.00
03572            -260.00    10000.00
03573            -260.00    10000.00
03574            -260.00    10000.00
03575            -260.00    10000.00
03576            -260.00    10000.00
03577            -260.00     9800.00
03578            -260.00    10000.00
03579            -260.00    10000.00
03580            -280.00    10000.00
03581            -280.00    10000.00
03582            -260.00     9600.00
03583            -260.00     9800.00
03584            -260.00     9800.00
03585            -260.00     9600.00
03586            -280.00     9600.00
03587            -260.00     9600.00
03588            -260.00     9600.00
03589            -260.00     9600.00
03590            -260.00     9400.00
03591            -260.00     9600.00
03592            -260.00     9400.00
03593            -280.00     9400.00
03594            -260.00     9400.00
03595            -280.00     9200.00
03596            -260.00     9200.00
03597            -220.00     9000.00
03598            -260.00     9000.00
03599            -260.00     9000.00
03600            -260.00     9000.00
03601            -260.00     8800.00
03602            -240.00     8600.00
03603            -240.00     8600.00
03604            -260.00     8600.00
03605            -260.00     8600.00
03606            -260.00     8400.00
03607            -220.00     8200.00
03608            -260.00     8000.00
03609            -220.00     8000.00
03610            -220.00     7800.00
03611            -220.00     7800.00
03612            -260.00     7600.00
03613            -260.00     7600.00
03614            -240.00     7400.00
03615            -220.00     7200.00
03616            -220.00     7200.00
03617            -220.00     7000.00
03618            -220.00     7000.00
03619            -220.00     6800.00
03620            -220.00     6800.00
03621            -200.00     6400.00
03622            -220.00     6400.00
03623            -200.00     6200.00
03624            -200.00     6000.00
03625            -220.00     6000.00
03626            -200.00     5600.00
03627            -220.00     5600.00
03628            -200.00     5400.00
03629            -200.00     5200.00
03630            -200.00     5200.00
03631            -180.00     5000.00
03632            -200.00     4800.00
03633            -180.00     4800.00
03634            -200.00     4400.00
03635            -140.00     4400.00
03636            -180.00     4200.00
03637            -140.00     4000.00
03638            -140.00     4000.00
03639            -140.00     3800.00
03640            -140.00     3600.00
03641            -140.00     3400.00
03642            -120.00     3200.00
03643            -120.00     3000.00
03644            -120.00     2800.00
03645            -120.00     2600.00
03646            -120.00     2400.00
03647            -120.00     2200.00
03648            -100.00     2200.00
03649            -100.00     1800.00
03650            -100.00     1600.00
03651            -100.00     1400.00
03652            -100.00     1400.00
03653             -60.00     1200.00
03654             -60.00      800.00
03655             -80.00      800.00
03656             -60.00      600.00
03657             -60.00      400.00
03658             -40.00      200.00
03659             -40.00      200.00
03660             -40.00        0.00
03661              20.00     -200.00
03662             100.00     -400.00
03663              60.00     -600.00
03664              60.00     -800.00
03665              40.00    -1000.00
03666              40.00    -1000.00
03667              40.00    -1200.00
03668             120.00    -1400.00
03669             500.00    -1600.00
03670             860.00    -2000.00
03671             360.00    -2400.00
03672            -440.00    -2400.00
03673            -760.00    -2600.00
03674            -860.00    -2400.00
03675            -160.00    -2400.00
03676             660.00    -3200.00
03677             -60.00    -2800.00
03678              20.00    -3200.00
03679             340.00    -3600.00
03680             -60.00    -3200.00
03681             200.00    -3600.00
03682             100.00    -4000.00
03683              60.00    -3800.00
03684             360.00    -4200.00
03685              20.00    -4400.00
03686             -40.00    -4800.00
03687              40.00    -4600.00
03688              40.00    -5000.00
03689             180.00    -5200.00
03690             120.00    -5000.00
03691              80.00    -5600.00
03692              60.00    -5600.00
03693             180.00    -5600.00
03694             180.00    -6000.00
03695              60.00    -5800.00
03696             200.00    -6200.00
03697             120.00    -6200.00
03698             140.00    -6400.00
03699             180.00    -6600.00
03700             100.00    -6600.00
03701             180.00    -6800.00
03702             220.00    -6800.00
03703             160.00    -7000.00
03704             120.00    -7200.00
03705             200.00    -7200.00
03706             200.00    -7400.00
03707             180.00    -7400.00
03708             200.00    -7600.00
03709             160.00    -7800.00
03710             140.00    -7800.00
03711             220.00    -8000.00
03712             200.00    -8200.00
03713             180.00    -8200.00
03714             220.00    -8200.00
03715             200.00    -8400.00
03716             200.00    -8400.00
03717             260.00    -8400.00
03718             220.00    -8600.00
03719             200.00    -8800.00
03720             240.00    -8800.00
03721             140.00    -8800.00
03722             140.00    -9000.00
03723             180.00    -8800.00
03724             260.00    -9000.00
03725             300.00    -9200.00
03726             340.00    -9200.00
03727             300.00    -9200.00
03728             260.00    -9200.00
03729             260.00    -9200.00
03730             200.00    -9200.00
03731             180.00    -9600.00
03732             240.00    -9400.00
03733             260.00    -9600.00
03734             240.00    -9600.00
03735             260.00    -9600.00
03736             280.00    -9600.00
03737             280.00    -9600.00
03738             300.00    -9600.00
03739             280.00    -9600.00
03740             260.00    -9600.00
03741             220.00    -9800.00
03742             200.00    -9600.00
03743             200.00    -9800.00
03744             260.00    -9600.00
03745             280.00    -9600.00
03746             260.00    -9600.00
03747             280.00    -9600.00
03748             280.00    -9400.00
03749             260.00    -9600.00
03750             260.00    -9600.00
03751             260.00    -9400.00
03752             260.00    -9600.00
03753             220.00    -9600.00
03754             240.00    -9200.00
03755             260.00    -9200.00
03756             280.00    -9200.00
03757             300.00    -9200.00
03758             280.00    -9200.00
03759             280.00    -9200.00
03760             260.00    -9000.00
03761             220.00    -9200.00
03762             240.00    -9000.00
03763             260.00    -9000.00
03764             260.00    -8800.00
03765             260.00    -8800.00
03766             280.00    -8800.00
03767             260.00    -8800.00
03768             260.00    -8600.00
03769             260.00    -8400.00
03770             260.00    -8200.00
03771             240.00    -8200.00
03772             260.00    -8000.00
03773             260.00    -8000.00
03774             260.00    -8000.00
03775             260.00    -7800.00
03776             280.00    -7800.00
03777             260.00    -7600.00
03778             240.00    -7600.00
03779             240.00    -7600.00
03780             220.00    -7400.00
03781             220.00    -7200.00
03782             220.00    -7200.00
03783             220.00    -7000.00
03784             260.00    -6800.00
03785             240.00    -6600.00
03786             220.00    -6600.00
03787             220.00    -6400.00
03788             200.00    -6200.00
03789             200.00    -6000.00
03790             200.00    -6000.00
03791             200.00    -5800.00
03792             200.00    -5800.00
03793             200.00    -5600.00
03794             200.00    -5600.00
03795             200.00    -5400.00
03796             180.00    -5200.00
03797             200.00    -5000.00
03798             180.00    -4800.00
03799             200.00    -4600.00
03800             180.00    -4400.00
03801             180.00    -4200.00
03802             180.00    -4200.00
03803             160.00    -3800.00
03804             180.00    -3800.00
03805             140.00    -3600.00
03806             140.00    -3400.00
03807             140.00    -3400.00
03808             120.00    -3000.00
03809             120.00    -2800.00
03810             120.00    -2800.00
03811             120.00    -2600.00
03812             120.00    -2400.00
03813             100.00    -2400.00
03814             100.00    -2200.00
03815             100.00    -1800.00
03816             100.00    -1800.00
03817             100.00    -1600.00
03818             100.00    -1200.00
03819             100.00    -1200.00
03820              80.00    -1200.00
03821              60.00     -800.00
03822              60.00     -600.00
03823              60.00     -400.00
03824              60.00     -400.00
03825              60.00        0.00
03826              40.00        0.00
03827              40.00      400.00
03828             100.00      400.00
03829             140.00      600.00
03830             180.00      800.00
03831             140.00      800.00
03832             100.00     1200.00
03833             100.00     1200.00
03834             100.00     1400.00
03835             220.00     1600.00
03836             840.00     2000.00
03837             900.00     2200.00
03838             -60.00     2200.00
03839            -920.00     2200.00
03840           -1240.00     2600.00
03841            -460.00     3000.00
03842             860.00     3000.00
03843              40.00     2800.00
03844            -300.00     3400.00
03845             420.00     3200.00
03846            -200.00     4000.00
03847            -220.00     4000.00
03848             180.00     3400.00
03849             -60.00     4400.00
03850             260.00     4000.00
03851            -120.00     4000.00
03852            -200.00     5200.00
03853             -20.00     4400.00
03854            -200.00     4800.00
03855             100.00     5200.00
03856            -120.00     4800.00
03857            -100.00     5600.00
03858             -40.00     5400.00
03859            -200.00     5600.00
03860              40.00     5800.00
03861            -120.00     6000.00
03862            -140.00     6400.00
03863             -80.00     6000.00
03864             -80.00     6800.00
03865            -120.00     6800.00
03866            -220.00     6600.00
03867             -40.00     7200.00
03868            -100.00     6800.00
03869            -120.00     7200.00
03870            -120.00     7200.00
03871            -140.00     7600.00
03872            -200.00     7600.00
03873            -140.00     7600.00
03874            -120.00     7800.00
03875            -220.00     7600.00
03876            -140.00     8200.00
03877            -200.00     8000.00
03878            -200.00     8000.00
03879            -120.00     8400.00
03880            -160.00     8400.00
03881            -220.00     8600.00
03882            -220.00     8400.00
03883            -200.00     9000.00
03884            -220.00     8600.00
03885            -140.00     8800.00
03886            -200.00     9000.00
03887            -280.00     8800.00
03888            -220.00     9200.00
03889            -180.00     9200.00
03890            -220.00     9200.00
03891            -200.00     9400.00
03892            -220.00     9400.00
03893            -280.00     9400.00
03894            -220.00     9400.00
03895            -220.00     9400.00
03896            -240.00     9600.00
03897            -240.00     9400.00
03898            -200.00     9600.00
03899            -220.00     9800.00
03900            -260.00     9600.00
03901            -220.00     9800.00
03902            -260.00     9600.00
03903            -260.00    10000.00
03904            -220.00     9800.00
03905            -260.00    10000.00
03906            -280.00     9800.00
03907            -260.00    10000.00
03908            -280.00    10000.00
03909            -260.00    10000.00
03910            -260.00    10000.00
03911            -240.00    10000.00
03912            -260.00    10000.00
03913            -220.00    10000.00
03914            -260.00     9800.00
03915            -280.00     9800.00
03916            -260.00     9800.00
03917            -260.00     9800.00
03918            -260.00     9600.00
03919            -260.00     9600.00
03920            -260.00     9800.00
03921            -280.00     9600.00
03922            -280.00     9600.00
03923            -260.00     9600.00
03924            -280.00     9600.00
03925            -260.00     9400.00
03926            -260.00     9400.00
03927            -260.00     9600.00
03928            -280.00     9400.00
03929            -260.00     9200.00
03930            -260.00     9200.00
03931            -260.00     9200.00
03932            -240.00     9200.00
03933            -260.00     9000.00
03934            -260.00     8800.00
03935            -260.00     8800.00
03936            -260.00     8800.00
03937            -260.00     8600.00
03938            -260.00     8600.00
03939            -260.00     8400.00
03940            -260.00     8400.00
03941            -260.00     8400.00
03942            -260.00     8200.00
03943            -260.00     8000.00
03944            -220.00     7800.00
03945            -220.00     7800.00
03946            -260.00     7600.00
03947            -260.00     7600.00
03948            -260.00     7400.00
03949            -240.00     7200.00
03950            -220.00     7200.00
03951            -220.00     7000.00
03952            -220.00     7000.00
03953            -220.00     6800.00
03954            -220.00     6800.00
03955            -220.00     6400.00
03956            -200.00     6400.00
03957            -220.00     6200.00
03958            -220.00     6000.00
03959            -200.00     6000.00
03960            -200.00     5600.00
03961            -220.00     5600.00
03962            -200.00     5400.00
03963            -180.00     5200.00
03964            -200.00     5200.00
03965            -180.00     4800.00
03966            -180.00     4800.00
03967            -200.00     4800.00
03968            -180.00     4400.00
03969            -180.00     4400.00
03970            -180.00     4200.00
03971            -180.00     4000.00
03972            -140.00     3800.00
03973            -140.00     3600.00
03974            -140.00     3600.00
03975            -140.00     3200.00
03976            -120.00     3200.00
03977            -120.00     3000.00
03978            -120.00     2800.00
03979            -120.00     2800.00
03980            -140.00     2600.00
03981            -120.00     2200.00
03982            -100.00     2200.00
03983            -100.00     2000.00
03984            -100.00     1800.00
03985            -100.00     1600.00
03986            -100.00     1400.00
03987             -60.00     1200.00
03988             -60.00     1000.00
03989             -60.00      800.00
03990             -60.00      600.00
03991             -60.00      600.00
03992             -40.00      400.00
03993             -40.00      200.00
03994             -60.00        0.00
03995             -20.00     -200.00
03996              40.00     -400.00
03997             100.00     -600.00
03998              40.00     -800.00
03999              40.00    -1000.00
04000              40.00    -1000.00
04001              40.00    -1200.00
04002              60.00    -1200.00
04003             340.00    -1600.00
04004             820.00    -2000.00
04005             560.00    -2200.00
04006            -280.00    -2400.00
04007            -740.00    -2600.00
04008            -860.00    -2600.00
04009            -460.00    -2200.00
04010             580.00    -2800.00
04011             140.00    -3200.00
04012            -160.00    -2800.00
04013             360.00    -3600.00
04014               0.00    -3200.00
04015             100.00    -3400.00
04016             180.00    -4000.00
04017             -20.00    -3600.00
04018             340.00    -4200.00
04019             120.00    -4600.00
04020             -60.00    -4400.00
04021              40.00    -4600.00
04022              20.00    -4800.00
04023             180.00    -5200.00
04024             120.00    -5000.00
04025             100.00    -5400.00
04026              60.00    -5600.00
04027             120.00    -5600.00
04028             220.00    -6000.00
04029              60.00    -5800.00
04030             180.00    -6000.00
04031             160.00    -6400.00
04032             100.00    -6400.00
04033             180.00    -6400.00
04034             100.00    -6600.00
04035             140.00    -7000.00
04036             220.00    -6800.00
04037             180.00    -7000.00
04038             120.00    -7200.00
04039             180.00    -7200.00
04040             200.00    -7400.00
04041             180.00    -7600.00
04042             200.00    -7600.00
04043             180.00    -7800.00
04044             140.00    -8000.00
04045             200.00    -8000.00
04046             220.00    -8000.00
04047             200.00    -8200.00
04048             200.00    -8200.00
04049             200.00    -8200.00
04050             180.00    -8400.00
04051             220.00    -8400.00
04052             220.00    -8400.00
04053             220.00    -8800.00
04054             220.00    -8800.00
04055             220.00    -8800.00
04056             200.00    -9000.00
04057             240.00    -9000.00
04058             260.00    -9000.00
04059             220.00    -9000.00
04060             240.00    -9200.00
04061             220.00    -9200.00
04062             200.00    -9200.00
04063             240.00    -9200.00
04064             260.00    -9200.00
04065             260.00    -9400.00
04066             260.00    -9400.00
04067             260.00    -9600.00
04068             220.00    -9600.00
04069             260.00    -9600.00
04070             220.00    -9600.00
04071             260.00    -9800.00
04072             260.00    -9600.00
04073             260.00    -9600.00
04074             260.00    -9800.00
04075             260.00    -9800.00
04076             260.00    -9600.00
04077             260.00    -9800.00
04078             260.00    -9600.00
04079             280.00    -9600.00
04080             260.00    -9800.00
04081             280.00    -9600.00
04082             260.00    -9600.00
04083             260.00    -9600.00
04084             260.00    -9600.00
04085             260.00    -9400.00
04086             280.00    -9600.00
04087             260.00    -9400.00
04088             260.00    -9400.00
04089             260.00    -9400.00
04090             260.00    -9400.00
04091             260.00    -9200.00
04092             280.00    -9200.00
04093             280.00    -9200.00
04094             260.00    -9200.00
04095             260.00    -9000.00
04096             260.00    -9000.00
04097             260.00    -9000.00
04098             260.00    -8800.00
04099             260.00    -8800.00
04100             260.00    -8800.00
04101             260.00    -8600.00
04102             260.00    -8600.00
04103             260.00    -8400.00
04104             260.00    -8400.00
04105             260.00    -8400.00
04106             260.00    -8200.00
04107             260.00    -8000.00
04108             260.00    -8000.00
04109             260.00    -7800.00
04110             240.00    -7800.00
04111             260.00    -7600.00
04112             260.00    -7600.00
04113             260.00    -7400.00
04114             240.00    -7400.00
04115             220.00    -7200.00
04116             220.00    -7000.00
04117             220.00    -6800.00
04118             260.00    -6800.00
04119             260.00    -6800.00
04120             220.00    -6600.00
04121             200.00    -6400.00
04122             200.00    -6400.00
04123             200.00    -6200.00
04124             200.00    -6000.00
04125             220.00    -6000.00
04126             200.00    -5800.00
04127             200.00    -5600.00
04128             200.00    -5600.00
04129             180.00    -5400.00
04130             200.00    -5200.00
04131             200.00    -5200.00
04132             200.00    -4800.00
04133             180.00    -4800.00
04134             180.00    -4400.00
04135             140.00    -4400.00
04136             140.00    -4200.00
04137             160.00    -4000.00
04138             180.00    -3800.00
04139             140.00    -3600.00
04140             140.00    -3600.00
04141             140.00    -3400.00
04142             120.00    -3200.00
04143             120.00    -3000.00
04144             120.00    -2800.00
04145             120.00    -2600.00
04146             120.00    -2600.00
04147             120.00    -2400.00
04148             100.00    -2000.00
04149             100.00    -1800.00
04150             100.00    -1800.00
04151             100.00    -1600.00
04152             100.00    -1600.00
04153             100.00    -1200.00
04154              60.00    -1200.00
04155              60.00    -1000.00
04156              60.00     -800.00
04157              60.00     -400.00
04158              60.00     -400.00
04159              60.00     -200.00
04160              60.00        0.00
04161              60.00      200.00
04162              60.00      400.00
04163             140.00      600.00
04164             160.00      800.00
04165             140.00      800.00
04166             120.00     1200.00
04167             100.00     1200.00
04168             100.00     1400.00
04169             160.00     1400.00
04170             660.00     2000.00
04171            1000.00     2200.00
04172             240.00     2200.00
04173            -760.00     2400.00
04174           -1200.00     2400.00
04175            -860.00     2800.00
04176             680.00     3000.00
04177             440.00     3000.00
04178            -440.00     3200.00
04179             340.00     3200.00
04180              40.00     3600.00
04181            -360.00     4000.00
04182             180.00     3600.00
04183             -40.00     4200.00
04184             180.00     4400.00
04185              20.00     3800.00
04186            -260.00     5000.00
04187             -20.00     4600.00
04188            -200.00     4800.00
04189              40.00     5400.00
04190             -20.00     4800.00
04191            -140.00     5600.00
04192              40.00     5400.00
04193            -220.00     5600.00
04194             -20.00     6000.00
04195             -40.00     6000.00
04196            -180.00     6400.00
04197            -100.00     6200.00
04198            -100.00     6400.00
04199             -80.00     6800.00
04200            -240.00     6400.00
04201            -100.00     7000.00
04202             -60.00     6800.00
04203            -140.00     7000.00
04204            -120.00     7200.00
04205            -140.00     7200.00
04206            -180.00     7600.00
04207            -160.00     7400.00
04208            -100.00     7800.00
04209            -220.00     7600.00
04210            -180.00     8000.00
04211            -200.00     8000.00
04212            -200.00     8000.00
04213            -140.00     8400.00
04214            -140.00     8400.00
04215            -200.00     8600.00
04216            -220.00     8600.00
04217            -180.00     8800.00
04218            -200.00     8600.00
04219            -180.00     8800.00
04220            -200.00     9200.00
04221            -240.00     8800.00
04222            -240.00     9200.00
04223            -200.00     9200.00
04224            -200.00     9200.00
04225            -220.00     9200.00
04226            -180.00     9400.00
04227            -260.00     9400.00
04228            -260.00     9600.00
04229            -220.00     9600.00
04230            -240.00     9400.00
04231            -220.00     9600.00
04232            -220.00     9600.00
04233            -220.00     9600.00
04234            -260.00     9600.00
04235            -260.00     9600.00
04236            -260.00     9600.00
04237            -260.00     9800.00
04238            -220.00    10000.00
04239            -220.00    10000.00
04240            -280.00     9800.00
04241            -260.00    10000.00
04242            -260.00     9800.00
04243            -260.00    10000.00
04244            -220.00    10000.00
04245            -260.00    10000.00
04246            -260.00     9800.00
04247            -260.00    10000.00
04248            -260.00     9800.00
04249            -280.00    10000.00
04250            -260.00     9800.00
04251            -260.00     9800.00
04252            -260.00     9800.00
04253            -260.00     9600.00
04254            -260.00     9600.00
04255            -280.00     9600.00
04256            -260.00     9600.00
04257            -260.00     9600.00
04258            -260.00     9400.00
04259            -240.00     9400.00
04260            -260.00     9400.00
04261            -260.00     9400.00
04262            -280.00     9200.00
04263            -260.00     9200.00
04264            -260.00     9200.00
04265            -260.00     9200.00
04266            -260.00     9200.00
04267            -260.00     8800.00
04268            -280.00     9000.00
04269            -260.00     8800.00
04270            -260.00     9000.00
04271            -260.00     8600.00
04272            -260.00     8600.00
04273            -260.00     8400.00
04274            -260.00     8400.00
04275            -240.00     8200.00
04276            -260.00     8000.00
04277            -260.00     8000.00
04278            -220.00     8000.00
04279            -220.00     7800.00
04280            -220.00     7600.00
04281            -240.00     7600.00
04282            -260.00     7400.00
04283            -220.00     7200.00
04284            -220.00     7200.00
04285            -220.00     7000.00
04286            -220.00     7000.00
04287            -220.00     6800.00
04288            -220.00     6600.00
04289            -220.00     6600.00
04290            -220.00     6400.00
04291            -200.00     6200.00
04292            -200.00     6200.00
04293            -200.00     6000.00
04294            -200.00     5800.00
04295            -200.00     5600.00
04296            -200.00     5600.00
04297            -200.00     5400.00
04298            -180.00     5200.00
04299            -180.00     5200.00
04300            -200.00     4800.00
04301            -200.00     4800.00
04302            -180.00     4600.00
04303            -160.00     4400.00
04304            -140.00     4200.00
04305            -140.00     4000.00
04306            -140.00     3800.00
04307            -140.00     3800.00
04308            -140.00     3600.00
04309            -140.00     3400.00
04310            -120.00     3200.00
04311            -120.00     3000.00
04312            -120.00     3000.00
04313            -120.00     2800.00
04314            -120.00     2600.00
04315            -120.00     2400.00
04316            -100.00     2200.00
04317            -100.00     2000.00
04318            -100.00     1800.00
04319             -80.00     1600.00
04320            -100.00     1400.00
04321             -80.00     1400.00
04322            -100.00     1200.00
04323             -60.00      800.00
04324             -80.00      600.00
04325             -60.00      600.00
04326             -60.00      400.00
04327             -60.00        0.00
04328             -40.00        0.00
04329             -40.00     -200.00
04330              40.00     -400.00
04331             100.00     -600.00
04332              60.00     -800.00
04333              40.00     -800.00
04334              20.00    -1000.00
04335              20.00    -1200.00
04336              60.00    -1400.00
04337             220.00    -1400.00
04338             740.00    -1800.00
04339             740.00    -2000.00
04340             -60.00    -2200.00
04341            -680.00    -2600.00
04342            -820.00    -2400.00
04343            -700.00    -2400.00
04344             360.00    -2600.00
04345             400.00    -3200.00
04346            -220.00    -2800.00
04347             280.00    -3600.00
04348             140.00    -3400.00
04349             -20.00    -3200.00
04350             220.00    -4200.00
04351             -20.00    -3800.00
04352             240.00    -4000.00
04353             260.00    -4400.00
04354             -80.00    -4400.00
04355              40.00    -4800.00
04356              20.00    -4600.00
04357             140.00    -5000.00
04358             180.00    -5000.00
04359             100.00    -5200.00
04360              60.00    -5800.00
04361             100.00    -5200.00
04362             220.00    -5800.00
04363             120.00    -6000.00
04364             120.00    -5800.00
04365             180.00    -6200.00
04366             100.00    -6400.00
04367             180.00    -6400.00
04368             120.00    -6600.00
04369             120.00    -6800.00
04370             200.00    -7000.00
04371             200.00    -7000.00
04372             120.00    -7200.00
04373             160.00    -7200.00
04374             200.00    -7400.00
04375             180.00    -7400.00
04376             200.00    -7400.00
04377             180.00    -7600.00
04378             140.00    -7800.00
04379             200.00    -8000.00
04380             220.00    -8000.00
04381             200.00    -8200.00
04382             200.00    -8200.00
04383             220.00    -8400.00
04384             180.00    -8400.00
04385             200.00    -8400.00
04386             220.00    -8400.00
04387             220.00    -8600.00
04388             220.00    -8800.00
04389             200.00    -8600.00
04390             200.00    -8800.00
04391             220.00    -8800.00
04392             260.00    -9000.00
04393             260.00    -9000.00
04394             220.00    -9200.00
04395             260.00    -9200.00
04396             220.00    -9200.00
04397             200.00    -9200.00
04398             260.00    -9200.00
04399             260.00    -9400.00
04400             260.00    -9600.00
04401             260.00    -9600.00
04402             260.00    -9600.00
04403             220.00    -9600.00
04404             260.00    -9600.00
04405             260.00    -9600.00
04406             260.00    -9600.00
04407             260.00    -9600.00
04408             260.00    -9800.00
04409             220.00    -9600.00
04410             260.00    -9600.00
04411             260.00    -9600.00
04412             260.00    -9600.00
04413             280.00    -9600.00
04414             260.00    -9600.00
04415             260.00    -9800.00
04416             260.00    -9600.00
04417             260.00    -9400.00
04418             260.00    -9600.00
04419             260.00    -9600.00
04420             280.00    -9400.00
04421             280.00    -9600.00
04422             260.00    -9400.00
04423             260.00    -9200.00
04424             260.00    -9600.00
04425             280.00    -9200.00
04426             280.00    -9200.00
04427             280.00    -9200.00
04428             260.00    -9000.00
04429             260.00    -9000.00
04430             260.00    -9000.00
04431             260.00    -9000.00
04432             260.00    -8800.00
04433             280.00    -8800.00
04434             260.00    -8800.00
04435             260.00    -8800.00
04436             260.00    -8400.00
04437             220.00    -8400.00
04438             260.00    -8400.00
04439             260.00    -8200.00
04440             260.00    -8200.00
04441             260.00    -8000.00
04442             260.00    -8000.00
04443             260.00    -8000.00
04444             260.00    -7800.00
04445             260.00    -7600.00
04446             260.00    -7600.00
04447             260.00    -7600.00
04448             220.00    -7400.00
04449             220.00    -7400.00
04450             220.00    -7000.00
04451             220.00    -7000.00
04452             220.00    -6800.00
04453             220.00    -6800.00
04454             220.00    -6600.00
04455             220.00    -6400.00
04456             220.00    -6400.00
04457             200.00    -6200.00
04458             200.00    -6000.00
04459             200.00    -6000.00
04460             200.00    -5800.00
04461             200.00    -5600.00
04462             200.00    -5600.00
04463             180.00    -5400.00
04464             180.00    -5200.00
04465             180.00    -5000.00
04466             200.00    -5000.00
04467             180.00    -4800.00
04468             180.00    -4400.00
04469             140.00    -4400.00
04470             160.00    -4200.00
04471             160.00    -4200.00
04472             140.00    -3800.00
04473             140.00    -3800.00
04474             140.00    -3600.00
04475             140.00    -3400.00
04476             120.00    -3200.00
04477             140.00    -3200.00
04478             120.00    -3000.00
04479             140.00    -2800.00
04480             120.00    -2600.00
04481             120.00    -2400.00
04482             120.00    -2200.00
04483             100.00    -2000.00
04484             100.00    -1800.00
04485             100.00    -1800.00
04486             120.00    -1400.00
04487             100.00    -1200.00
04488             100.00    -1200.00
04489              80.00     -800.00
04490              60.00     -800.00
04491              60.00     -600.00
04492             100.00     -400.00
04493             100.00     -200.00
04494              60.00        0.00
04495              60.00      200.00
04496              40.00      400.00
04497             120.00      600.00
04498             180.00      800.00
04499             160.00      800.00
04500             120.00     1000.00
04501             100.00     1200.00
04502             100.00     1400.00
04503             120.00     1200.00
04504             480.00     2000.00
04505            1020.00     2200.00
04506             520.00     2200.00
04507            -540.00     2400.00
04508           -1100.00     2400.00
04509           -1100.00     2600.00
04510             280.00     3200.00
04511             760.00     2800.00
04512            -420.00     3000.00
04513             120.00     3200.00
04514             260.00     3400.00
04515            -420.00     4200.00
04516             100.00     3600.00
04517              40.00     4000.00
04518              60.00     4600.00
04519             180.00     3800.00
04520            -280.00     4800.00
04521             -60.00     5000.00
04522            -140.00     4400.00
04523             -60.00     5400.00
04524              60.00     5200.00
04525            -200.00     5200.00
04526              40.00     5600.00
04527            -180.00     5400.00
04528            -120.00     6000.00
04529              20.00     5800.00
04530            -180.00     6200.00
04531            -100.00     6000.00
04532            -120.00     6400.00
04533             -60.00     6800.00
04534            -220.00     6400.00
04535            -140.00     7000.00
04536             -40.00     7000.00
04537            -140.00     7000.00
04538            -120.00     7400.00
04539            -140.00     7200.00
04540            -180.00     7600.00
04541            -200.00     7600.00
04542            -100.00     7800.00
04543            -180.00     7800.00
04544            -200.00     7800.00
04545            -180.00     8400.00
04546            -220.00     8000.00
04547            -140.00     8400.00
04548            -140.00     8200.00
04549            -200.00     8600.00
04550            -240.00     8400.00
04551            -180.00     8600.00
04552            -220.00     9000.00
04553            -200.00     8800.00
04554            -140.00     9000.00
04555            -220.00     9000.00
04556            -240.00     9200.00
04557            -200.00     9200.00
04558            -200.00     9200.00
04559            -220.00     9200.00
04560            -180.00     9200.00
04561            -220.00     9400.00
04562            -260.00     9400.00
04563            -200.00     9400.00
04564            -220.00     9600.00
04565            -260.00     9600.00
04566            -200.00     9600.00
04567            -200.00     9800.00
04568            -260.00     9600.00
04569            -260.00     9800.00
04570            -260.00     9600.00
04571            -260.00     9800.00
04572            -220.00     9800.00
04573            -220.00     9800.00
04574            -280.00    10000.00
04575            -240.00    10000.00
04576            -260.00    10000.00
04577            -260.00     9800.00
04578            -260.00    10000.00
04579            -260.00    10000.00
04580            -260.00    10000.00
04581            -260.00     9800.00
04582            -220.00     9800.00
04583            -280.00     9800.00
04584            -280.00     9800.00
04585            -260.00    10000.00
04586            -260.00    10000.00
04587            -260.00     9600.00
04588            -260.00     9800.00
04589            -260.00     9800.00
04590            -280.00     9600.00
04591            -260.00     9600.00
04592            -260.00     9600.00
04593            -260.00     9400.00
04594            -240.00     9400.00
04595            -280.00     9400.00
04596            -280.00     9400.00
04597            -280.00     9200.00
04598            -280.00     9200.00
04599            -240.00     9200.00
04600            -260.00     9000.00
04601            -260.00     9000.00
04602            -280.00     8800.00
04603            -280.00     9000.00
04604            -260.00     8600.00
04605            -260.00     8600.00
04606            -260.00     8600.00
04607            -260.00     8600.00
04608            -260.00     8400.00
04609            -260.00     8200.00
04610            -240.00     8000.00
04611            -240.00     8000.00
04612            -260.00     8000.00
04613            -220.00     7800.00
04614            -260.00     7800.00
04615            -220.00     7600.00
04616            -240.00     7600.00
04617            -220.00     7200.00
04618            -200.00     7200.00
04619            -220.00     7200.00
04620            -200.00     7000.00
04621            -220.00     6800.00
04622            -220.00     6800.00
04623            -220.00     6600.00
04624            -220.00     6400.00
04625            -220.00     6400.00
04626            -200.00     6200.00
04627            -200.00     6000.00
04628            -200.00     6000.00
04629            -200.00     5600.00
04630            -200.00     5600.00
04631            -200.00     5400.00
04632            -180.00     5200.00
04633            -180.00     5200.00
04634            -180.00     5000.00
04635            -200.00     4800.00
04636            -200.00     4600.00
04637            -140.00     4400.00
04638            -160.00     4200.00
04639            -140.00     4200.00
04640            -160.00     3800.00
04641            -160.00     3800.00
04642            -140.00     3600.00
04643            -120.00     3400.00
04644            -120.00     3200.00
04645            -120.00     3000.00
04646            -120.00     3000.00
04647            -120.00     2800.00
04648            -120.00     2400.00
04649            -120.00     2400.00
04650            -120.00     2200.00
04651            -100.00     2000.00
04652            -100.00     2000.00
04653            -100.00     1600.00
04654            -100.00     1600.00
04655            -100.00     1200.00
04656            -100.00     1200.00
04657             -60.00     1000.00
04658            -100.00      800.00
04659             -60.00      600.00
04660             -60.00      400.00
04661             -60.00      200.00
04662             -60.00        0.00
04663             -40.00     -200.00
04664              20.00     -200.00
04665             100.00     -400.00
04666              60.00     -800.00
04667              40.00     -800.00
04668              20.00    -1000.00
04669              40.00    -1200.00
04670              40.00    -1200.00
04671             140.00    -1600.00
04672             600.00    -1600.00
04673             820.00    -2000.00
04674             180.00    -2400.00
04675            -540.00    -2400.00
04676            -780.00    -2400.00
04677            -820.00    -2400.00
04678             100.00    -2600.00
04679             580.00    -3200.00
04680            -180.00    -2800.00
04681             120.00    -3400.00
04682             280.00    -3600.00
04683             -80.00    -3200.00
04684             220.00    -4000.00
04685              40.00    -4000.00
04686             120.00    -3800.00
04687             340.00    -4400.00
04688             -40.00    -4200.00
04689              20.00    -4600.00
04690              40.00    -4600.00
04691              80.00    -5000.00
04692             180.00    -5200.00
04693             100.00    -5200.00
04694             100.00    -5600.00
04695              60.00    -5200.00
04696             220.00    -5800.00
04697             120.00    -6000.00
04698             100.00    -5800.00
04699             200.00    -6200.00
04700             100.00    -6200.00
04701             160.00    -6400.00
04702             140.00    -6400.00
04703              80.00    -6600.00
04704             200.00    -6800.00
04705             220.00    -6800.00
04706             140.00    -7200.00
04707             120.00    -7200.00
04708             200.00    -7200.00
04709             180.00    -7600.00
04710             180.00    -7400.00
04711             180.00    -7600.00
04712             140.00    -7800.00
04713             180.00    -8000.00
04714             220.00    -8000.00
04715             200.00    -8000.00
04716             200.00    -8200.00
04717             220.00    -8200.00
04718             180.00    -8400.00
04719             180.00    -8400.00
04720             220.00    -8600.00
04721             200.00    -8600.00
04722             200.00    -8800.00
04723             200.00    -8800.00
04724             200.00    -8800.00
04725             200.00    -9000.00
04726             220.00    -9000.00
04727             260.00    -9000.00
04728             240.00    -9000.00
04729             220.00    -9200.00
04730             220.00    -9200.00
04731             220.00    -9200.00
04732             240.00    -9200.00
04733             260.00    -9200.00
04734             240.00    -9200.00
04735             260.00    -9600.00
04736             260.00    -9400.00
04737             220.00    -9600.00
04738             260.00    -9400.00
04739             260.00    -9600.00
04740             260.00    -9600.00
04741             260.00    -9600.00
04742             260.00    -9600.00
04743             260.00    -9600.00
04744             260.00    -9600.00
04745             260.00    -9600.00
04746             260.00    -9600.00
04747             280.00    -9600.00
04748             280.00    -9600.00
04749             260.00    -9600.00
04750             280.00    -9600.00
04751             260.00    -9600.00
04752             260.00    -9600.00
04753             260.00    -9400.00
04754             280.00    -9600.00
04755             280.00    -9600.00
04756             260.00    -9600.00
04757             280.00    -9200.00
04758             280.00    -9200.00
04759             260.00    -9200.00
04760             300.00    -9200.00
04761             280.00    -9200.00
04762             280.00    -9200.00
04763             260.00    -9000.00
04764             260.00    -9000.00
04765             260.00    -9200.00
04766             260.00    -8800.00
04767             280.00    -8800.00
04768             260.00    -8800.00
04769             260.00    -8600.00
04770             260.00    -8800.00
04771             260.00    -8600.00
04772             260.00    -8400.00
04773             260.00    -8200.00
04774             260.00    -8200.00
04775             260.00    -8200.00
04776             260.00    -8000.00
04777             240.00    -7800.00
04778             240.00    -7800.00
04779             260.00    -7600.00
04780             260.00    -7600.00
04781             260.00    -7600.00
04782             240.00    -7400.00
04783             240.00    -7400.00
04784             220.00    -7200.00
04785             240.00    -7200.00
04786             220.00    -6800.00
04787             220.00    -6800.00
04788             220.00    -6600.00
04789             220.00    -6600.00
04790             200.00    -6400.00
04791             220.00    -6400.00
04792             200.00    -6000.00
04793             200.00    -6000.00
04794             200.00    -5800.00
04795             200.00    -5800.00
04796             200.00    -5600.00
04797             180.00    -5400.00
04798             180.00    -5200.00
04799             200.00    -5000.00
04800             180.00    -5000.00
04801             180.00    -4800.00
04802             180.00    -4400.00
04803             160.00    -4600.00
04804             140.00    -4400.00
04805             180.00    -4200.00
04806             180.00    -3800.00
04807             140.00    -3800.00
04808             140.00    -3600.00
04809             140.00    -3400.00
04810             120.00    -3400.00
04811             140.00    -3200.00
04812             120.00    -3000.00
04813             120.00    -2800.00
04814             120.00    -2600.00
04815             120.00    -2400.00
04816             100.00    -2400.00
04817             100.00    -2000.00
04818             120.00    -1800.00
04819             100.00    -1600.00
04820             100.00    -1600.00
04821             100.00    -1400.00
04822             100.00    -1200.00
04823             100.00    -1000.00
04824              80.00     -800.00
04825              80.00     -800.00
04826              80.00     -400.00
04827              80.00     -200.00
04828              60.00     -200.00
04829              60.00      200.00
04830              60.00      400.00
04831             100.00      600.00
04832             140.00      600.00
04833             180.00      800.00
04834             140.00     1000.00
04835             100.00     1200.00
04836             100.00     1200.00
04837             100.00     1600.00
04838             340.00     1600.00
04839             980.00     2000.00
04840             780.00     2200.00
04841            -280.00     2200.00
04842           -1000.00     2200.00
04843           -1240.00     2600.00
04844            -160.00     3000.00
04845             920.00     3000.00
04846            -200.00     2800.00
04847            -140.00     3400.00
04848             420.00     3200.00
04849            -360.00     4000.00
04850             -60.00     3800.00
04851             120.00     3600.00
04852             -40.00     4600.00
04853             220.00     3800.00
04854            -220.00     4400.00
04855            -140.00     5200.00
04856             -60.00     4400.00
04857            -180.00     5000.00
04858             120.00     5200.00
04859            -160.00     5000.00
04860             -40.00     5600.00
04861            -100.00     5200.00
04862            -180.00     6000.00
04863              40.00     5800.00
04864            -140.00     6000.00
04865            -120.00     6200.00
04866            -100.00     6200.00
04867             -60.00     6600.00
04868            -180.00     6400.00
04869            -220.00     6800.00
04870             -40.00     7200.00
04871            -120.00     6800.00
04872            -120.00     7200.00
04873            -120.00     7400.00
04874            -180.00     7600.00
04875            -180.00     7400.00
04876            -120.00     7800.00
04877            -120.00     7800.00
04878            -220.00     7800.00
04879            -140.00     8200.00
04880            -220.00     8000.00
04881            -180.00     8400.00
04882            -120.00     8400.00
04883            -180.00     8400.00
04884            -220.00     8400.00
04885            -200.00     8600.00
04886            -200.00     8800.00
04887            -200.00     8600.00
04888            -140.00     9000.00
04889            -220.00     8800.00
04890            -240.00     9200.00
04891            -200.00     9200.00
04892            -180.00     9200.00
04893            -220.00     9200.00
04894            -200.00     9200.00
04895            -220.00     9400.00
04896            -280.00     9400.00
04897            -220.00     9600.00
04898            -220.00     9600.00
04899            -220.00     9600.00
04900            -240.00     9600.00
04901            -200.00     9800.00
04902            -220.00     9600.00
04903            -240.00     9600.00
04904            -220.00     9800.00
04905            -260.00     9800.00
04906            -220.00    10000.00
04907            -220.00    10000.00
04908            -260.00     9800.00
04909            -280.00     9800.00
04910            -260.00    10000.00
04911            -260.00     9800.00
04912            -260.00    10000.00
04913            -240.00    10000.00
04914            -260.00    10000.00
04915            -260.00     9800.00
04916            -260.00    10000.00
04917            -280.00     9800.00
04918            -280.00     9800.00
04919            -260.00     9800.00
04920            -260.00     9800.00
04921            -260.00     9800.00
04922            -260.00     9600.00
04923            -280.00     9600.00
04924            -280.00     9600.00
04925            -260.00     9600.00
04926            -260.00     9600.00
04927            -280.00     9600.00
04928            -240.00     9400.00
04929            -260.00     9400.00
04930            -280.00     9400.00
04931            -280.00     9400.00
04932            -260.00     9200.00
04933            -260.00     9200.00
04934            -260.00     9200.00
04935            -260.00     9200.00
04936            -260.00     8800.00
04937            -260.00     9000.00
04938            -260.00     8800.00
04939            -260.00     8600.00
04940            -260.00     8600.00
04941            -260.00     8400.00
04942            -280.00     8400.00
04943            -260.00     8200.00
04944            -240.00     8200.00
04945            -240.00     8000.00
04946            -260.00     8000.00
04947            -220.00     7800.00
04948            -220.00     7800.00
04949            -220.00     7800.00
04950            -220.00     7600.00
04951            -220.00     7400.00
04952            -220.00     7200.00
04953            -200.00     7200.00
04954            -220.00     7000.00
04955            -220.00     6800.00
04956            -220.00     6800.00
04957            -220.00     6800.00
04958            -220.00     6600.00
04959            -200.00     6400.00
04960            -200.00     6200.00
04961            -220.00     6200.00
04962            -180.00     6000.00
04963            -200.00     5800.00
04964            -200.00     5600.00
04965            -200.00     5400.00
04966            -200.00     5200.00
04967            -180.00     5200.00
04968            -180.00     4800.00
04969            -180.00     4800.00
04970            -180.00     4800.00
04971            -140.00     4400.00
04972            -160.00     4400.00
04973            -140.00     4200.00
04974            -160.00     4000.00
04975            -140.00     4000.00
04976            -140.00     3600.00
04977            -140.00     3600.00
04978            -120.00     3400.00
04979            -140.00     3200.00
04980            -140.00     3000.00
04981            -120.00     2800.00
04982            -120.00     2800.00
04983            -140.00     2400.00
04984            -120.00     2200.00
04985            -100.00     2200.00
04986            -100.00     2000.00
04987             -80.00     1600.00
04988            -100.00     1600.00
04989            -100.00     1400.00
04990            -100.00     1200.00
04991             -80.00      800.00
04992             -80.00      800.00
04993             -60.00      600.00
04994             -60.00      400.00
04995             -60.00      400.00
04996             -60.00      200.00
04997             -40.00        0.00
04998               0.00     -200.00
04999              60.00     -600.00
05000              80.00     -800.00
