Unit:(mV)
                     CH1         CH2
Frequency              ? 299.166 kHz
00001             200.00    -3400.00
00002             200.00    -3600.00
00003             -20.00    -3200.00
00004             200.00    -4000.00
00005             -20.00    -3800.00
00006             260.00    -4000.00
00007             260.00    -4200.00
00008            -120.00    -4400.00
00009              60.00    -5000.00
00010              20.00    -4600.00
00011              60.00    -5200.00
00012             180.00    -5200.00
00013             100.00    -5200.00
00014              40.00    -5800.00
00015             100.00    -5600.00
00016             220.00    -5800.00
00017              60.00    -6000.00
00018             100.00    -6000.00
00019             200.00    -6400.00
00020              80.00    -6400.00
00021             140.00    -6400.00
00022             120.00    -6600.00
00023              80.00    -6800.00
00024             180.00    -6800.00
00025             180.00    -7000.00
00026             120.00    -7200.00
00027             120.00    -7400.00
00028             200.00    -7200.00
00029             140.00    -7600.00
00030             140.00    -7400.00
00031             180.00    -7800.00
00032             140.00    -8000.00
00033             180.00    -8000.00
00034             180.00    -8000.00
00035             180.00    -8200.00
00036             180.00    -8200.00
00037             200.00    -8400.00
00038             180.00    -8400.00
00039             180.00    -8400.00
00040             200.00    -8600.00
00041             220.00    -8600.00
00042             200.00    -8800.00
00043             200.00    -8800.00
00044             200.00    -8800.00
00045             200.00    -9000.00
00046             220.00    -9000.00
00047             220.00    -9000.00
00048             220.00    -9200.00
00049             220.00    -9200.00
00050             200.00    -9200.00
00051             200.00    -9200.00
00052             240.00    -9200.00
00053             240.00    -9400.00
00054             220.00    -9200.00
00055             260.00    -9600.00
00056             220.00    -9400.00
00057             200.00    -9400.00
00058             220.00    -9600.00
00059             260.00    -9600.00
00060             240.00    -9800.00
00061             260.00    -9800.00
00062             260.00    -9600.00
00063             240.00    -9800.00
00064             240.00    -9600.00
00065             260.00    -9600.00
00066             260.00    -9600.00
00067             260.00    -9600.00
00068             260.00    -9600.00
00069             260.00    -9600.00
00070             260.00    -9600.00
00071             260.00    -9600.00
00072             260.00    -9600.00
00073             260.00    -9600.00
00074             260.00    -9600.00
00075             260.00    -9600.00
00076             260.00    -9600.00
00077             260.00    -9400.00
00078             220.00    -9400.00
00079             260.00    -9200.00
00080             260.00    -9200.00
00081             260.00    -9200.00
00082             260.00    -9200.00
00083             260.00    -9200.00
00084             220.00    -9000.00
00085             260.00    -9000.00
00086             260.00    -9000.00
00087             260.00    -8800.00
00088             260.00    -8800.00
00089             260.00    -8800.00
00090             240.00    -8800.00
00091             220.00    -8400.00
00092             260.00    -8400.00
00093             240.00    -8400.00
00094             220.00    -8400.00
00095             220.00    -8200.00
00096             220.00    -8000.00
00097             220.00    -8000.00
00098             220.00    -8000.00
00099             220.00    -7600.00
00100             220.00    -7600.00
00101             220.00    -7600.00
00102             220.00    -7400.00
00103             220.00    -7400.00
00104             200.00    -7200.00
00105             220.00    -7200.00
00106             220.00    -6800.00
00107             220.00    -6800.00
00108             200.00    -6600.00
00109             200.00    -6600.00
00110             180.00    -6400.00
00111             200.00    -6400.00
00112             200.00    -6200.00
00113             200.00    -6000.00
00114             200.00    -5800.00
00115             200.00    -5600.00
00116             180.00    -5600.00
00117             180.00    -5400.00
00118             180.00    -5200.00
00119             180.00    -5200.00
00120             180.00    -5000.00
00121             180.00    -4800.00
00122             180.00    -4400.00
00123             140.00    -4400.00
00124             160.00    -4200.00
00125             160.00    -4200.00
00126             180.00    -3800.00
00127             140.00    -3800.00
00128             140.00    -3800.00
00129             140.00    -3400.00
00130             120.00    -3400.00
00131             140.00    -3200.00
00132             140.00    -2800.00
00133             120.00    -2600.00
00134             120.00    -2600.00
00135             120.00    -2400.00
00136             120.00    -2000.00
00137             100.00    -2000.00
00138             100.00    -1800.00
00139             100.00    -1600.00
00140             100.00    -1600.00
00141             100.00    -1200.00
00142             100.00    -1200.00
00143              60.00    -1000.00
00144              80.00     -800.00
00145              60.00     -600.00
00146              60.00     -400.00
00147              60.00     -200.00
00148              60.00        0.00
00149              60.00        0.00
00150              60.00      400.00
00151             120.00      600.00
00152             140.00      600.00
00153             140.00      800.00
00154             120.00      800.00
00155             100.00     1200.00
00156             100.00     1200.00
00157             120.00     1600.00
00158             420.00     1600.00
00159            1000.00     2200.00
00160             580.00     2000.00
00161            -460.00     2200.00
00162           -1020.00     2200.00
00163           -1080.00     2600.00
00164             140.00     3000.00
00165             780.00     3000.00
00166            -360.00     3000.00
00167             -20.00     3200.00
00168             300.00     3200.00
00169            -360.00     4000.00
00170              40.00     3800.00
00171              40.00     3800.00
00172              40.00     4400.00
00173             220.00     3800.00
00174            -300.00     4600.00
00175             -40.00     5000.00
00176            -100.00     4400.00
00177            -140.00     5200.00
00178             120.00     5000.00
00179            -140.00     5200.00
00180             -20.00     5600.00
00181            -100.00     5200.00
00182            -100.00     6000.00
00183              20.00     5800.00
00184            -140.00     6000.00
00185             -60.00     6400.00
00186            -120.00     6200.00
00187             -60.00     6800.00
00188            -180.00     6400.00
00189            -140.00     6800.00
00190             -20.00     7000.00
00191            -120.00     7000.00
00192            -100.00     7400.00
00193            -120.00     7200.00
00194            -120.00     7600.00
00195            -140.00     7600.00
00196            -100.00     7600.00
00197            -140.00     7600.00
00198            -140.00     7600.00
00199            -140.00     8000.00
00200            -200.00     8000.00
00201            -120.00     8400.00
00202            -100.00     8400.00
00203            -180.00     8400.00
00204            -200.00     8600.00
00205            -180.00     8600.00
00206            -200.00     8800.00
00207            -180.00     8600.00
00208            -140.00     9000.00
00209            -220.00     8800.00
00210            -220.00     9000.00
00211            -200.00     9200.00
00212            -180.00     9200.00
00213            -200.00     9200.00
00214            -180.00     9200.00
00215            -220.00     9200.00
00216            -220.00     9400.00
00217            -200.00     9400.00
00218            -220.00     9600.00
00219            -220.00     9600.00
00220            -200.00     9600.00
00221            -200.00     9600.00
00222            -220.00     9600.00
00223            -220.00     9600.00
00224            -220.00     9800.00
00225            -240.00     9600.00
00226            -200.00     9600.00
00227            -220.00     9600.00
00228            -240.00     9800.00
00229            -220.00    10000.00
00230            -240.00     9800.00
00231            -240.00    10000.00
00232            -220.00     9600.00
00233            -220.00    10000.00
00234            -220.00    10000.00
00235            -220.00    10000.00
00236            -220.00    10000.00
00237            -260.00     9600.00
00238            -260.00     9800.00
00239            -260.00     9600.00
00240            -220.00     9600.00
00241            -240.00     9600.00
00242            -220.00     9600.00
00243            -240.00     9600.00
00244            -260.00     9600.00
00245            -220.00     9600.00
00246            -220.00     9600.00
00247            -240.00     9400.00
00248            -220.00     9400.00
00249            -220.00     9200.00
00250            -260.00     9400.00
00251            -240.00     9200.00
00252            -260.00     9200.00
00253            -220.00     9200.00
00254            -220.00     9200.00
00255            -220.00     9000.00
00256            -240.00     8800.00
00257            -260.00     9000.00
00258            -220.00     8800.00
00259            -220.00     8800.00
00260            -220.00     8600.00
00261            -220.00     8400.00
00262            -240.00     8400.00
00263            -220.00     8400.00
00264            -220.00     8200.00
00265            -220.00     8000.00
00266            -220.00     7800.00
00267            -220.00     7800.00
00268            -220.00     7600.00
00269            -220.00     7600.00
00270            -220.00     7400.00
00271            -220.00     7200.00
00272            -220.00     7200.00
00273            -200.00     7000.00
00274            -220.00     7000.00
00275            -220.00     6800.00
00276            -220.00     6800.00
00277            -200.00     6600.00
00278            -200.00     6400.00
00279            -200.00     6200.00
00280            -200.00     6200.00
00281            -200.00     6000.00
00282            -200.00     5800.00
00283            -200.00     5800.00
00284            -220.00     5400.00
00285            -180.00     5400.00
00286            -180.00     5200.00
00287            -180.00     5000.00
00288            -180.00     4800.00
00289            -180.00     4800.00
00290            -180.00     4600.00
00291            -180.00     4400.00
00292            -140.00     4400.00
00293            -160.00     4200.00
00294            -140.00     4000.00
00295            -140.00     3600.00
00296            -140.00     3600.00
00297            -140.00     3400.00
00298            -120.00     3200.00
00299            -120.00     3000.00
00300            -120.00     3000.00
00301            -120.00     2800.00
00302            -120.00     2600.00
00303            -120.00     2400.00
00304            -120.00     2200.00
00305            -100.00     2200.00
00306             -80.00     1800.00
00307             -80.00     1600.00
00308            -100.00     1600.00
00309            -100.00     1200.00
00310             -60.00     1200.00
00311             -60.00      800.00
00312             -60.00      800.00
00313             -60.00      600.00
00314             -60.00      600.00
00315             -40.00      200.00
00316             -40.00        0.00
00317             -40.00     -200.00
00318              20.00     -200.00
00319              80.00     -400.00
00320              60.00     -800.00
00321              40.00     -800.00
00322              40.00    -1000.00
00323              40.00    -1200.00
00324              40.00    -1200.00
00325             140.00    -1600.00
00326             520.00    -1600.00
00327             820.00    -2000.00
00328             220.00    -2200.00
00329            -520.00    -2400.00
00330            -740.00    -2600.00
00331            -760.00    -2400.00
00332             -40.00    -2600.00
00333             600.00    -3400.00
00334            -120.00    -2800.00
00335              40.00    -3200.00
00336             280.00    -3800.00
00337             -60.00    -3200.00
00338             200.00    -4000.00
00339              20.00    -4000.00
00340             120.00    -3800.00
00341             360.00    -4400.00
00342            -100.00    -4400.00
00343             -20.00    -4800.00
00344              60.00    -4800.00
00345              40.00    -5000.00
00346             180.00    -5200.00
00347             120.00    -5000.00
00348              40.00    -5600.00
00349              60.00    -5600.00
00350             220.00    -5800.00
00351             120.00    -6000.00
00352              40.00    -6000.00
00353             200.00    -6400.00
00354             100.00    -6200.00
00355             120.00    -6400.00
00356             140.00    -6600.00
00357              60.00    -6600.00
00358             160.00    -7000.00
00359             200.00    -6800.00
00360             120.00    -7200.00
00361             100.00    -7400.00
00362             200.00    -7400.00
00363             180.00    -7600.00
00364             160.00    -7600.00
00365             180.00    -7600.00
00366             140.00    -7800.00
00367             140.00    -8000.00
00368             200.00    -8000.00
00369             200.00    -8200.00
00370             180.00    -8200.00
00371             180.00    -8400.00
00372             200.00    -8400.00
00373             140.00    -8400.00
00374             200.00    -8600.00
00375             200.00    -8600.00
00376             200.00    -8800.00
00377             200.00    -8800.00
00378             200.00    -8800.00
00379             180.00    -9000.00
00380             220.00    -9000.00
00381             240.00    -9200.00
00382             220.00    -9200.00
00383             220.00    -9200.00
00384             220.00    -9200.00
00385             200.00    -9200.00
00386             220.00    -9600.00
00387             260.00    -9400.00
00388             220.00    -9400.00
00389             260.00    -9600.00
00390             260.00    -9600.00
00391             220.00    -9600.00
00392             240.00    -9600.00
00393             240.00    -9600.00
00394             260.00    -9600.00
00395             260.00    -9800.00
00396             260.00    -9800.00
00397             220.00    -9600.00
00398             220.00    -9800.00
00399             240.00    -9600.00
00400             240.00    -9600.00
00401             260.00    -9800.00
00402             260.00    -9600.00
00403             260.00    -9600.00
00404             220.00    -9600.00
00405             260.00    -9600.00
00406             220.00    -9600.00
00407             260.00    -9400.00
00408             260.00    -9600.00
00409             260.00    -9600.00
00410             260.00    -9600.00
00411             260.00    -9200.00
00412             260.00    -9200.00
00413             220.00    -9200.00
00414             260.00    -9200.00
00415             260.00    -9200.00
00416             260.00    -9200.00
00417             240.00    -9200.00
00418             240.00    -9200.00
00419             240.00    -9000.00
00420             260.00    -9000.00
00421             260.00    -9000.00
00422             260.00    -8800.00
00423             260.00    -8800.00
00424             220.00    -8800.00
00425             220.00    -8600.00
00426             220.00    -8400.00
00427             220.00    -8400.00
00428             260.00    -8400.00
00429             220.00    -8200.00
00430             220.00    -8200.00
00431             220.00    -8000.00
00432             220.00    -8000.00
00433             260.00    -7800.00
00434             220.00    -7600.00
00435             240.00    -7400.00
00436             220.00    -7400.00
00437             220.00    -7400.00
00438             200.00    -7200.00
00439             200.00    -7200.00
00440             220.00    -6800.00
00441             220.00    -6800.00
00442             200.00    -6800.00
00443             200.00    -6600.00
00444             200.00    -6400.00
00445             200.00    -6400.00
00446             200.00    -6000.00
00447             200.00    -6000.00
00448             200.00    -5800.00
00449             200.00    -5800.00
00450             180.00    -5600.00
00451             180.00    -5400.00
00452             180.00    -5200.00
00453             180.00    -5200.00
00454             180.00    -5000.00
00455             180.00    -4800.00
00456             180.00    -4800.00
00457             160.00    -4400.00
00458             180.00    -4200.00
00459             140.00    -4000.00
00460             140.00    -3800.00
00461             140.00    -3800.00
00462             140.00    -3800.00
00463             120.00    -3600.00
00464             120.00    -3400.00
00465             120.00    -3200.00
00466             120.00    -2800.00
00467             120.00    -2800.00
00468             120.00    -2600.00
00469             100.00    -2400.00
00470             120.00    -2400.00
00471             100.00    -2000.00
00472             100.00    -2000.00
00473             100.00    -1800.00
00474             100.00    -1600.00
00475              80.00    -1400.00
00476             100.00    -1200.00
00477             100.00    -1000.00
00478              60.00    -1000.00
00479              60.00     -800.00
00480              60.00     -400.00
00481              60.00     -200.00
00482              40.00        0.00
00483              60.00      200.00
00484              40.00      400.00
00485             100.00      400.00
00486             140.00      600.00
00487             140.00      800.00
00488             120.00      800.00
00489             100.00     1200.00
00490             100.00     1200.00
00491             100.00     1600.00
00492             280.00     1600.00
00493             900.00     2000.00
00494             780.00     2200.00
00495            -200.00     2200.00
00496            -920.00     2200.00
00497           -1160.00     2600.00
00498            -280.00     3000.00
00499             860.00     3000.00
00500            -100.00     2800.00
00501            -260.00     3200.00
00502             360.00     3000.00
00503            -220.00     3800.00
00504            -120.00     4000.00
00505             100.00     3600.00
00506             -40.00     4600.00
00507             260.00     4000.00
00508            -220.00     4000.00
00509            -140.00     5200.00
00510              20.00     4400.00
00511            -200.00     5000.00
00512             120.00     5200.00
00513             -60.00     4800.00
00514             -60.00     5600.00
00515             -40.00     5400.00
00516            -140.00     6000.00
00517              40.00     6000.00
00518            -120.00     6000.00
00519             -60.00     6400.00
00520            -100.00     6000.00
00521             -60.00     6600.00
00522            -120.00     6400.00
00523            -200.00     6600.00
00524             -40.00     7200.00
00525            -100.00     6800.00
00526            -100.00     7200.00
00527            -120.00     7200.00
00528            -140.00     7600.00
00529            -160.00     7600.00
00530            -120.00     7800.00
00531            -120.00     7800.00
00532            -200.00     7600.00
00533            -120.00     8000.00
00534            -200.00     8000.00
00535            -160.00     8000.00
00536            -120.00     8400.00
00537            -140.00     8400.00
00538            -220.00     8600.00
00539            -200.00     8600.00
00540            -180.00     9000.00
00541            -180.00     8600.00
00542            -140.00     9000.00
00543            -200.00     9200.00
00544            -220.00     9000.00
00545            -220.00     9200.00
00546            -180.00     9200.00
00547            -200.00     9200.00
00548            -180.00     9200.00
00549            -200.00     9400.00
00550            -220.00     9400.00
00551            -220.00     9400.00
00552            -200.00     9400.00
00553            -220.00     9600.00
00554            -220.00     9600.00
00555            -200.00     9600.00
00556            -220.00     9600.00
00557            -240.00     9600.00
00558            -220.00     9600.00
00559            -240.00     9600.00
00560            -220.00     9800.00
00561            -200.00    10000.00
00562            -240.00    10000.00
00563            -260.00     9800.00
00564            -220.00     9800.00
00565            -220.00    10000.00
00566            -220.00    10000.00
00567            -220.00     9800.00
00568            -240.00    10000.00
00569            -220.00     9800.00
00570            -220.00     9800.00
00571            -240.00    10000.00
00572            -260.00     9800.00
00573            -240.00     9800.00
00574            -220.00     9600.00
00575            -220.00     9600.00
00576            -220.00     9600.00
00577            -220.00     9600.00
00578            -260.00     9600.00
00579            -260.00     9600.00
00580            -220.00     9600.00
00581            -220.00     9600.00
00582            -220.00     9400.00
00583            -260.00     9400.00
00584            -240.00     9400.00
00585            -240.00     9400.00
00586            -240.00     9200.00
00587            -220.00     9200.00
00588            -220.00     9000.00
00589            -220.00     9200.00
00590            -260.00     9000.00
00591            -260.00     8800.00
00592            -240.00     9000.00
00593            -220.00     8600.00
00594            -220.00     8800.00
00595            -220.00     8400.00
00596            -240.00     8400.00
00597            -240.00     8200.00
00598            -220.00     8200.00
00599            -220.00     8000.00
00600            -220.00     8000.00
00601            -220.00     7800.00
00602            -220.00     7600.00
00603            -220.00     7600.00
00604            -220.00     7600.00
00605            -220.00     7400.00
00606            -220.00     7200.00
00607            -200.00     7000.00
00608            -220.00     7000.00
00609            -220.00     6800.00
00610            -200.00     6800.00
00611            -220.00     6600.00
00612            -200.00     6400.00
00613            -200.00     6400.00
00614            -200.00     6200.00
00615            -200.00     6000.00
00616            -180.00     6000.00
00617            -200.00     5800.00
00618            -200.00     5600.00
00619            -180.00     5400.00
00620            -180.00     5200.00
00621            -180.00     5200.00
00622            -180.00     4800.00
00623            -180.00     4800.00
00624            -180.00     4600.00
00625            -160.00     4600.00
00626            -140.00     4400.00
00627            -140.00     4200.00
00628            -140.00     4000.00
00629            -140.00     3800.00
00630            -140.00     3800.00
00631            -120.00     3600.00
00632            -140.00     3400.00
00633            -120.00     3000.00
00634            -120.00     3000.00
00635            -120.00     2800.00
00636            -120.00     2600.00
00637            -120.00     2400.00
00638            -120.00     2200.00
00639            -100.00     2000.00
00640            -100.00     1800.00
00641            -100.00     1600.00
00642             -80.00     1400.00
00643            -100.00     1200.00
00644             -60.00     1200.00
00645             -60.00     1000.00
00646             -60.00      800.00
00647             -60.00      600.00
00648             -60.00      400.00
00649             -40.00      200.00
00650             -60.00        0.00
00651             -40.00        0.00
00652               0.00     -200.00
00653              60.00     -400.00
00654             100.00     -800.00
00655              40.00     -800.00
00656              40.00    -1000.00
00657              40.00    -1000.00
00658              40.00    -1200.00
00659             100.00    -1400.00
00660             380.00    -1600.00
00661             820.00    -2000.00
00662             440.00    -2400.00
00663            -360.00    -2400.00
00664            -700.00    -2600.00
00665            -780.00    -2400.00
00666            -340.00    -2400.00
00667             580.00    -3000.00
00668              60.00    -3200.00
00669            -120.00    -2800.00
00670             340.00    -3600.00
00671             -20.00    -3200.00
00672             120.00    -3600.00
00673             100.00    -4200.00
00674              20.00    -3800.00
00675             360.00    -4200.00
00676              40.00    -4400.00
00677            -100.00    -4800.00
00678             100.00    -4800.00
00679             -20.00    -4800.00
00680             140.00    -5200.00
00681             140.00    -5000.00
00682              40.00    -5600.00
00683              40.00    -5600.00
00684             180.00    -5600.00
00685             180.00    -6000.00
00686              20.00    -6000.00
00687             180.00    -6200.00
00688             140.00    -6200.00
00689             100.00    -6400.00
00690             180.00    -6600.00
00691             100.00    -6600.00
00692             120.00    -6800.00
00693             200.00    -6800.00
00694             180.00    -7000.00
00695             100.00    -7400.00
00696             180.00    -7200.00
00697             180.00    -7600.00
00698             140.00    -7400.00
00699             180.00    -7600.00
00700             160.00    -7800.00
00701             140.00    -8000.00
00702             180.00    -8000.00
00703             200.00    -8000.00
00704             180.00    -8400.00
00705             200.00    -8400.00
00706             200.00    -8200.00
00707             180.00    -8400.00
00708             200.00    -8400.00
00709             220.00    -8600.00
00710             200.00    -8800.00
00711             220.00    -8800.00
00712             200.00    -9000.00
00713             200.00    -8800.00
00714             200.00    -8800.00
00715             240.00    -9200.00
00716             220.00    -9200.00
00717             200.00    -9200.00
00718             220.00    -9200.00
00719             200.00    -9200.00
00720             220.00    -9200.00
00721             220.00    -9200.00
00722             260.00    -9600.00
00723             240.00    -9400.00
00724             260.00    -9600.00
00725             220.00    -9600.00
00726             220.00    -9600.00
00727             220.00    -9800.00
00728             260.00    -9600.00
00729             260.00    -9600.00
00730             240.00    -9800.00
00731             220.00    -9600.00
00732             220.00    -9600.00
00733             240.00    -9800.00
00734             220.00    -9600.00
00735             260.00    -9800.00
00736             260.00    -9600.00
00737             260.00    -9600.00
00738             240.00    -9800.00
00739             220.00    -9600.00
00740             260.00    -9600.00
00741             240.00    -9600.00
00742             260.00    -9600.00
00743             260.00    -9600.00
00744             240.00    -9600.00
00745             260.00    -9400.00
00746             240.00    -9400.00
00747             260.00    -9400.00
00748             260.00    -9200.00
00749             260.00    -9200.00
00750             260.00    -9200.00
00751             260.00    -9000.00
00752             260.00    -9000.00
00753             240.00    -9000.00
00754             260.00    -8800.00
00755             260.00    -9000.00
00756             260.00    -8800.00
00757             260.00    -8800.00
00758             220.00    -8800.00
00759             220.00    -8600.00
00760             220.00    -8400.00
00761             240.00    -8400.00
00762             260.00    -8200.00
00763             260.00    -8200.00
00764             220.00    -8200.00
00765             220.00    -8000.00
00766             220.00    -7800.00
00767             220.00    -7800.00
00768             240.00    -7600.00
00769             220.00    -7600.00
00770             240.00    -7400.00
00771             220.00    -7400.00
00772             200.00    -7400.00
00773             220.00    -7200.00
00774             220.00    -7200.00
00775             220.00    -6800.00
00776             200.00    -6800.00
00777             220.00    -6600.00
00778             200.00    -6400.00
00779             200.00    -6400.00
00780             200.00    -6200.00
00781             200.00    -6000.00
00782             200.00    -6000.00
00783             200.00    -5800.00
00784             180.00    -5600.00
00785             180.00    -5600.00
00786             180.00    -5400.00
00787             180.00    -5000.00
00788             180.00    -5000.00
00789             180.00    -4800.00
00790             180.00    -4800.00
00791             180.00    -4400.00
00792             140.00    -4400.00
00793             140.00    -4200.00
00794             140.00    -4000.00
00795             140.00    -3800.00
00796             140.00    -3600.00
00797             120.00    -3400.00
00798             140.00    -3400.00
00799             120.00    -3200.00
00800             120.00    -3000.00
00801             120.00    -2800.00
00802             120.00    -2600.00
00803             120.00    -2600.00
00804             100.00    -2400.00
00805             100.00    -2000.00
00806             100.00    -2000.00
00807             100.00    -1800.00
00808             100.00    -1600.00
00809             100.00    -1600.00
00810             100.00    -1200.00
00811              60.00    -1200.00
00812              60.00    -1000.00
00813              60.00     -800.00
00814              60.00     -400.00
00815              60.00     -400.00
00816              60.00        0.00
00817              40.00        0.00
00818              40.00      400.00
00819              60.00      400.00
00820             120.00      600.00
00821             160.00      600.00
00822             120.00      800.00
00823             120.00     1200.00
00824             100.00     1200.00
00825             100.00     1400.00
00826             180.00     1600.00
00827             740.00     2000.00
00828             940.00     2200.00
00829              60.00     2200.00
00830            -820.00     2200.00
00831           -1120.00     2400.00
00832            -680.00     2800.00
00833             760.00     3000.00
00834             260.00     2800.00
00835            -420.00     3400.00
00836             340.00     3000.00
00837             -60.00     3600.00
00838            -280.00     4000.00
00839             140.00     3600.00
00840             -60.00     4400.00
00841             260.00     4400.00
00842             -40.00     4000.00
00843            -260.00     5000.00
00844              40.00     4600.00
00845            -220.00     4800.00
00846              40.00     5400.00
00847              20.00     4800.00
00848            -140.00     5600.00
00849             -20.00     5400.00
00850            -160.00     5600.00
00851              20.00     6000.00
00852             -60.00     6000.00
00853            -120.00     6400.00
00854             -60.00     6200.00
00855            -100.00     6600.00
00856            -100.00     6600.00
00857            -220.00     6600.00
00858             -60.00     7000.00
00859             -80.00     6800.00
00860            -120.00     7000.00
00861            -100.00     7200.00
00862            -140.00     7400.00
00863            -140.00     7600.00
00864            -140.00     7600.00
00865            -100.00     7800.00
00866            -200.00     7600.00
00867            -140.00     8000.00
00868            -180.00     8000.00
00869            -180.00     8000.00
00870            -120.00     8400.00
00871            -160.00     8400.00
00872            -200.00     8400.00
00873            -200.00     8600.00
00874            -180.00     8800.00
00875            -200.00     8600.00
00876            -140.00     8800.00
00877            -200.00     9000.00
00878            -220.00     8800.00
00879            -200.00     9000.00
00880            -180.00     9200.00
00881            -200.00     9400.00
00882            -200.00     9200.00
00883            -200.00     9400.00
00884            -220.00     9400.00
00885            -220.00     9400.00
00886            -220.00     9600.00
00887            -200.00     9400.00
00888            -220.00     9600.00
00889            -200.00     9600.00
00890            -200.00     9600.00
00891            -220.00     9600.00
00892            -240.00     9800.00
00893            -220.00     9600.00
00894            -220.00     9800.00
00895            -220.00    10000.00
00896            -220.00     9800.00
00897            -220.00     9800.00
00898            -220.00    10000.00
00899            -240.00    10000.00
00900            -220.00     9800.00
00901            -220.00    10000.00
00902            -220.00    10000.00
00903            -220.00    10000.00
00904            -220.00    10000.00
00905            -220.00    10000.00
00906            -260.00     9600.00
00907            -220.00     9800.00
00908            -220.00     9600.00
00909            -220.00     9800.00
00910            -220.00     9600.00
00911            -220.00     9600.00
00912            -260.00     9600.00
00913            -220.00     9600.00
00914            -220.00     9600.00
00915            -220.00     9400.00
00916            -220.00     9400.00
00917            -220.00     9400.00
00918            -240.00     9400.00
00919            -260.00     9200.00
00920            -240.00     9200.00
00921            -240.00     9200.00
00922            -220.00     9200.00
00923            -220.00     9000.00
00924            -260.00     8800.00
00925            -220.00     9000.00
00926            -240.00     8800.00
00927            -220.00     8600.00
00928            -220.00     8600.00
00929            -220.00     8600.00
00930            -220.00     8400.00
00931            -240.00     8400.00
00932            -220.00     8400.00
00933            -220.00     8000.00
00934            -220.00     8000.00
00935            -220.00     7800.00
00936            -220.00     7800.00
00937            -220.00     7600.00
00938            -220.00     7600.00
00939            -220.00     7400.00
00940            -220.00     7200.00
00941            -200.00     7200.00
00942            -200.00     7000.00
00943            -220.00     7000.00
00944            -200.00     6800.00
00945            -220.00     6800.00
00946            -200.00     6600.00
00947            -200.00     6400.00
00948            -200.00     6200.00
00949            -200.00     6000.00
00950            -200.00     6000.00
00951            -200.00     5800.00
00952            -200.00     5600.00
00953            -200.00     5400.00
00954            -180.00     5400.00
00955            -140.00     5200.00
00956            -180.00     5000.00
00957            -160.00     4800.00
00958            -180.00     4800.00
00959            -180.00     4600.00
00960            -140.00     4400.00
00961            -140.00     4200.00
00962            -140.00     4000.00
00963            -140.00     4000.00
00964            -140.00     3600.00
00965            -120.00     3800.00
00966            -120.00     3400.00
00967            -120.00     3200.00
00968            -120.00     3000.00
00969            -120.00     2800.00
00970            -120.00     2800.00
00971            -120.00     2400.00
00972            -120.00     2600.00
00973            -120.00     2200.00
00974             -80.00     2000.00
00975            -100.00     1600.00
00976             -60.00     1600.00
00977            -100.00     1400.00
00978             -80.00     1200.00
00979             -60.00     1200.00
00980             -80.00      800.00
00981             -40.00      600.00
00982             -40.00      600.00
00983             -40.00      400.00
00984             -40.00      200.00
00985             -40.00        0.00
00986             -20.00     -200.00
00987              40.00     -400.00
00988             100.00     -600.00
00989              40.00     -600.00
00990              20.00    -1000.00
00991              20.00    -1200.00
00992              20.00    -1200.00
00993              60.00    -1200.00
00994             280.00    -1400.00
00995             740.00    -1800.00
00996             620.00    -2400.00
00997            -140.00    -2400.00
00998            -700.00    -2400.00
00999            -760.00    -2600.00
01000            -600.00    -2400.00
01001             420.00    -2800.00
01002             300.00    -3000.00
01003            -220.00    -2800.00
01004             280.00    -3600.00
01005             100.00    -3600.00
01006              20.00    -3400.00
01007             180.00    -4200.00
01008             -40.00    -3800.00
01009             300.00    -4200.00
01010             180.00    -4200.00
01011            -140.00    -4400.00
01012              80.00    -4800.00
01013             -20.00    -4800.00
01014             120.00    -5200.00
01015             200.00    -5200.00
01016              80.00    -5200.00
01017              40.00    -5600.00
01018             120.00    -5400.00
01019             220.00    -6000.00
01020              40.00    -6000.00
01021             140.00    -6000.00
01022             180.00    -6400.00
01023              80.00    -6200.00
01024             140.00    -6400.00
01025             120.00    -6600.00
01026             100.00    -6800.00
01027             200.00    -6800.00
01028             180.00    -7000.00
01029             120.00    -7200.00
01030             160.00    -7200.00
01031             200.00    -7400.00
01032             140.00    -7600.00
01033             180.00    -7600.00
01034             160.00    -7600.00
01035             140.00    -7800.00
01036             180.00    -8000.00
01037             200.00    -8000.00
01038             200.00    -8200.00
01039             200.00    -8200.00
01040             200.00    -8400.00
01041             180.00    -8400.00
01042             200.00    -8400.00
01043             200.00    -8600.00
01044             200.00    -8800.00
01045             200.00    -8800.00
01046             200.00    -8800.00
01047             200.00    -9000.00
01048             200.00    -9000.00
01049             240.00    -9000.00
01050             220.00    -9200.00
01051             220.00    -9200.00
01052             220.00    -9200.00
01053             200.00    -9200.00
01054             200.00    -9200.00
01055             220.00    -9200.00
01056             240.00    -9200.00
01057             220.00    -9600.00
01058             220.00    -9600.00
01059             220.00    -9600.00
01060             200.00    -9600.00
01061             220.00    -9600.00
01062             260.00    -9600.00
01063             260.00    -9800.00
01064             240.00    -9800.00
01065             260.00    -9600.00
01066             220.00    -9600.00
01067             260.00    -9800.00
01068             260.00    -9600.00
01069             260.00    -9800.00
01070             260.00    -9600.00
01071             260.00    -9800.00
01072             240.00    -9600.00
01073             220.00    -9600.00
01074             240.00    -9600.00
01075             260.00    -9600.00
01076             260.00    -9800.00
01077             260.00    -9600.00
01078             260.00    -9600.00
01079             220.00    -9400.00
01080             260.00    -9600.00
01081             240.00    -9200.00
01082             240.00    -9200.00
01083             260.00    -9200.00
01084             260.00    -9200.00
01085             260.00    -9000.00
01086             260.00    -9000.00
01087             240.00    -9000.00
01088             260.00    -9000.00
01089             260.00    -8800.00
01090             260.00    -8800.00
01091             260.00    -8800.00
01092             220.00    -8600.00
01093             240.00    -8600.00
01094             260.00    -8400.00
01095             260.00    -8400.00
01096             260.00    -8400.00
01097             260.00    -8200.00
01098             260.00    -8200.00
01099             220.00    -8000.00
01100             220.00    -8000.00
01101             240.00    -8000.00
01102             220.00    -7600.00
01103             220.00    -7600.00
01104             220.00    -7600.00
01105             220.00    -7400.00
01106             220.00    -7200.00
01107             220.00    -7200.00
01108             220.00    -7200.00
01109             220.00    -6800.00
01110             220.00    -6600.00
01111             200.00    -6600.00
01112             220.00    -6600.00
01113             200.00    -6400.00
01114             200.00    -6200.00
01115             200.00    -6000.00
01116             200.00    -6000.00
01117             200.00    -5800.00
01118             180.00    -5600.00
01119             180.00    -5600.00
01120             180.00    -5400.00
01121             180.00    -5200.00
01122             180.00    -5000.00
01123             180.00    -5000.00
01124             180.00    -4800.00
01125             140.00    -4400.00
01126             140.00    -4400.00
01127             180.00    -4200.00
01128             140.00    -4200.00
01129             160.00    -4000.00
01130             140.00    -3800.00
01131             140.00    -3600.00
01132             140.00    -3400.00
01133             120.00    -3200.00
01134             120.00    -3200.00
01135             120.00    -2800.00
01136             120.00    -2600.00
01137             120.00    -2600.00
01138             100.00    -2400.00
01139             120.00    -2000.00
01140             100.00    -1800.00
01141             100.00    -2000.00
01142             100.00    -1800.00
01143             100.00    -1600.00
01144             100.00    -1200.00
01145              80.00    -1000.00
01146              80.00    -1000.00
01147              60.00     -800.00
01148              60.00     -400.00
01149              80.00     -400.00
01150              80.00     -200.00
01151              80.00        0.00
01152              60.00        0.00
01153              60.00      400.00
01154             100.00      600.00
01155             180.00      600.00
01156             140.00      800.00
01157             120.00     1000.00
01158             100.00     1200.00
01159             100.00     1400.00
01160             140.00     1600.00
01161             560.00     1800.00
01162            1000.00     2200.00
01163             380.00     2200.00
01164            -620.00     2200.00
01165           -1080.00     2400.00
01166            -940.00     2800.00
01167             440.00     3000.00
01168             620.00     2800.00
01169            -440.00     3200.00
01170             180.00     3200.00
01171             180.00     3400.00
01172            -360.00     4000.00
01173             120.00     3600.00
01174             -20.00     4000.00
01175             160.00     4400.00
01176             120.00     3800.00
01177            -300.00     4800.00
01178              20.00     4800.00
01179            -160.00     4400.00
01180             -40.00     5400.00
01181             100.00     4800.00
01182            -180.00     5200.00
01183               0.00     5600.00
01184            -140.00     5400.00
01185             -60.00     6000.00
01186             -20.00     5600.00
01187            -140.00     6400.00
01188             -60.00     6000.00
01189            -120.00     6400.00
01190             -60.00     6800.00
01191            -200.00     6400.00
01192            -100.00     7000.00
01193             -60.00     7000.00
01194            -120.00     7000.00
01195            -120.00     7400.00
01196            -140.00     7200.00
01197            -140.00     7600.00
01198            -180.00     7600.00
01199            -100.00     7800.00
01200            -180.00     7600.00
01201            -140.00     7800.00
01202            -180.00     8000.00
01203            -200.00     8000.00
01204            -120.00     8400.00
01205            -140.00     8400.00
01206            -180.00     8400.00
01207            -200.00     8600.00
01208            -200.00     8800.00
01209            -200.00     8800.00
01210            -180.00     9000.00
01211            -140.00     9000.00
01212            -220.00     9000.00
01213            -220.00     9000.00
01214            -200.00     9200.00
01215            -180.00     9200.00
01216            -200.00     9200.00
01217            -180.00     9400.00
01218            -220.00     9400.00
01219            -220.00     9400.00
01220            -220.00     9400.00
01221            -220.00     9600.00
01222            -220.00     9600.00
01223            -200.00     9600.00
01224            -200.00     9800.00
01225            -220.00     9600.00
01226            -220.00     9800.00
01227            -240.00     9600.00
01228            -220.00     9800.00
01229            -200.00    10000.00
01230            -220.00     9800.00
01231            -220.00     9600.00
01232            -220.00     9800.00
01233            -240.00    10000.00
01234            -220.00     9800.00
01235            -240.00    10000.00
01236            -220.00    10000.00
01237            -220.00    10000.00
01238            -220.00    10000.00
01239            -240.00     9800.00
01240            -260.00     9800.00
01241            -240.00     9800.00
01242            -220.00     9800.00
01243            -240.00     9800.00
01244            -220.00     9800.00
01245            -220.00     9600.00
01246            -260.00     9800.00
01247            -260.00     9600.00
01248            -220.00     9600.00
01249            -240.00     9400.00
01250            -220.00     9400.00
01251            -220.00     9400.00
01252            -240.00     9400.00
01253            -240.00     9200.00
01254            -240.00     9200.00
01255            -260.00     9200.00
01256            -220.00     9200.00
01257            -220.00     9000.00
01258            -260.00     9000.00
01259            -260.00     9000.00
01260            -220.00     8800.00
01261            -220.00     8800.00
01262            -220.00     8600.00
01263            -220.00     8400.00
01264            -220.00     8400.00
01265            -240.00     8400.00
01266            -220.00     8400.00
01267            -220.00     8000.00
01268            -220.00     8000.00
01269            -220.00     8000.00
01270            -200.00     7800.00
01271            -220.00     7800.00
01272            -220.00     7600.00
01273            -220.00     7600.00
01274            -220.00     7400.00
01275            -200.00     7200.00
01276            -200.00     7200.00
01277            -200.00     7000.00
01278            -200.00     7000.00
01279            -200.00     6800.00
01280            -200.00     6600.00
01281            -180.00     6400.00
01282            -200.00     6400.00
01283            -200.00     6200.00
01284            -180.00     6000.00
01285            -200.00     5600.00
01286            -200.00     5800.00
01287            -180.00     5400.00
01288            -160.00     5400.00
01289            -140.00     5200.00
01290            -180.00     5200.00
01291            -180.00     4800.00
01292            -180.00     4800.00
01293            -180.00     4600.00
01294            -180.00     4600.00
01295            -140.00     4400.00
01296            -140.00     4000.00
01297            -140.00     4000.00
01298            -140.00     3800.00
01299            -140.00     3800.00
01300            -140.00     3200.00
01301            -120.00     3200.00
01302            -120.00     3000.00
01303            -120.00     2800.00
01304            -120.00     2800.00
01305            -100.00     2400.00
01306            -120.00     2400.00
01307            -100.00     2200.00
01308            -100.00     2000.00
01309            -100.00     1600.00
01310             -60.00     1600.00
01311            -100.00     1400.00
01312             -60.00     1400.00
01313             -60.00     1200.00
01314             -60.00      800.00
01315             -80.00      800.00
01316             -60.00      400.00
01317             -60.00      400.00
01318             -40.00      200.00
01319             -60.00        0.00
01320             -20.00     -200.00
01321              20.00     -400.00
01322              60.00     -600.00
01323              40.00     -800.00
01324              40.00     -800.00
01325              40.00    -1000.00
01326              20.00    -1200.00
01327              40.00    -1200.00
01328             180.00    -1400.00
01329             620.00    -1600.00
01330             760.00    -2200.00
01331              60.00    -2400.00
01332            -600.00    -2400.00
01333            -740.00    -2600.00
01334            -720.00    -2400.00
01335             180.00    -2600.00
01336             520.00    -3200.00
01337            -200.00    -2800.00
01338             160.00    -3400.00
01339             200.00    -3600.00
01340             -40.00    -3200.00
01341             200.00    -4000.00
01342             -20.00    -4000.00
01343             200.00    -4000.00
01344             280.00    -4400.00
01345            -120.00    -4200.00
01346              40.00    -4800.00
01347              40.00    -4400.00
01348              60.00    -5000.00
01349             200.00    -5000.00
01350             100.00    -5200.00
01351              40.00    -5600.00
01352             100.00    -5400.00
01353             220.00    -5600.00
01354             100.00    -6000.00
01355             100.00    -5800.00
01356             220.00    -6200.00
01357              80.00    -6000.00
01358             120.00    -6400.00
01359             140.00    -6600.00
01360             100.00    -6800.00
01361             180.00    -6800.00
01362             200.00    -6800.00
01363             140.00    -7200.00
01364             120.00    -7200.00
01365             200.00    -7400.00
01366             180.00    -7400.00
01367             140.00    -7600.00
01368             180.00    -7600.00
01369             140.00    -7800.00
01370             160.00    -8000.00
01371             200.00    -8000.00
01372             200.00    -8200.00
01373             180.00    -8200.00
01374             200.00    -8200.00
01375             180.00    -8400.00
01376             180.00    -8400.00
01377             220.00    -8600.00
01378             200.00    -8800.00
01379             200.00    -8800.00
01380             180.00    -8800.00
01381             180.00    -9000.00
01382             180.00    -9000.00
01383             220.00    -9000.00
01384             260.00    -9200.00
01385             200.00    -9200.00
01386             200.00    -9200.00
01387             200.00    -9200.00
01388             180.00    -9400.00
01389             220.00    -9200.00
01390             240.00    -9400.00
01391             220.00    -9400.00
01392             260.00    -9600.00
01393             220.00    -9600.00
01394             220.00    -9600.00
01395             220.00    -9600.00
01396             240.00    -9600.00
01397             240.00    -9800.00
01398             240.00    -9600.00
01399             260.00    -9800.00
01400             220.00    -9800.00
01401             240.00    -9800.00
01402             220.00    -9600.00
01403             220.00    -9800.00
01404             260.00    -9600.00
01405             260.00    -9600.00
01406             260.00    -9600.00
01407             240.00    -9600.00
01408             260.00    -9600.00
01409             260.00    -9600.00
01410             260.00    -9600.00
01411             260.00    -9600.00
01412             260.00    -9400.00
01413             240.00    -9400.00
01414             260.00    -9200.00
01415             260.00    -9200.00
01416             260.00    -9200.00
01417             280.00    -9200.00
01418             260.00    -9200.00
01419             260.00    -9000.00
01420             260.00    -9200.00
01421             260.00    -9000.00
01422             260.00    -9000.00
01423             260.00    -9000.00
01424             260.00    -8800.00
01425             260.00    -8800.00
01426             260.00    -8800.00
01427             240.00    -8800.00
01428             260.00    -8600.00
01429             260.00    -8400.00
01430             260.00    -8400.00
01431             260.00    -8200.00
01432             240.00    -8200.00
01433             220.00    -8000.00
01434             260.00    -8000.00
01435             220.00    -8000.00
01436             260.00    -7600.00
01437             220.00    -7600.00
01438             220.00    -7600.00
01439             220.00    -7400.00
01440             220.00    -7200.00
01441             220.00    -7200.00
01442             220.00    -6800.00
01443             200.00    -7000.00
01444             220.00    -6800.00
01445             220.00    -6600.00
01446             200.00    -6600.00
01447             200.00    -6600.00
01448             200.00    -6200.00
01449             200.00    -6000.00
01450             180.00    -6000.00
01451             200.00    -5800.00
01452             200.00    -5800.00
01453             180.00    -5800.00
01454             180.00    -5400.00
01455             180.00    -5200.00
01456             180.00    -5200.00
01457             180.00    -5000.00
01458             180.00    -4800.00
01459             160.00    -4800.00
01460             140.00    -4400.00
01461             140.00    -4200.00
01462             140.00    -4200.00
01463             160.00    -3800.00
01464             140.00    -3800.00
01465             140.00    -3600.00
01466             140.00    -3400.00
01467             120.00    -3400.00
01468             120.00    -3200.00
01469             120.00    -2800.00
01470             140.00    -2800.00
01471             120.00    -2600.00
01472             100.00    -2400.00
01473             100.00    -2200.00
01474             100.00    -2000.00
01475             100.00    -1800.00
01476             100.00    -1600.00
01477             100.00    -1400.00
01478             100.00    -1200.00
01479             100.00    -1000.00
01480              80.00    -1000.00
01481             100.00     -800.00
01482              60.00     -600.00
01483             100.00     -400.00
01484              80.00     -200.00
01485              60.00        0.00
01486              60.00        0.00
01487              60.00      400.00
01488             120.00      400.00
01489             180.00      600.00
01490             140.00      800.00
01491             120.00     1000.00
01492             100.00     1200.00
01493             100.00     1400.00
01494             120.00     1400.00
01495             380.00     1600.00
01496             980.00     2200.00
01497             660.00     2200.00
01498            -380.00     2400.00
01499           -1000.00     2400.00
01500           -1100.00     2600.00
01501              40.00     3000.00
01502             840.00     3000.00
01503            -280.00     3200.00
01504             -60.00     3200.00
01505             340.00     3200.00
01506            -340.00     4200.00
01507             -20.00     3800.00
01508              40.00     3600.00
01509              40.00     4600.00
01510             220.00     3800.00
01511            -280.00     4400.00
01512             -60.00     5000.00
01513             -60.00     4400.00
01514            -180.00     5200.00
01515             120.00     5200.00
01516            -140.00     5000.00
01517             -60.00     5600.00
01518            -100.00     5200.00
01519            -100.00     5600.00
01520              20.00     5800.00
01521            -140.00     6200.00
01522             -60.00     6200.00
01523            -100.00     6000.00
01524             -60.00     6800.00
01525            -180.00     6400.00
01526            -180.00     6800.00
01527             -40.00     7000.00
01528            -120.00     6800.00
01529            -100.00     7200.00
01530            -140.00     7200.00
01531            -140.00     7600.00
01532            -140.00     7600.00
01533            -120.00     7600.00
01534            -140.00     7800.00
01535            -180.00     7800.00
01536            -140.00     8000.00
01537            -220.00     7800.00
01538            -120.00     8400.00
01539            -120.00     8400.00
01540            -140.00     8400.00
01541            -220.00     8600.00
01542            -180.00     8600.00
01543            -200.00     8600.00
01544            -180.00     8800.00
01545            -140.00     9000.00
01546            -220.00     9000.00
01547            -220.00     9000.00
01548            -200.00     9200.00
01549            -140.00     9200.00
01550            -200.00     9200.00
01551            -180.00     9400.00
01552            -200.00     9400.00
01553            -220.00     9600.00
01554            -200.00     9400.00
01555            -220.00     9600.00
01556            -220.00     9600.00
01557            -200.00     9600.00
01558            -180.00     9600.00
01559            -220.00     9600.00
01560            -220.00     9600.00
01561            -240.00     9800.00
01562            -220.00     9800.00
01563            -200.00    10000.00
01564            -220.00     9800.00
01565            -220.00     9800.00
01566            -220.00    10000.00
01567            -220.00    10000.00
01568            -240.00     9800.00
01569            -240.00    10000.00
01570            -220.00     9800.00
01571            -220.00     9800.00
01572            -220.00    10000.00
01573            -220.00    10000.00
01574            -260.00    10000.00
01575            -260.00     9800.00
01576            -240.00     9600.00
01577            -220.00     9600.00
01578            -240.00     9600.00
01579            -260.00     9600.00
01580            -260.00     9600.00
01581            -260.00     9600.00
01582            -220.00     9600.00
01583            -220.00     9400.00
01584            -240.00     9600.00
01585            -260.00     9400.00
01586            -240.00     9400.00
01587            -260.00     9200.00
01588            -260.00     9400.00
01589            -260.00     9200.00
01590            -240.00     9200.00
01591            -220.00     9000.00
01592            -240.00     8800.00
01593            -260.00     8800.00
01594            -240.00     8800.00
01595            -240.00     8800.00
01596            -220.00     8600.00
01597            -240.00     8600.00
01598            -260.00     8600.00
01599            -220.00     8400.00
01600            -260.00     8200.00
01601            -220.00     8200.00
01602            -220.00     8000.00
01603            -220.00     8000.00
01604            -220.00     7800.00
01605            -220.00     7800.00
01606            -220.00     7800.00
01607            -220.00     7600.00
01608            -220.00     7200.00
01609            -200.00     7200.00
01610            -200.00     7200.00
01611            -200.00     7000.00
01612            -200.00     6800.00
01613            -220.00     6800.00
01614            -200.00     6800.00
01615            -200.00     6600.00
01616            -180.00     6400.00
01617            -180.00     6200.00
01618            -180.00     6000.00
01619            -180.00     6000.00
01620            -180.00     5600.00
01621            -200.00     5600.00
01622            -180.00     5400.00
01623            -180.00     5200.00
01624            -180.00     5200.00
01625            -140.00     4800.00
01626            -180.00     4800.00
01627            -180.00     4800.00
01628            -140.00     4400.00
01629            -140.00     4200.00
01630            -140.00     4200.00
01631            -120.00     4000.00
01632            -140.00     3800.00
01633            -140.00     3600.00
01634            -120.00     3600.00
01635            -120.00     3200.00
01636            -120.00     3200.00
01637            -120.00     2800.00
01638            -100.00     2800.00
01639            -120.00     2600.00
01640            -120.00     2400.00
01641            -120.00     2200.00
01642            -120.00     2000.00
01643            -100.00     2000.00
01644            -100.00     1600.00
01645            -100.00     1400.00
01646            -100.00     1200.00
01647             -80.00     1200.00
01648             -80.00     1000.00
01649            -100.00      800.00
01650             -60.00      600.00
01651             -60.00      400.00
01652             -60.00      400.00
01653             -60.00        0.00
01654             -20.00        0.00
01655              20.00     -400.00
01656              60.00     -600.00
01657             100.00     -400.00
01658              40.00    -1000.00
01659              20.00    -1000.00
01660              20.00    -1200.00
01661              40.00    -1400.00
01662             120.00    -1400.00
01663             500.00    -1600.00
01664             840.00    -2000.00
01665             300.00    -2200.00
01666            -460.00    -2400.00
01667            -700.00    -2600.00
01668            -760.00    -2400.00
01669            -140.00    -2400.00
01670             600.00    -3200.00
01671             -60.00    -3000.00
01672             -20.00    -3200.00
01673             300.00    -3800.00
01674             -60.00    -3200.00
01675             180.00    -3800.00
01676              40.00    -4000.00
01677              80.00    -3800.00
01678             360.00    -4400.00
01679             -40.00    -4400.00
01680             -20.00    -4800.00
01681             100.00    -4800.00
01682               0.00    -5000.00
01683             180.00    -5200.00
01684             140.00    -5200.00
01685              40.00    -5600.00
01686              40.00    -5600.00
01687             200.00    -5600.00
01688             140.00    -6000.00
01689              40.00    -6000.00
01690             220.00    -6000.00
01691             100.00    -6000.00
01692             120.00    -6400.00
01693             180.00    -6600.00
01694             100.00    -6400.00
01695             140.00    -7000.00
01696             220.00    -7000.00
01697             140.00    -7200.00
01698             120.00    -7200.00
01699             200.00    -7400.00
01700             180.00    -7600.00
01701             180.00    -7400.00
01702             180.00    -7600.00
01703             140.00    -7800.00
01704             140.00    -7800.00
01705             200.00    -8000.00
01706             200.00    -8200.00
01707             160.00    -8200.00
01708             200.00    -8400.00
01709             180.00    -8400.00
01710             180.00    -8400.00
01711             200.00    -8600.00
01712             200.00    -8600.00
01713             180.00    -8800.00
01714             200.00    -8800.00
01715             200.00    -8800.00
01716             180.00    -9000.00
01717             220.00    -9000.00
01718             240.00    -9200.00
01719             200.00    -9200.00
01720             220.00    -9200.00
01721             200.00    -9200.00
01722             200.00    -9200.00
01723             200.00    -9200.00
01724             240.00    -9200.00
01725             220.00    -9400.00
01726             260.00    -9600.00
01727             220.00    -9400.00
01728             220.00    -9600.00
01729             220.00    -9600.00
01730             220.00    -9600.00
01731             220.00    -9600.00
01732             240.00    -9800.00
01733             260.00    -9600.00
01734             220.00    -9800.00
01735             220.00    -9600.00
01736             240.00    -9600.00
01737             220.00    -9800.00
01738             260.00    -9600.00
01739             260.00    -9800.00
01740             260.00    -9600.00
01741             240.00    -9600.00
01742             240.00    -9600.00
01743             260.00    -9600.00
01744             260.00    -9600.00
01745             260.00    -9600.00
01746             260.00    -9600.00
01747             260.00    -9200.00
01748             260.00    -9400.00
01749             260.00    -9200.00
01750             260.00    -9400.00
01751             260.00    -9200.00
01752             280.00    -9200.00
01753             260.00    -9200.00
01754             260.00    -9200.00
01755             220.00    -9200.00
01756             260.00    -9000.00
01757             260.00    -8800.00
01758             260.00    -8800.00
01759             260.00    -8800.00
01760             260.00    -8800.00
01761             220.00    -8600.00
01762             220.00    -8400.00
01763             260.00    -8400.00
01764             260.00    -8400.00
01765             260.00    -8400.00
01766             240.00    -8200.00
01767             240.00    -8000.00
01768             220.00    -8000.00
01769             220.00    -8000.00
01770             220.00    -7800.00
01771             220.00    -7600.00
01772             220.00    -7600.00
01773             220.00    -7400.00
01774             200.00    -7400.00
01775             200.00    -7200.00
01776             200.00    -7200.00
01777             200.00    -6800.00
01778             220.00    -6800.00
01779             200.00    -6800.00
01780             200.00    -6600.00
01781             200.00    -6400.00
01782             180.00    -6400.00
01783             200.00    -6400.00
01784             200.00    -6000.00
01785             200.00    -5800.00
01786             180.00    -5800.00
01787             180.00    -5600.00
01788             160.00    -5600.00
01789             180.00    -5200.00
01790             180.00    -5200.00
01791             180.00    -5000.00
01792             180.00    -4800.00
01793             160.00    -4600.00
01794             140.00    -4600.00
01795             140.00    -4200.00
01796             140.00    -4200.00
01797             140.00    -4000.00
01798             140.00    -3800.00
01799             140.00    -3600.00
01800             140.00    -3400.00
01801             120.00    -3400.00
01802             140.00    -3200.00
01803             140.00    -3000.00
01804             120.00    -2800.00
01805             120.00    -2600.00
01806             120.00    -2400.00
01807             100.00    -2400.00
01808             100.00    -2400.00
01809             100.00    -2000.00
01810             120.00    -1600.00
01811             100.00    -1600.00
01812             100.00    -1400.00
01813             100.00    -1200.00
01814             100.00    -1000.00
01815             100.00    -1000.00
01816              80.00     -800.00
01817             100.00     -400.00
01818              80.00     -200.00
01819              60.00     -200.00
01820              60.00      200.00
01821              60.00      200.00
01822             100.00      600.00
01823             140.00      600.00
01824             140.00      800.00
01825             140.00     1000.00
01826             120.00     1000.00
01827             100.00     1200.00
01828             100.00     1400.00
01829             260.00     1600.00
01830             840.00     2000.00
01831             840.00     2200.00
01832            -120.00     2200.00
01833            -900.00     2200.00
01834           -1160.00     2600.00
01835            -420.00     3000.00
01836             840.00     3000.00
01837              20.00     3000.00
01838            -300.00     3200.00
01839             380.00     3200.00
01840            -220.00     3800.00
01841            -180.00     3800.00
01842             120.00     3600.00
01843             -40.00     4400.00
01844             260.00     4000.00
01845            -180.00     4000.00
01846            -200.00     5200.00
01847              20.00     4400.00
01848            -220.00     4800.00
01849             100.00     5200.00
01850             -60.00     4800.00
01851            -120.00     5600.00
01852             -40.00     5400.00
01853            -140.00     5600.00
01854              40.00     6000.00
01855            -120.00     6000.00
01856            -120.00     6200.00
01857            -100.00     6200.00
01858             -80.00     6600.00
01859            -120.00     6400.00
01860            -220.00     6800.00
01861             -40.00     7000.00
01862            -100.00     6800.00
01863            -120.00     7200.00
01864            -100.00     7200.00
01865            -140.00     7400.00
01866            -160.00     7600.00
01867            -120.00     7600.00
01868            -100.00     7800.00
01869            -200.00     7800.00
01870            -120.00     8000.00
01871            -200.00     8000.00
01872            -180.00     8400.00
01873            -120.00     8400.00
01874            -140.00     8400.00
01875            -200.00     8600.00
01876            -180.00     8600.00
01877            -180.00     8800.00
01878            -200.00     9000.00
01879            -120.00     8800.00
01880            -200.00     9000.00
01881            -220.00     9000.00
01882            -200.00     9200.00
01883            -180.00     9200.00
01884            -200.00     9200.00
01885            -180.00     9400.00
01886            -180.00     9400.00
01887            -220.00     9400.00
01888            -200.00     9400.00
01889            -200.00     9400.00
01890            -220.00     9400.00
01891            -220.00     9600.00
01892            -200.00     9600.00
01893            -220.00     9800.00
01894            -220.00     9600.00
01895            -240.00     9600.00
01896            -220.00    10000.00
01897            -220.00    10000.00
01898            -220.00    10000.00
01899            -220.00    10000.00
01900            -240.00     9800.00
01901            -240.00    10000.00
01902            -240.00    10000.00
01903            -260.00     9800.00
01904            -220.00    10000.00
01905            -220.00     9800.00
01906            -220.00    10000.00
01907            -240.00     9800.00
01908            -260.00     9800.00
01909            -260.00     9600.00
01910            -240.00     9600.00
01911            -220.00     9800.00
01912            -220.00     9800.00
01913            -260.00     9600.00
01914            -260.00     9600.00
01915            -260.00     9600.00
01916            -260.00     9600.00
01917            -220.00     9600.00
01918            -240.00     9400.00
01919            -220.00     9400.00
01920            -260.00     9400.00
01921            -260.00     9400.00
01922            -260.00     9200.00
01923            -260.00     9400.00
01924            -260.00     9200.00
01925            -220.00     9200.00
01926            -220.00     9200.00
01927            -260.00     9000.00
01928            -260.00     9000.00
01929            -220.00     8800.00
01930            -220.00     8800.00
01931            -220.00     8600.00
01932            -220.00     8600.00
01933            -220.00     8400.00
01934            -240.00     8400.00
01935            -220.00     8400.00
01936            -220.00     8200.00
01937            -220.00     8000.00
01938            -220.00     8000.00
01939            -220.00     7800.00
01940            -220.00     7600.00
01941            -260.00     7600.00
01942            -220.00     7400.00
01943            -200.00     7400.00
01944            -200.00     7200.00
01945            -200.00     7000.00
01946            -200.00     7000.00
01947            -200.00     6800.00
01948            -200.00     6600.00
01949            -200.00     6400.00
01950            -200.00     6400.00
01951            -180.00     6200.00
01952            -180.00     6000.00
01953            -200.00     6000.00
01954            -200.00     5800.00
01955            -180.00     5600.00
01956            -180.00     5400.00
01957            -180.00     5200.00
01958            -140.00     5200.00
01959            -160.00     4800.00
01960            -180.00     4800.00
01961            -180.00     4600.00
01962            -180.00     4400.00
01963            -140.00     4400.00
01964            -140.00     4200.00
01965            -140.00     4000.00
01966            -140.00     3800.00
01967            -140.00     3600.00
01968            -140.00     3600.00
01969            -140.00     3200.00
01970            -120.00     3200.00
01971            -120.00     3000.00
01972            -120.00     2800.00
01973            -120.00     2600.00
01974            -120.00     2600.00
01975            -120.00     2400.00
01976            -120.00     2200.00
01977            -100.00     2000.00
01978            -100.00     1600.00
01979             -60.00     1600.00
01980             -80.00     1200.00
01981            -100.00     1200.00
01982            -100.00     1000.00
01983             -60.00      600.00
01984             -80.00      600.00
01985             -60.00      400.00
01986             -60.00      200.00
01987             -60.00        0.00
01988             -40.00        0.00
01989               0.00     -200.00
01990              60.00     -400.00
01991              60.00     -800.00
01992              40.00     -800.00
01993              20.00    -1000.00
01994              40.00    -1200.00
01995              40.00    -1200.00
01996              80.00    -1600.00
01997             360.00    -1600.00
01998             820.00    -1800.00
01999             520.00    -2400.00
02000            -280.00    -2400.00
02001            -700.00    -2400.00
02002            -780.00    -2600.00
02003            -420.00    -2400.00
02004             540.00    -3000.00
02005             140.00    -3200.00
02006            -120.00    -2800.00
02007             340.00    -3800.00
02008              20.00    -3400.00
02009             100.00    -3600.00
02010             140.00    -4000.00
02011              20.00    -3800.00
02012             360.00    -4200.00
02013             100.00    -4400.00
02014            -100.00    -4600.00
02015             100.00    -4800.00
02016               0.00    -4800.00
02017             140.00    -5200.00
02018             180.00    -5000.00
02019              60.00    -5400.00
02020              20.00    -5600.00
02021             180.00    -5400.00
02022             200.00    -6000.00
02023              20.00    -6000.00
02024             180.00    -6000.00
02025             160.00    -6200.00
02026             100.00    -6400.00
02027             180.00    -6600.00
02028             100.00    -6600.00
02029             120.00    -6800.00
02030             220.00    -6800.00
02031             180.00    -7000.00
02032             100.00    -7400.00
02033             140.00    -7200.00
02034             180.00    -7600.00
02035             140.00    -7600.00
02036             180.00    -7600.00
02037             160.00    -7800.00
02038             140.00    -8000.00
02039             180.00    -8000.00
02040             200.00    -8000.00
02041             160.00    -8200.00
02042             180.00    -8400.00
02043             200.00    -8400.00
02044             160.00    -8400.00
02045             180.00    -8600.00
02046             200.00    -8800.00
02047             200.00    -8800.00
02048             200.00    -8800.00
02049             180.00    -8800.00
02050             180.00    -8800.00
02051             200.00    -9000.00
02052             220.00    -9000.00
02053             220.00    -9200.00
02054             200.00    -9200.00
02055             220.00    -9200.00
02056             200.00    -9200.00
02057             200.00    -9200.00
02058             240.00    -9600.00
02059             220.00    -9400.00
02060             220.00    -9600.00
02061             260.00    -9600.00
02062             220.00    -9600.00
02063             200.00    -9600.00
02064             220.00    -9400.00
02065             220.00    -9800.00
02066             260.00    -9600.00
02067             260.00    -9800.00
02068             220.00    -9600.00
02069             220.00    -9600.00
02070             260.00    -9600.00
02071             220.00    -9800.00
02072             260.00    -9800.00
02073             260.00    -9600.00
02074             260.00    -9600.00
02075             260.00    -9800.00
02076             260.00    -9400.00
02077             260.00    -9600.00
02078             260.00    -9600.00
02079             260.00    -9400.00
02080             260.00    -9600.00
02081             260.00    -9600.00
02082             240.00    -9600.00
02083             260.00    -9400.00
02084             260.00    -9200.00
02085             260.00    -9200.00
02086             260.00    -9200.00
02087             260.00    -9200.00
02088             260.00    -9200.00
02089             260.00    -9000.00
02090             240.00    -9000.00
02091             260.00    -8800.00
02092             260.00    -8800.00
02093             260.00    -8800.00
02094             260.00    -8800.00
02095             260.00    -8600.00
02096             260.00    -8600.00
02097             220.00    -8400.00
02098             240.00    -8400.00
02099             260.00    -8400.00
02100             220.00    -8400.00
02101             240.00    -8000.00
02102             220.00    -8000.00
02103             220.00    -8000.00
02104             220.00    -7800.00
02105             220.00    -7800.00
02106             240.00    -7600.00
02107             220.00    -7400.00
02108             220.00    -7400.00
02109             200.00    -7200.00
02110             200.00    -7200.00
02111             200.00    -7000.00
02112             200.00    -6800.00
02113             200.00    -6600.00
02114             200.00    -6600.00
02115             200.00    -6600.00
02116             180.00    -6400.00
02117             180.00    -6400.00
02118             180.00    -6000.00
02119             200.00    -5800.00
02120             200.00    -6000.00
02121             180.00    -5800.00
02122             180.00    -5600.00
02123             180.00    -5200.00
02124             180.00    -5200.00
02125             180.00    -5000.00
02126             180.00    -4800.00
02127             140.00    -4800.00
02128             180.00    -4400.00
02129             140.00    -4400.00
02130             140.00    -4000.00
02131             140.00    -4000.00
02132             140.00    -3800.00
02133             140.00    -3600.00
02134             140.00    -3600.00
02135             120.00    -3400.00
02136             120.00    -3200.00
02137             120.00    -3200.00
02138             140.00    -2800.00
02139             120.00    -2600.00
02140             120.00    -2600.00
02141             120.00    -2400.00
02142             100.00    -2200.00
02143             120.00    -2000.00
02144             120.00    -1800.00
02145             100.00    -1600.00
02146             100.00    -1400.00
02147             100.00    -1200.00
02148              80.00    -1200.00
02149              60.00    -1000.00
02150              60.00     -800.00
02151             100.00     -400.00
02152              60.00     -200.00
02153              60.00        0.00
02154              60.00        0.00
02155              60.00      200.00
02156              60.00      400.00
02157             140.00      600.00
02158             140.00      800.00
02159             140.00      800.00
02160             120.00     1000.00
02161             100.00     1200.00
02162             100.00     1400.00
02163             180.00     1400.00
02164             680.00     2000.00
02165             980.00     2200.00
02166             180.00     2200.00
02167            -760.00     2400.00
02168           -1140.00     2400.00
02169            -760.00     2800.00
02170             660.00     3000.00
02171             360.00     2800.00
02172            -440.00     3200.00
02173             300.00     3200.00
02174              20.00     3400.00
02175            -300.00     4000.00
02176             120.00     3600.00
02177             -60.00     4200.00
02178             200.00     4400.00
02179               0.00     3800.00
02180            -280.00     4800.00
02181              40.00     4600.00
02182            -200.00     4600.00
02183              20.00     5400.00
02184              40.00     4800.00
02185            -160.00     5400.00
02186             -20.00     5600.00
02187            -180.00     5600.00
02188             -20.00     6000.00
02189             -60.00     5800.00
02190            -120.00     6200.00
02191             -60.00     6200.00
02192            -100.00     6400.00
02193             -80.00     6800.00
02194            -200.00     6600.00
02195             -60.00     7200.00
02196             -60.00     6800.00
02197            -140.00     7000.00
02198            -100.00     7200.00
02199            -140.00     7400.00
02200            -140.00     7600.00
02201            -140.00     7600.00
02202            -100.00     8000.00
02203            -200.00     7600.00
02204            -140.00     8000.00
02205            -180.00     8000.00
02206            -200.00     8200.00
02207            -120.00     8400.00
02208            -140.00     8400.00
02209            -200.00     8400.00
02210            -220.00     8600.00
02211            -180.00     9000.00
02212            -200.00     8600.00
02213            -140.00     8800.00
02214            -160.00     9000.00
02215            -220.00     9000.00
02216            -200.00     9200.00
02217            -180.00     9200.00
02218            -180.00     9200.00
02219            -200.00     9400.00
02220            -180.00     9400.00
02221            -220.00     9400.00
02222            -220.00     9600.00
02223            -220.00     9600.00
02224            -220.00     9600.00
02225            -220.00     9600.00
02226            -200.00     9800.00
02227            -220.00    10000.00
02228            -220.00     9800.00
02229            -220.00     9600.00
02230            -240.00     9800.00
02231            -220.00     9800.00
02232            -220.00     9800.00
02233            -220.00    10000.00
02234            -260.00    10000.00
02235            -220.00    10000.00
02236            -240.00    10000.00
02237            -220.00     9600.00
02238            -240.00    10000.00
02239            -220.00     9800.00
02240            -220.00    10000.00
02241            -260.00     9800.00
02242            -220.00     9800.00
02243            -260.00     9800.00
02244            -260.00     9800.00
02245            -240.00     9800.00
02246            -220.00     9800.00
02247            -240.00     9800.00
02248            -260.00     9800.00
02249            -260.00     9600.00
02250            -260.00     9600.00
02251            -240.00     9600.00
02252            -260.00     9400.00
02253            -240.00     9600.00
02254            -240.00     9400.00
02255            -260.00     9400.00
02256            -260.00     9400.00
02257            -260.00     9400.00
02258            -240.00     9400.00
02259            -220.00     9200.00
02260            -220.00     9200.00
02261            -240.00     9000.00
02262            -220.00     8800.00
02263            -260.00     8600.00
02264            -220.00     8800.00
02265            -220.00     8600.00
02266            -220.00     8600.00
02267            -220.00     8400.00
02268            -220.00     8400.00
02269            -220.00     8200.00
02270            -220.00     8000.00
02271            -220.00     8000.00
02272            -220.00     7800.00
02273            -200.00     7800.00
02274            -220.00     7600.00
02275            -220.00     7600.00
02276            -220.00     7600.00
02277            -220.00     7400.00
02278            -200.00     7200.00
02279            -200.00     7200.00
02280            -200.00     7000.00
02281            -220.00     6800.00
02282            -220.00     6600.00
02283            -200.00     6600.00
02284            -200.00     6400.00
02285            -180.00     6200.00
02286            -200.00     6200.00
02287            -180.00     5800.00
02288            -180.00     5800.00
02289            -180.00     5600.00
02290            -200.00     5400.00
02291            -180.00     5400.00
02292            -180.00     5200.00
02293            -140.00     5000.00
02294            -180.00     4800.00
02295            -180.00     4800.00
02296            -180.00     4600.00
02297            -180.00     4400.00
02298            -140.00     4400.00
02299            -180.00     4000.00
02300            -140.00     4000.00
02301            -160.00     3600.00
02302            -140.00     3600.00
02303            -140.00     3600.00
02304            -120.00     3200.00
02305            -120.00     3000.00
02306            -120.00     2800.00
02307            -120.00     2800.00
02308            -140.00     2400.00
02309            -120.00     2400.00
02310            -120.00     2200.00
02311            -100.00     2000.00
02312            -100.00     1600.00
02313            -100.00     1600.00
02314            -100.00     1400.00
02315            -100.00     1200.00
02316            -100.00      800.00
02317            -100.00      800.00
02318             -60.00      600.00
02319             -60.00      400.00
02320             -60.00      400.00
02321             -60.00      200.00
02322             -40.00        0.00
02323             -20.00     -200.00
02324              40.00     -400.00
02325              60.00     -400.00
02326              60.00     -600.00
02327              40.00    -1000.00
02328              20.00    -1000.00
02329              40.00    -1200.00
02330              40.00    -1400.00
02331             260.00    -1600.00
02332             740.00    -1800.00
02333             680.00    -2400.00
02334             -80.00    -2200.00
02335            -660.00    -2600.00
02336            -760.00    -2400.00
02337            -620.00    -2400.00
02338             360.00    -2800.00
02339             380.00    -3200.00
02340            -220.00    -2800.00
02341             260.00    -3400.00
02342             140.00    -3600.00
02343              20.00    -3200.00
02344             200.00    -4000.00
02345             -20.00    -3600.00
02346             280.00    -4200.00
02347             220.00    -4400.00
02348            -120.00    -4400.00
02349             100.00    -4600.00
02350              20.00    -4600.00
02351             100.00    -5200.00
02352             180.00    -5200.00
02353             100.00    -5200.00
02354              40.00    -5600.00
02355             120.00    -5400.00
02356             220.00    -5800.00
02357              60.00    -5800.00
02358             120.00    -5800.00
02359             180.00    -6400.00
02360              80.00    -6400.00
02361             140.00    -6400.00
02362             120.00    -6600.00
02363             100.00    -6800.00
02364             200.00    -7000.00
02365             180.00    -7000.00
02366             120.00    -7200.00
02367             140.00    -7400.00
02368             200.00    -7400.00
02369             140.00    -7600.00
02370             160.00    -7600.00
02371             160.00    -7600.00
02372             120.00    -7800.00
02373             160.00    -8000.00
02374             200.00    -8000.00
02375             180.00    -8200.00
02376             180.00    -8400.00
02377             200.00    -8200.00
02378             180.00    -8400.00
02379             180.00    -8400.00
02380             200.00    -8600.00
02381             180.00    -8600.00
02382             200.00    -8800.00
02383             200.00    -8800.00
02384             180.00    -9000.00
02385             200.00    -8800.00
02386             220.00    -9000.00
02387             260.00    -9200.00
02388             200.00    -9200.00
02389             220.00    -9200.00
02390             200.00    -9200.00
02391             200.00    -9200.00
02392             220.00    -9200.00
02393             220.00    -9600.00
02394             220.00    -9600.00
02395             260.00    -9600.00
02396             220.00    -9600.00
02397             220.00    -9600.00
02398             240.00    -9600.00
02399             260.00    -9600.00
02400             260.00    -9800.00
02401             260.00    -9600.00
02402             260.00    -9800.00
02403             220.00    -9600.00
02404             260.00    -9800.00
02405             220.00    -9800.00
02406             260.00    -9600.00
02407             260.00    -9600.00
02408             260.00    -9600.00
02409             220.00    -9600.00
02410             260.00    -9600.00
02411             220.00    -9800.00
02412             260.00    -9600.00
02413             260.00    -9800.00
02414             260.00    -9600.00
02415             260.00    -9600.00
02416             220.00    -9600.00
02417             260.00    -9400.00
02418             260.00    -9200.00
02419             260.00    -9200.00
02420             260.00    -9200.00
02421             260.00    -9200.00
02422             260.00    -9200.00
02423             240.00    -9000.00
02424             220.00    -9000.00
02425             220.00    -9000.00
02426             260.00    -8800.00
02427             260.00    -9000.00
02428             260.00    -8800.00
02429             220.00    -8600.00
02430             220.00    -8800.00
02431             220.00    -8600.00
02432             220.00    -8400.00
02433             260.00    -8400.00
02434             220.00    -8200.00
02435             220.00    -8200.00
02436             220.00    -8000.00
02437             220.00    -8000.00
02438             200.00    -8000.00
02439             220.00    -7800.00
02440             220.00    -7600.00
02441             220.00    -7400.00
02442             220.00    -7400.00
02443             200.00    -7400.00
02444             200.00    -7200.00
02445             200.00    -7000.00
02446             220.00    -7200.00
02447             220.00    -6800.00
02448             200.00    -6600.00
02449             200.00    -6600.00
02450             200.00    -6400.00
02451             200.00    -6400.00
02452             200.00    -6200.00
02453             200.00    -6000.00
02454             200.00    -5800.00
02455             200.00    -5800.00
02456             180.00    -5600.00
02457             180.00    -5400.00
02458             180.00    -5200.00
02459             180.00    -5200.00
02460             180.00    -5000.00
02461             180.00    -4800.00
02462             180.00    -4600.00
02463             140.00    -4400.00
02464             180.00    -4200.00
02465             140.00    -4000.00
02466             180.00    -3800.00
02467             180.00    -3600.00
02468             180.00    -3600.00
02469             120.00    -3400.00
02470             180.00    -3200.00
02471             100.00    -3200.00
02472              80.00    -2800.00
02473              40.00    -2600.00
02474             100.00    -2600.00
02475             140.00    -2400.00
02476             180.00    -2000.00
02477             200.00    -2000.00
02478             160.00    -1800.00
02479             140.00    -1800.00
02480              60.00    -1600.00
02481               0.00    -1200.00
02482              20.00    -1200.00
02483              40.00    -1000.00
02484             100.00     -800.00
02485             100.00     -800.00
02486             120.00     -400.00
02487             120.00     -200.00
02488             120.00        0.00
02489              80.00        0.00
02490              40.00      400.00
02491              80.00      400.00
02492             100.00      800.00
02493             100.00      800.00
02494             100.00     1000.00
02495             120.00     1200.00
02496             120.00     1200.00
02497             180.00     1400.00
02498             520.00     1800.00
02499            1020.00     2000.00
02500             440.00     2200.00
02501            -600.00     2200.00
02502           -1100.00     2400.00
02503           -1080.00     2600.00
02504             260.00     3200.00
02505             680.00     3000.00
02506            -380.00     3000.00
02507             120.00     3200.00
02508             260.00     3200.00
02509            -340.00     4000.00
02510              60.00     3600.00
02511             -40.00     4000.00
02512              60.00     4400.00
02513             120.00     3800.00
02514            -340.00     4800.00
02515             -20.00     4800.00
02516            -100.00     4400.00
02517             -60.00     5200.00
02518             140.00     5000.00
02519            -140.00     5400.00
02520             -20.00     5600.00
02521            -180.00     5400.00
02522            -100.00     6000.00
02523             -40.00     5800.00
02524            -140.00     6200.00
02525             -40.00     6200.00
02526             -60.00     6200.00
02527             -60.00     6800.00
02528            -180.00     6400.00
02529            -140.00     7000.00
02530             -40.00     6800.00
02531            -140.00     6800.00
02532            -100.00     7200.00
02533            -140.00     7200.00
02534            -160.00     7600.00
02535            -120.00     7600.00
02536             -80.00     7800.00
02537            -180.00     7800.00
02538            -140.00     8000.00
02539            -140.00     8000.00
02540            -200.00     8000.00
02541            -140.00     8400.00
02542            -140.00     8400.00
02543            -160.00     8600.00
02544            -200.00     8600.00
02545            -140.00     9000.00
02546            -200.00     8800.00
02547            -180.00     8600.00
02548            -140.00     9000.00
02549            -220.00     9000.00
02550            -220.00     9200.00
02551            -200.00     9200.00
02552            -180.00     9400.00
02553            -200.00     9200.00
02554            -180.00     9200.00
02555            -220.00     9400.00
02556            -220.00     9400.00
02557            -200.00     9600.00
02558            -220.00     9600.00
02559            -220.00     9600.00
02560            -220.00     9600.00
02561            -200.00     9600.00
02562            -220.00     9600.00
02563            -220.00     9800.00
02564            -220.00     9600.00
02565            -220.00     9800.00
02566            -220.00     9800.00
02567            -220.00     9800.00
02568            -260.00    10000.00
02569            -260.00     9600.00
02570            -260.00     9800.00
02571            -260.00    10000.00
02572            -220.00    10000.00
02573            -220.00     9800.00
02574            -220.00     9800.00
02575            -240.00    10000.00
02576            -260.00    10000.00
02577            -280.00     9800.00
02578            -260.00    10000.00
02579            -240.00     9600.00
02580            -220.00     9600.00
02581            -220.00     9800.00
02582            -240.00     9600.00
02583            -260.00     9800.00
02584            -220.00     9600.00
02585            -260.00     9600.00
02586            -240.00     9600.00
02587            -220.00     9600.00
02588            -240.00     9400.00
02589            -220.00     9400.00
02590            -260.00     9400.00
02591            -260.00     9200.00
02592            -220.00     9400.00
02593            -220.00     9200.00
02594            -220.00     9200.00
02595            -220.00     8800.00
02596            -260.00     9000.00
02597            -220.00     8800.00
02598            -240.00     9000.00
02599            -220.00     8600.00
02600            -220.00     8600.00
02601            -220.00     8400.00
02602            -220.00     8200.00
02603            -220.00     8200.00
02604            -220.00     8200.00
02605            -220.00     8000.00
02606            -220.00     8000.00
02607            -220.00     8000.00
02608            -220.00     7800.00
02609            -220.00     7600.00
02610            -220.00     7400.00
02611            -220.00     7200.00
02612            -200.00     7200.00
02613            -200.00     7000.00
02614            -200.00     7000.00
02615            -220.00     7000.00
02616            -200.00     6600.00
02617            -200.00     6800.00
02618            -200.00     6400.00
02619            -200.00     6400.00
02620            -180.00     6200.00
02621            -180.00     6000.00
02622            -200.00     6000.00
02623            -200.00     5600.00
02624            -200.00     5600.00
02625            -180.00     5400.00
02626            -180.00     5200.00
02627            -180.00     5000.00
02628            -180.00     4800.00
02629            -180.00     4800.00
02630            -180.00     4800.00
02631            -140.00     4400.00
02632            -160.00     4400.00
02633            -140.00     4000.00
02634            -140.00     3800.00
02635            -140.00     3800.00
02636            -140.00     3600.00
02637            -120.00     3600.00
02638            -120.00     3200.00
02639            -120.00     3000.00
02640            -120.00     2800.00
02641            -120.00     2800.00
02642            -120.00     2600.00
02643            -120.00     2400.00
02644            -120.00     2200.00
02645            -100.00     2200.00
02646            -100.00     1600.00
02647             -60.00     1600.00
02648            -100.00     1400.00
02649             -60.00     1200.00
02650             -60.00     1200.00
02651             -60.00      800.00
02652             -60.00      800.00
02653             -60.00      400.00
02654             -60.00      400.00
02655             -60.00        0.00
02656             -40.00        0.00
02657             -40.00     -200.00
02658              20.00     -200.00
02659              60.00     -600.00
02660              60.00     -600.00
02661              40.00     -800.00
02662              20.00    -1000.00
02663              20.00    -1200.00
02664              40.00    -1200.00
02665             160.00    -1400.00
02666             600.00    -1600.00
02667             820.00    -2000.00
02668             140.00    -2200.00
02669            -580.00    -2400.00
02670            -740.00    -2600.00
02671            -740.00    -2400.00
02672              80.00    -2600.00
02673             540.00    -3200.00
02674            -180.00    -2800.00
02675             120.00    -3400.00
02676             260.00    -3600.00
02677             -60.00    -3200.00
02678             220.00    -4000.00
02679              20.00    -3800.00
02680             180.00    -4000.00
02681             340.00    -4400.00
02682            -100.00    -4400.00
02683              20.00    -4800.00
02684              40.00    -4800.00
02685              40.00    -5000.00
02686             180.00    -5200.00
02687             120.00    -5200.00
02688              40.00    -5800.00
02689              60.00    -5600.00
02690             220.00    -5800.00
02691             100.00    -6000.00
02692              60.00    -6000.00
02693             200.00    -6200.00
02694             100.00    -6400.00
02695             140.00    -6400.00
02696             140.00    -6400.00
02697              60.00    -6600.00
02698             140.00    -7000.00
02699             200.00    -6800.00
02700             120.00    -7200.00
02701             120.00    -7200.00
02702             200.00    -7400.00
02703             140.00    -7600.00
02704             140.00    -7600.00
02705             180.00    -7800.00
02706             140.00    -8000.00
02707             140.00    -8000.00
02708             200.00    -8000.00
02709             180.00    -8200.00
02710             160.00    -8200.00
02711             200.00    -8400.00
02712             180.00    -8400.00
02713             180.00    -8400.00
02714             200.00    -8400.00
02715             200.00    -8600.00
02716             200.00    -8800.00
02717             200.00    -8800.00
02718             200.00    -9000.00
02719             180.00    -9000.00
02720             220.00    -9000.00
02721             240.00    -9200.00
02722             220.00    -9200.00
02723             200.00    -9200.00
02724             200.00    -9200.00
02725             200.00    -9200.00
02726             220.00    -9200.00
02727             240.00    -9200.00
02728             260.00    -9600.00
02729             260.00    -9400.00
02730             220.00    -9600.00
02731             220.00    -9600.00
02732             220.00    -9600.00
02733             240.00    -9600.00
02734             260.00    -9600.00
02735             240.00    -9600.00
02736             260.00    -9600.00
02737             220.00    -9800.00
02738             240.00    -9600.00
02739             260.00    -9800.00
02740             260.00    -9600.00
02741             260.00    -9800.00
02742             260.00    -9600.00
02743             260.00    -9600.00
02744             220.00    -9600.00
02745             240.00    -9600.00
02746             260.00    -9600.00
02747             260.00    -9600.00
02748             260.00    -9600.00
02749             260.00    -9400.00
02750             260.00    -9400.00
02751             260.00    -9600.00
02752             220.00    -9200.00
02753             260.00    -9200.00
02754             260.00    -9200.00
02755             260.00    -9200.00
02756             260.00    -9200.00
02757             240.00    -9000.00
02758             220.00    -9000.00
02759             220.00    -9000.00
02760             260.00    -9000.00
02761             260.00    -9000.00
02762             240.00    -8800.00
02763             240.00    -8800.00
02764             220.00    -8600.00
02765             220.00    -8400.00
02766             240.00    -8400.00
02767             240.00    -8400.00
02768             220.00    -8400.00
02769             240.00    -8200.00
02770             240.00    -8000.00
02771             200.00    -8000.00
02772             220.00    -8000.00
02773             240.00    -7800.00
02774             220.00    -7600.00
02775             220.00    -7600.00
02776             220.00    -7400.00
02777             200.00    -7400.00
02778             200.00    -7200.00
02779             220.00    -7200.00
02780             220.00    -6800.00
02781             200.00    -6800.00
02782             200.00    -6800.00
02783             200.00    -6600.00
02784             180.00    -6400.00
02785             200.00    -6200.00
02786             200.00    -6000.00
02787             200.00    -6000.00
02788             200.00    -6000.00
02789             180.00    -5600.00
02790             200.00    -5600.00
02791             180.00    -5200.00
02792             180.00    -5200.00
02793             180.00    -5000.00
02794             180.00    -5000.00
02795             180.00    -4800.00
02796             180.00    -4800.00
02797             140.00    -4400.00
02798             140.00    -4200.00
02799             140.00    -4200.00
02800             140.00    -3800.00
02801             140.00    -3800.00
02802             140.00    -3600.00
02803             140.00    -3400.00
02804             140.00    -3200.00
02805             140.00    -3200.00
02806             120.00    -3000.00
02807             120.00    -2800.00
02808             120.00    -2400.00
02809             120.00    -2400.00
02810             100.00    -2400.00
02811             100.00    -2000.00
02812             120.00    -2000.00
02813             100.00    -1800.00
02814             100.00    -1600.00
02815             100.00    -1400.00
02816              80.00    -1200.00
02817              60.00    -1000.00
02818              60.00     -800.00
02819              60.00     -800.00
02820              60.00     -400.00
02821              80.00     -200.00
02822              40.00        0.00
02823              60.00      200.00
02824              60.00      400.00
02825             100.00      600.00
02826             140.00      400.00
02827             140.00      800.00
02828             120.00     1000.00
02829             100.00     1200.00
02830              80.00     1200.00
02831             100.00     1400.00
02832             340.00     1600.00
02833             940.00     2200.00
02834             680.00     2200.00
02835            -320.00     2400.00
02836            -980.00     2200.00
02837           -1140.00     2600.00
02838            -120.00     3000.00
02839             860.00     3000.00
02840            -220.00     2800.00
02841            -140.00     3200.00
02842             360.00     3200.00
02843            -300.00     4000.00
02844             -40.00     3800.00
02845              60.00     3600.00
02846              20.00     4600.00
02847             260.00     3800.00
02848            -260.00     4200.00
02849            -120.00     5200.00
02850             -60.00     4400.00
02851            -180.00     5200.00
02852             120.00     5200.00
02853            -120.00     5000.00
02854             -40.00     5600.00
02855             -60.00     5400.00
02856            -120.00     5800.00
02857              20.00     6000.00
02858            -140.00     6000.00
02859             -60.00     6400.00
02860             -80.00     6200.00
02861             -60.00     6800.00
02862            -140.00     6400.00
02863            -180.00     6800.00
02864             -20.00     7000.00
02865            -120.00     6800.00
02866            -100.00     7200.00
02867            -120.00     7200.00
02868            -140.00     7400.00
02869            -140.00     7600.00
02870            -100.00     7600.00
02871            -120.00     7800.00
02872            -180.00     7800.00
02873            -120.00     8000.00
02874            -200.00     8000.00
02875            -120.00     8400.00
02876            -120.00     8400.00
02877            -140.00     8400.00
02878            -200.00     8600.00
02879            -180.00     8600.00
02880            -200.00     8800.00
02881            -180.00     8600.00
02882            -140.00     9000.00
02883            -220.00     9000.00
02884            -220.00     9000.00
02885            -200.00     9200.00
02886            -180.00     9200.00
02887            -200.00     9000.00
02888            -200.00     9200.00
02889            -200.00     9400.00
02890            -260.00     9400.00
02891            -220.00     9600.00
02892            -220.00     9600.00
02893            -240.00     9400.00
02894            -220.00     9600.00
02895            -200.00     9800.00
02896            -220.00     9600.00
02897            -240.00     9600.00
02898            -220.00     9800.00
02899            -260.00     9600.00
02900            -220.00     9800.00
02901            -220.00     9800.00
02902            -260.00     9800.00
02903            -260.00    10000.00
02904            -240.00     9800.00
02905            -260.00    10000.00
02906            -260.00     9800.00
02907            -240.00    10000.00
02908            -240.00    10000.00
02909            -240.00     9800.00
02910            -240.00    10000.00
02911            -260.00    10000.00
02912            -260.00    10000.00
02913            -220.00    10000.00
02914            -220.00    10000.00
02915            -220.00     9800.00
02916            -220.00     9600.00
02917            -260.00     9600.00
02918            -260.00     9600.00
02919            -220.00     9600.00
02920            -240.00     9600.00
02921            -260.00     9600.00
02922            -220.00     9600.00
02923            -220.00     9400.00
02924            -260.00     9400.00
02925            -260.00     9200.00
02926            -220.00     9200.00
02927            -220.00     9200.00
02928            -220.00     9200.00
02929            -220.00     9000.00
02930            -240.00     8800.00
02931            -240.00     8800.00
02932            -220.00     8800.00
02933            -220.00     8800.00
02934            -220.00     8600.00
02935            -220.00     8600.00
02936            -220.00     8400.00
02937            -240.00     8200.00
02938            -220.00     8200.00
02939            -220.00     8200.00
02940            -220.00     8000.00
02941            -220.00     7800.00
02942            -200.00     7600.00
02943            -220.00     7800.00
02944            -220.00     7600.00
02945            -220.00     7400.00
02946            -220.00     7400.00
02947            -200.00     7200.00
02948            -200.00     7000.00
02949            -200.00     6800.00
02950            -220.00     6800.00
02951            -220.00     6800.00
02952            -200.00     6600.00
02953            -200.00     6400.00
02954            -200.00     6200.00
02955            -200.00     6200.00
02956            -200.00     6000.00
02957            -200.00     5600.00
02958            -200.00     5600.00
02959            -200.00     5600.00
02960            -180.00     5200.00
02961            -180.00     5200.00
02962            -180.00     5000.00
02963            -180.00     4800.00
02964            -180.00     4600.00
02965            -180.00     4400.00
02966            -180.00     4200.00
02967            -140.00     4200.00
02968            -140.00     3800.00
02969            -140.00     3800.00
02970            -140.00     3600.00
02971            -140.00     3400.00
02972            -120.00     3400.00
02973            -120.00     3200.00
02974            -120.00     3000.00
02975            -120.00     2800.00
02976            -120.00     2600.00
02977            -120.00     2400.00
02978            -120.00     2200.00
02979            -100.00     2200.00
02980            -100.00     2000.00
02981            -100.00     1600.00
02982             -80.00     1400.00
02983            -100.00     1400.00
02984             -60.00     1200.00
02985             -80.00     1000.00
02986            -100.00      800.00
02987             -60.00      600.00
02988             -60.00      400.00
02989             -60.00      400.00
02990             -40.00        0.00
02991             -40.00     -200.00
02992              20.00     -400.00
02993              60.00     -400.00
02994              60.00     -800.00
02995              40.00     -800.00
02996              40.00    -1000.00
02997              40.00    -1200.00
02998              40.00    -1200.00
02999             100.00    -1400.00
03000             460.00    -1600.00
03001             840.00    -1800.00
03002             360.00    -2200.00
03003            -440.00    -2400.00
03004            -700.00    -2400.00
03005            -780.00    -2400.00
03006            -220.00    -2400.00
03007             600.00    -3000.00
03008             -20.00    -3000.00
03009             -60.00    -3000.00
03010             340.00    -3800.00
03011             -40.00    -3200.00
03012             180.00    -3600.00
03013              60.00    -4200.00
03014              60.00    -3600.00
03015             360.00    -4400.00
03016             -20.00    -4400.00
03017             -60.00    -4800.00
03018              80.00    -4600.00
03019              20.00    -5000.00
03020             160.00    -5200.00
03021             140.00    -5200.00
03022              40.00    -5400.00
03023              40.00    -5600.00
03024             200.00    -5600.00
03025             160.00    -6000.00
03026              20.00    -6000.00
03027             200.00    -6000.00
03028             120.00    -6400.00
03029             100.00    -6400.00
03030             160.00    -6600.00
03031              80.00    -6600.00
03032             120.00    -7000.00
03033             200.00    -6800.00
03034             140.00    -7200.00
03035             120.00    -7200.00
03036             180.00    -7400.00
03037             180.00    -7400.00
03038             140.00    -7600.00
03039             180.00    -7600.00
03040             160.00    -8000.00
03041             140.00    -8000.00
03042             180.00    -8000.00
03043             200.00    -8200.00
03044             180.00    -8200.00
03045             200.00    -8200.00
03046             200.00    -8400.00
03047             180.00    -8400.00
03048             200.00    -8600.00
03049             220.00    -8600.00
03050             200.00    -8800.00
03051             200.00    -8800.00
03052             200.00    -8800.00
03053             180.00    -9000.00
03054             220.00    -9000.00
03055             260.00    -9000.00
03056             220.00    -9200.00
03057             220.00    -9200.00
03058             220.00    -9200.00
03059             200.00    -9200.00
03060             220.00    -9200.00
03061             260.00    -9400.00
03062             220.00    -9600.00
03063             220.00    -9600.00
03064             220.00    -9600.00
03065             220.00    -9600.00
03066             220.00    -9600.00
03067             260.00    -9600.00
03068             260.00    -9600.00
03069             260.00    -9600.00
03070             280.00    -9800.00
03071             220.00    -9800.00
03072             220.00    -9600.00
03073             220.00    -9800.00
03074             220.00    -9800.00
03075             260.00    -9800.00
03076             260.00    -9800.00
03077             260.00    -9800.00
03078             240.00    -9800.00
03079             220.00    -9600.00
03080             220.00    -9600.00
03081             240.00    -9600.00
03082             260.00    -9400.00
03083             260.00    -9600.00
03084             220.00    -9600.00
03085             260.00    -9200.00
03086             260.00    -9400.00
03087             220.00    -9200.00
03088             260.00    -9400.00
03089             260.00    -9200.00
03090             240.00    -9200.00
03091             220.00    -9200.00
03092             220.00    -9000.00
03093             220.00    -9000.00
03094             220.00    -9000.00
03095             260.00    -8800.00
03096             260.00    -8800.00
03097             260.00    -8800.00
03098             220.00    -8600.00
03099             220.00    -8800.00
03100             220.00    -8400.00
03101             240.00    -8400.00
03102             220.00    -8200.00
03103             260.00    -8200.00
03104             220.00    -8000.00
03105             220.00    -8200.00
03106             220.00    -8000.00
03107             220.00    -8000.00
03108             220.00    -7600.00
03109             240.00    -7600.00
03110             220.00    -7400.00
03111             200.00    -7200.00
03112             220.00    -7200.00
03113             200.00    -7200.00
03114             220.00    -7000.00
03115             220.00    -6800.00
03116             200.00    -6800.00
03117             200.00    -6600.00
03118             200.00    -6600.00
03119             200.00    -6200.00
03120             200.00    -6400.00
03121             200.00    -6000.00
03122             200.00    -5800.00
03123             200.00    -5600.00
03124             180.00    -5600.00
03125             180.00    -5400.00
03126             180.00    -5200.00
03127             180.00    -5200.00
03128             180.00    -5000.00
03129             180.00    -4800.00
03130             180.00    -4600.00
03131             140.00    -4400.00
03132             180.00    -4200.00
03133             140.00    -4200.00
03134             140.00    -3800.00
03135             140.00    -3800.00
03136             140.00    -3600.00
03137             140.00    -3600.00
03138             140.00    -3200.00
03139             120.00    -3000.00
03140             120.00    -2800.00
03141             120.00    -2800.00
03142             120.00    -2600.00
03143             120.00    -2600.00
03144             100.00    -2200.00
03145             100.00    -2000.00
03146             100.00    -1800.00
03147             100.00    -1800.00
03148             100.00    -1600.00
03149             100.00    -1400.00
03150             100.00    -1200.00
03151              60.00    -1000.00
03152              60.00     -800.00
03153              60.00     -800.00
03154              40.00     -400.00
03155              60.00     -200.00
03156              60.00        0.00
03157              40.00        0.00
03158              40.00      400.00
03159              60.00      400.00
03160             140.00      600.00
03161             160.00      600.00
03162             140.00      800.00
03163             100.00     1200.00
03164             100.00     1400.00
03165             100.00     1400.00
03166             240.00     1600.00
03167             820.00     2000.00
03168             900.00     2000.00
03169             -40.00     2200.00
03170            -860.00     2200.00
03171           -1140.00     2400.00
03172            -520.00     3000.00
03173             820.00     3000.00
03174             120.00     2800.00
03175            -360.00     3200.00
03176             360.00     3200.00
03177            -140.00     3600.00
03178            -200.00     4000.00
03179             120.00     3600.00
03180             -60.00     4400.00
03181             280.00     4000.00
03182            -120.00     4000.00
03183            -220.00     5000.00
03184              20.00     4600.00
03185            -220.00     4800.00
03186              80.00     5200.00
03187             -40.00     5000.00
03188            -100.00     5600.00
03189             -20.00     5400.00
03190            -180.00     5600.00
03191              40.00     6000.00
03192            -100.00     6000.00
03193            -100.00     6400.00
03194             -60.00     6200.00
03195            -100.00     6600.00
03196            -100.00     6800.00
03197            -200.00     6600.00
03198             -40.00     7200.00
03199             -80.00     6800.00
03200            -100.00     7200.00
03201            -120.00     7200.00
03202            -140.00     7600.00
03203            -160.00     7600.00
03204            -120.00     7600.00
03205            -120.00     7800.00
03206            -200.00     7800.00
03207            -120.00     8000.00
03208            -200.00     8000.00
03209            -180.00     8000.00
03210            -120.00     8400.00
03211            -140.00     8400.00
03212            -200.00     8600.00
03213            -200.00     8600.00
03214            -180.00     8800.00
03215            -200.00     8800.00
03216            -140.00     9000.00
03217            -200.00     9000.00
03218            -220.00     8800.00
03219            -200.00     9200.00
03220            -180.00     9200.00
03221            -200.00     9200.00
03222            -200.00     9200.00
03223            -200.00     9400.00
03224            -220.00     9400.00
03225            -220.00     9400.00
03226            -220.00     9600.00
03227            -220.00     9600.00
03228            -220.00     9600.00
03229            -220.00     9600.00
03230            -200.00     9600.00
03231            -220.00     9600.00
03232            -240.00     9800.00
03233            -220.00     9600.00
03234            -220.00     9800.00
03235            -200.00    10000.00
03236            -220.00     9800.00
03237            -220.00    10000.00
03238            -220.00    10000.00
03239            -260.00     9800.00
03240            -260.00    10000.00
03241            -240.00    10000.00
03242            -240.00    10000.00
03243            -220.00    10000.00
03244            -220.00     9800.00
03245            -220.00     9800.00
03246            -260.00     9600.00
03247            -260.00     9800.00
03248            -220.00     9600.00
03249            -220.00     9600.00
03250            -240.00     9600.00
03251            -260.00     9600.00
03252            -240.00     9600.00
03253            -220.00     9600.00
03254            -240.00     9600.00
03255            -220.00     9400.00
03256            -240.00     9400.00
03257            -220.00     9400.00
03258            -260.00     9400.00
03259            -240.00     9400.00
03260            -260.00     9200.00
03261            -220.00     9200.00
03262            -220.00     9200.00
03263            -220.00     9000.00
03264            -240.00     9200.00
03265            -240.00     8800.00
03266            -220.00     9000.00
03267            -240.00     8600.00
03268            -220.00     8600.00
03269            -220.00     8400.00
03270            -220.00     8400.00
03271            -220.00     8400.00
03272            -240.00     8200.00
03273            -220.00     8000.00
03274            -220.00     8000.00
03275            -220.00     7800.00
03276            -220.00     7600.00
03277            -220.00     7600.00
03278            -220.00     7400.00
03279            -220.00     7400.00
03280            -220.00     7200.00
03281            -200.00     7200.00
03282            -200.00     7000.00
03283            -220.00     6800.00
03284            -200.00     6800.00
03285            -220.00     6800.00
03286            -220.00     6400.00
03287            -200.00     6400.00
03288            -200.00     6200.00
03289            -200.00     6200.00
03290            -200.00     6000.00
03291            -200.00     5600.00
03292            -200.00     5600.00
03293            -200.00     5400.00
03294            -200.00     5400.00
03295            -180.00     5200.00
03296            -180.00     5000.00
03297            -180.00     4800.00
03298            -180.00     4600.00
03299            -180.00     4600.00
03300            -140.00     4400.00
03301            -140.00     4000.00
03302            -140.00     4000.00
03303            -140.00     4000.00
03304            -140.00     3600.00
03305            -140.00     3600.00
03306            -120.00     3200.00
03307            -120.00     3200.00
03308            -120.00     3000.00
03309            -120.00     2800.00
03310            -120.00     2600.00
03311            -120.00     2400.00
03312            -120.00     2400.00
03313            -120.00     2200.00
03314            -100.00     2000.00
03315            -100.00     2000.00
03316             -60.00     1600.00
03317            -100.00     1400.00
03318             -60.00     1200.00
03319             -60.00     1000.00
03320             -60.00      800.00
03321             -80.00      600.00
03322             -60.00      600.00
03323             -60.00      400.00
03324             -40.00        0.00
03325             -40.00     -200.00
03326             -20.00     -200.00
03327              60.00     -400.00
03328             100.00     -600.00
03329              40.00     -800.00
03330              40.00     -800.00
03331              40.00    -1000.00
03332              40.00    -1200.00
03333              80.00    -1400.00
03334             320.00    -1600.00
03335             780.00    -1800.00
03336             580.00    -2200.00
03337            -260.00    -2400.00
03338            -700.00    -2600.00
03339            -760.00    -2400.00
03340            -460.00    -2400.00
03341             520.00    -2800.00
03342             200.00    -3200.00
03343            -200.00    -2800.00
03344             300.00    -3800.00
03345              40.00    -3400.00
03346              80.00    -3400.00
03347             140.00    -4200.00
03348             -20.00    -4000.00
03349             340.00    -4200.00
03350             100.00    -4400.00
03351            -120.00    -4600.00
03352             100.00    -4800.00
03353               0.00    -4800.00
03354             120.00    -5200.00
03355             180.00    -5000.00
03356              60.00    -5400.00
03357              40.00    -5800.00
03358             140.00    -5600.00
03359             200.00    -6000.00
03360              20.00    -5800.00
03361             180.00    -6000.00
03362             140.00    -6400.00
03363              60.00    -6400.00
03364             180.00    -6400.00
03365             100.00    -6600.00
03366             120.00    -6800.00
03367             200.00    -7000.00
03368             180.00    -7000.00
03369             120.00    -7200.00
03370             140.00    -7200.00
03371             200.00    -7600.00
03372             140.00    -7600.00
03373             160.00    -7600.00
03374             180.00    -7800.00
03375             140.00    -7800.00
03376             180.00    -8000.00
03377             200.00    -8000.00
03378             180.00    -8400.00
03379             200.00    -8400.00
03380             200.00    -8400.00
03381             180.00    -8400.00
03382             200.00    -8400.00
03383             220.00    -8600.00
03384             200.00    -8800.00
03385             200.00    -8800.00
03386             200.00    -8800.00
03387             180.00    -9000.00
03388             200.00    -9000.00
03389             260.00    -9000.00
03390             220.00    -9200.00
03391             220.00    -9200.00
03392             200.00    -9200.00
03393             200.00    -9200.00
03394             200.00    -9200.00
03395             260.00    -9400.00
03396             240.00    -9600.00
03397             260.00    -9600.00
03398             260.00    -9400.00
03399             220.00    -9600.00
03400             220.00    -9800.00
03401             220.00    -9600.00
03402             260.00    -9600.00
03403             260.00    -9600.00
03404             240.00    -9600.00
03405             260.00    -9600.00
03406             220.00    -9800.00
03407             220.00    -9600.00
03408             260.00    -9800.00
03409             240.00    -9800.00
03410             260.00    -9800.00
03411             260.00    -9800.00
03412             260.00    -9800.00
03413             240.00    -9800.00
03414             260.00    -9600.00
03415             260.00    -9800.00
03416             260.00    -9600.00
03417             260.00    -9600.00
03418             260.00    -9600.00
03419             220.00    -9200.00
03420             240.00    -9600.00
03421             260.00    -9400.00
03422             260.00    -9200.00
03423             260.00    -9200.00
03424             260.00    -9200.00
03425             260.00    -9200.00
03426             220.00    -9000.00
03427             240.00    -9000.00
03428             220.00    -9000.00
03429             260.00    -8800.00
03430             260.00    -8800.00
03431             260.00    -8800.00
03432             220.00    -8800.00
03433             220.00    -8600.00
03434             260.00    -8400.00
03435             260.00    -8400.00
03436             260.00    -8400.00
03437             260.00    -8200.00
03438             220.00    -8200.00
03439             220.00    -8000.00
03440             220.00    -8000.00
03441             240.00    -8000.00
03442             240.00    -7800.00
03443             220.00    -7600.00
03444             220.00    -7600.00
03445             220.00    -7400.00
03446             200.00    -7400.00
03447             220.00    -7200.00
03448             220.00    -6800.00
03449             220.00    -6800.00
03450             200.00    -6800.00
03451             200.00    -6600.00
03452             200.00    -6600.00
03453             200.00    -6400.00
03454             200.00    -6400.00
03455             200.00    -6200.00
03456             200.00    -5800.00
03457             200.00    -6000.00
03458             180.00    -5800.00
03459             180.00    -5400.00
03460             180.00    -5600.00
03461             180.00    -5200.00
03462             180.00    -5000.00
03463             180.00    -4800.00
03464             180.00    -4800.00
03465             140.00    -4600.00
03466             140.00    -4400.00
03467             140.00    -4200.00
03468             140.00    -4000.00
03469             140.00    -3800.00
03470             140.00    -3800.00
03471             120.00    -3600.00
03472             120.00    -3600.00
03473             120.00    -3200.00
03474             120.00    -3200.00
03475             120.00    -3000.00
03476             120.00    -2800.00
03477             120.00    -2600.00
03478             100.00    -2400.00
03479             100.00    -2200.00
03480             100.00    -2000.00
03481             100.00    -1800.00
03482             100.00    -1600.00
03483             100.00    -1600.00
03484             100.00    -1200.00
03485             100.00    -1000.00
03486              60.00    -1000.00
03487              80.00     -800.00
03488              60.00     -600.00
03489              60.00     -200.00
03490              60.00        0.00
03491              60.00        0.00
03492              40.00      200.00
03493              60.00      400.00
03494             120.00      600.00
03495             140.00      800.00
03496             140.00      800.00
03497             120.00     1000.00
03498             100.00     1200.00
03499             100.00     1400.00
03500             160.00     1600.00
03501             620.00     2000.00
03502             980.00     2000.00
03503             260.00     2200.00
03504            -740.00     2200.00
03505           -1100.00     2400.00
03506            -840.00     2800.00
03507             580.00     3000.00
03508             500.00     3000.00
03509            -440.00     3200.00
03510             260.00     3200.00
03511             100.00     3600.00
03512            -340.00     4000.00
03513             120.00     3600.00
03514             -40.00     4200.00
03515             200.00     4400.00
03516              40.00     3800.00
03517            -300.00     4800.00
03518              40.00     4800.00
03519            -200.00     4600.00
03520              20.00     5400.00
03521              40.00     5000.00
03522            -140.00     5400.00
03523              20.00     5400.00
03524            -140.00     5400.00
03525             -20.00     6000.00
03526             -40.00     5800.00
03527            -140.00     6400.00
03528             -60.00     6200.00
03529            -100.00     6400.00
03530             -60.00     6800.00
03531            -200.00     6400.00
03532            -100.00     7200.00
03533             -60.00     7000.00
03534            -120.00     7200.00
03535            -100.00     7200.00
03536            -140.00     7200.00
03537            -140.00     7600.00
03538            -140.00     7600.00
03539            -120.00     7800.00
03540            -180.00     7600.00
03541            -180.00     7800.00
03542            -180.00     8000.00
03543            -180.00     8000.00
03544            -120.00     8400.00
03545            -140.00     8400.00
03546            -180.00     8600.00
03547            -220.00     8600.00
03548            -180.00     9000.00
03549            -200.00     8600.00
03550            -140.00     8800.00
03551            -180.00     9000.00
03552            -220.00     9000.00
03553            -220.00     9200.00
03554            -180.00     9200.00
03555            -180.00     9200.00
03556            -200.00     9200.00
03557            -200.00     9200.00
03558            -220.00     9400.00
03559            -220.00     9400.00
03560            -220.00     9400.00
03561            -220.00     9600.00
03562            -220.00     9600.00
03563            -200.00     9600.00
03564            -200.00     9600.00
03565            -220.00     9600.00
03566            -220.00     9800.00
03567            -220.00     9800.00
03568            -220.00     9600.00
03569            -220.00    10000.00
03570            -220.00    10000.00
03571            -220.00    10000.00
03572            -220.00     9800.00
03573            -240.00    10000.00
03574            -220.00    10000.00
03575            -220.00    10000.00
03576            -220.00    10000.00
03577            -240.00     9800.00
03578            -220.00     9800.00
03579            -240.00    10000.00
03580            -260.00     9800.00
03581            -260.00     9800.00
03582            -220.00     9600.00
03583            -240.00     9600.00
03584            -240.00     9600.00
03585            -220.00     9600.00
03586            -240.00     9600.00
03587            -240.00     9400.00
03588            -220.00     9600.00
03589            -240.00     9600.00
03590            -220.00     9400.00
03591            -220.00     9400.00
03592            -240.00     9400.00
03593            -240.00     9200.00
03594            -220.00     9200.00
03595            -260.00     9200.00
03596            -220.00     9200.00
03597            -240.00     9200.00
03598            -260.00     9200.00
03599            -260.00     8800.00
03600            -260.00     9000.00
03601            -260.00     8800.00
03602            -240.00     8600.00
03603            -220.00     8600.00
03604            -220.00     8400.00
03605            -240.00     8400.00
03606            -240.00     8200.00
03607            -220.00     8000.00
03608            -220.00     7800.00
03609            -220.00     7800.00
03610            -220.00     7800.00
03611            -220.00     7600.00
03612            -220.00     7600.00
03613            -220.00     7600.00
03614            -220.00     7200.00
03615            -200.00     7200.00
03616            -220.00     7000.00
03617            -220.00     7000.00
03618            -220.00     6800.00
03619            -200.00     6800.00
03620            -220.00     6600.00
03621            -200.00     6400.00
03622            -200.00     6400.00
03623            -200.00     6200.00
03624            -180.00     6000.00
03625            -200.00     5800.00
03626            -200.00     5600.00
03627            -200.00     5600.00
03628            -180.00     5400.00
03629            -180.00     5200.00
03630            -180.00     5200.00
03631            -180.00     4800.00
03632            -180.00     4800.00
03633            -180.00     4600.00
03634            -140.00     4400.00
03635            -140.00     4000.00
03636            -140.00     4000.00
03637            -140.00     3800.00
03638            -140.00     4000.00
03639            -120.00     3600.00
03640            -120.00     3600.00
03641            -120.00     3200.00
03642            -120.00     3000.00
03643            -120.00     2800.00
03644            -120.00     2800.00
03645            -120.00     2400.00
03646            -120.00     2400.00
03647            -120.00     2200.00
03648            -100.00     2000.00
03649            -100.00     2000.00
03650             -80.00     1600.00
03651            -100.00     1400.00
03652            -100.00     1400.00
03653            -100.00     1200.00
03654             -60.00      800.00
03655             -60.00      800.00
03656             -60.00      600.00
03657             -60.00      400.00
03658             -60.00      200.00
03659             -40.00        0.00
03660             -20.00     -200.00
03661              40.00     -200.00
03662              60.00     -600.00
03663              60.00     -800.00
03664              40.00     -800.00
03665              20.00    -1000.00
03666              20.00    -1200.00
03667              40.00    -1400.00
03668             200.00    -1600.00
03669             680.00    -1800.00
03670             680.00    -2200.00
03671             -40.00    -2400.00
03672            -660.00    -2400.00
03673            -760.00    -2600.00
03674            -660.00    -2400.00
03675             280.00    -2800.00
03676             420.00    -3200.00
03677            -220.00    -2800.00
03678             200.00    -3600.00
03679             160.00    -3600.00
03680             -20.00    -3400.00
03681             200.00    -4000.00
03682             -40.00    -4000.00
03683             260.00    -4200.00
03684             260.00    -4400.00
03685            -140.00    -4400.00
03686              60.00    -4800.00
03687              20.00    -4800.00
03688             100.00    -5200.00
03689             180.00    -5200.00
03690             100.00    -5200.00
03691              20.00    -5600.00
03692             120.00    -5400.00
03693             220.00    -5800.00
03694              60.00    -6000.00
03695             100.00    -5800.00
03696             200.00    -6400.00
03697              60.00    -6200.00
03698             140.00    -6600.00
03699             120.00    -6600.00
03700             100.00    -6800.00
03701             180.00    -7000.00
03702             200.00    -6800.00
03703             120.00    -7200.00
03704             140.00    -7400.00
03705             200.00    -7400.00
03706             160.00    -7600.00
03707             180.00    -7600.00
03708             180.00    -7600.00
03709             140.00    -7800.00
03710             180.00    -8000.00
03711             200.00    -8000.00
03712             200.00    -8200.00
03713             180.00    -8200.00
03714             200.00    -8200.00
03715             180.00    -8400.00
03716             180.00    -8400.00
03717             200.00    -8600.00
03718             200.00    -8800.00
03719             200.00    -8800.00
03720             200.00    -8800.00
03721             200.00    -9000.00
03722             220.00    -9000.00
03723             220.00    -9000.00
03724             240.00    -9200.00
03725             200.00    -9200.00
03726             220.00    -9200.00
03727             200.00    -9200.00
03728             200.00    -9200.00
03729             220.00    -9600.00
03730             260.00    -9200.00
03731             220.00    -9600.00
03732             220.00    -9600.00
03733             260.00    -9600.00
03734             200.00    -9600.00
03735             220.00    -9600.00
03736             220.00    -9600.00
03737             260.00    -9600.00
03738             240.00    -9600.00
03739             260.00    -9800.00
03740             200.00    -9600.00
03741             220.00    -9600.00
03742             220.00    -9800.00
03743             240.00    -9800.00
03744             260.00    -9800.00
03745             260.00    -9800.00
03746             260.00    -9600.00
03747             240.00    -9800.00
03748             240.00    -9800.00
03749             260.00    -9600.00
03750             260.00    -9800.00
03751             260.00    -9600.00
03752             260.00    -9600.00
03753             240.00    -9400.00
03754             260.00    -9600.00
03755             260.00    -9200.00
03756             260.00    -9400.00
03757             260.00    -9200.00
03758             260.00    -9200.00
03759             260.00    -9200.00
03760             260.00    -9000.00
03761             260.00    -9000.00
03762             220.00    -9000.00
03763             260.00    -9000.00
03764             260.00    -8800.00
03765             260.00    -8800.00
03766             260.00    -8800.00
03767             240.00    -8800.00
03768             260.00    -8600.00
03769             260.00    -8400.00
03770             260.00    -8200.00
03771             260.00    -8400.00
03772             220.00    -8000.00
03773             220.00    -8000.00
03774             220.00    -8000.00
03775             220.00    -8000.00
03776             220.00    -7800.00
03777             240.00    -7600.00
03778             220.00    -7600.00
03779             220.00    -7400.00
03780             200.00    -7400.00
03781             200.00    -7200.00
03782             220.00    -7000.00
03783             200.00    -6800.00
03784             220.00    -6800.00
03785             220.00    -6600.00
03786             200.00    -6600.00
03787             180.00    -6400.00
03788             200.00    -6400.00
03789             200.00    -6000.00
03790             200.00    -6000.00
03791             200.00    -5800.00
03792             200.00    -5600.00
03793             200.00    -5600.00
03794             180.00    -5600.00
03795             180.00    -5200.00
03796             180.00    -5000.00
03797             180.00    -5000.00
03798             180.00    -4800.00
03799             160.00    -4600.00
03800             140.00    -4400.00
03801             140.00    -4200.00
03802             140.00    -4000.00
03803             140.00    -3800.00
03804             140.00    -3800.00
03805             140.00    -3600.00
03806             120.00    -3600.00
03807             100.00    -3400.00
03808             120.00    -3000.00
03809             120.00    -3000.00
03810             120.00    -2800.00
03811             120.00    -2600.00
03812             120.00    -2400.00
03813             100.00    -2200.00
03814             100.00    -2000.00
03815             100.00    -1800.00
03816             100.00    -1600.00
03817             100.00    -1600.00
03818             100.00    -1200.00
03819             100.00    -1000.00
03820              60.00    -1000.00
03821              60.00     -800.00
03822              60.00     -400.00
03823              60.00     -400.00
03824              60.00     -200.00
03825              60.00        0.00
03826              60.00      200.00
03827              60.00      400.00
03828             120.00      600.00
03829             140.00      600.00
03830             140.00      800.00
03831             120.00     1000.00
03832             100.00     1200.00
03833             100.00     1400.00
03834             120.00     1600.00
03835             460.00     1800.00
03836            1000.00     2200.00
03837             520.00     2200.00
03838            -500.00     2200.00
03839           -1020.00     2200.00
03840           -1060.00     2600.00
03841             200.00     3000.00
03842             760.00     3000.00
03843            -380.00     3000.00
03844              40.00     3200.00
03845             280.00     3400.00
03846            -360.00     4000.00
03847              40.00     3600.00
03848              20.00     4000.00
03849             100.00     4600.00
03850             200.00     3800.00
03851            -300.00     4600.00
03852             -20.00     5200.00
03853            -100.00     4600.00
03854            -120.00     5200.00
03855             120.00     5000.00
03856            -180.00     5200.00
03857             -20.00     5600.00
03858            -120.00     5400.00
03859             -80.00     6000.00
03860               0.00     5800.00
03861            -180.00     6200.00
03862             -60.00     6200.00
03863            -120.00     6200.00
03864             -60.00     6800.00
03865            -180.00     6400.00
03866            -140.00     7000.00
03867             -40.00     7000.00
03868            -140.00     6800.00
03869            -100.00     7200.00
03870            -140.00     7400.00
03871            -140.00     7600.00
03872            -160.00     7600.00
03873            -100.00     7800.00
03874            -160.00     7600.00
03875            -180.00     7800.00
03876            -140.00     8200.00
03877            -200.00     8000.00
03878            -120.00     8400.00
03879            -120.00     8400.00
03880            -160.00     8400.00
03881            -220.00     8600.00
03882            -200.00     8600.00
03883            -200.00     8600.00
03884            -180.00     9000.00
03885            -120.00     9000.00
03886            -220.00     8800.00
03887            -220.00     9000.00
03888            -180.00     9200.00
03889            -180.00     9200.00
03890            -220.00     9200.00
03891            -180.00     9400.00
03892            -220.00     9400.00
03893            -220.00     9400.00
03894            -200.00     9600.00
03895            -220.00     9600.00
03896            -220.00     9600.00
03897            -220.00     9600.00
03898            -200.00     9600.00
03899            -220.00     9600.00
03900            -220.00     9800.00
03901            -220.00     9800.00
03902            -220.00     9600.00
03903            -200.00    10000.00
03904            -220.00    10000.00
03905            -220.00    10000.00
03906            -220.00    10000.00
03907            -220.00     9800.00
03908            -260.00     9600.00
03909            -220.00    10000.00
03910            -220.00    10000.00
03911            -220.00    10000.00
03912            -220.00    10000.00
03913            -220.00    10000.00
03914            -260.00     9600.00
03915            -260.00     9600.00
03916            -220.00     9800.00
03917            -220.00    10000.00
03918            -220.00     9800.00
03919            -220.00     9800.00
03920            -240.00     9600.00
03921            -260.00     9600.00
03922            -220.00     9600.00
03923            -220.00     9600.00
03924            -220.00     9400.00
03925            -220.00     9400.00
03926            -260.00     9400.00
03927            -260.00     9400.00
03928            -240.00     9200.00
03929            -260.00     9200.00
03930            -220.00     9000.00
03931            -220.00     9200.00
03932            -260.00     9000.00
03933            -220.00     8800.00
03934            -260.00     9000.00
03935            -220.00     8800.00
03936            -260.00     8600.00
03937            -220.00     8600.00
03938            -220.00     8600.00
03939            -260.00     8400.00
03940            -220.00     8200.00
03941            -220.00     8000.00
03942            -220.00     8000.00
03943            -220.00     8000.00
03944            -220.00     7800.00
03945            -200.00     7600.00
03946            -220.00     7600.00
03947            -220.00     7600.00
03948            -220.00     7400.00
03949            -220.00     7200.00
03950            -200.00     7000.00
03951            -200.00     7000.00
03952            -220.00     6800.00
03953            -220.00     6800.00
03954            -200.00     6400.00
03955            -200.00     6400.00
03956            -200.00     6400.00
03957            -200.00     6200.00
03958            -180.00     6000.00
03959            -200.00     5600.00
03960            -200.00     5600.00
03961            -200.00     5600.00
03962            -180.00     5400.00
03963            -140.00     5400.00
03964            -160.00     5200.00
03965            -180.00     5000.00
03966            -180.00     4800.00
03967            -140.00     4600.00
03968            -140.00     4400.00
03969            -160.00     4400.00
03970            -140.00     4200.00
03971            -140.00     4000.00
03972            -140.00     3800.00
03973            -140.00     3600.00
03974            -140.00     3400.00
03975            -120.00     3200.00
03976            -120.00     3000.00
03977            -120.00     2800.00
03978            -120.00     2800.00
03979            -120.00     2600.00
03980            -140.00     2400.00
03981            -120.00     2200.00
03982            -100.00     2000.00
03983            -100.00     2000.00
03984             -60.00     1600.00
03985            -100.00     1400.00
03986             -60.00     1200.00
03987             -60.00     1200.00
03988             -60.00     1000.00
03989             -60.00      600.00
03990             -60.00      600.00
03991             -60.00      400.00
03992             -60.00      200.00
03993             -60.00        0.00
03994             -40.00     -200.00
03995              20.00     -400.00
03996              60.00     -400.00
03997              60.00     -800.00
03998              40.00    -1000.00
03999              20.00    -1000.00
04000              20.00    -1200.00
04001              40.00    -1200.00
04002             140.00    -1400.00
04003             520.00    -1800.00
04004             820.00    -2000.00
04005             200.00    -2200.00
04006            -540.00    -2400.00
04007            -740.00    -2400.00
04008            -760.00    -2400.00
04009               0.00    -2600.00
04010             560.00    -3200.00
04011            -140.00    -3000.00
04012              60.00    -3200.00
04013             280.00    -4000.00
04014             -60.00    -3200.00
04015             200.00    -3800.00
04016              20.00    -4000.00
04017             120.00    -4000.00
04018             340.00    -4400.00
04019             -80.00    -4400.00
04020              20.00    -4800.00
04021              40.00    -4600.00
04022              20.00    -5000.00
04023             180.00    -5200.00
04024             120.00    -5200.00
04025              40.00    -5600.00
04026              40.00    -5600.00
04027             220.00    -5600.00
04028             120.00    -6000.00
04029              60.00    -5800.00
04030             220.00    -6200.00
04031             100.00    -6400.00
04032             120.00    -6400.00
04033             140.00    -6400.00
04034              60.00    -6600.00
04035             160.00    -6800.00
04036             200.00    -7000.00
04037             140.00    -7200.00
04038             120.00    -7400.00
04039             200.00    -7400.00
04040             180.00    -7600.00
04041             160.00    -7600.00
04042             160.00    -7600.00
04043             140.00    -7800.00
04044             140.00    -8000.00
04045             200.00    -8000.00
04046             200.00    -8200.00
04047             180.00    -8200.00
04048             200.00    -8200.00
04049             180.00    -8400.00
04050             180.00    -8400.00
04051             200.00    -8400.00
04052             200.00    -8600.00
04053             200.00    -8800.00
04054             200.00    -8800.00
04055             200.00    -8800.00
04056             180.00    -9000.00
04057             220.00    -9000.00
04058             240.00    -9000.00
04059             200.00    -9200.00
04060             200.00    -9200.00
04061             200.00    -9000.00
04062             200.00    -9200.00
04063             220.00    -9200.00
04064             220.00    -9200.00
04065             240.00    -9600.00
04066             220.00    -9600.00
04067             220.00    -9600.00
04068             200.00    -9600.00
04069             220.00    -9600.00
04070             220.00    -9600.00
04071             260.00    -9600.00
04072             240.00    -9800.00
04073             220.00    -9600.00
04074             220.00    -9600.00
04075             220.00    -9800.00
04076             220.00    -9600.00
04077             260.00    -9800.00
04078             240.00    -9600.00
04079             260.00    -9600.00
04080             260.00    -9800.00
04081             220.00    -9600.00
04082             240.00    -9600.00
04083             260.00    -9600.00
04084             260.00    -9600.00
04085             260.00    -9600.00
04086             260.00    -9600.00
04087             220.00    -9400.00
04088             260.00    -9400.00
04089             260.00    -9200.00
04090             260.00    -9200.00
04091             260.00    -9200.00
04092             260.00    -9200.00
04093             260.00    -9200.00
04094             260.00    -9000.00
04095             260.00    -9200.00
04096             260.00    -9000.00
04097             260.00    -9000.00
04098             260.00    -8800.00
04099             260.00    -8800.00
04100             260.00    -8800.00
04101             240.00    -8800.00
04102             220.00    -8600.00
04103             260.00    -8400.00
04104             260.00    -8400.00
04105             260.00    -8200.00
04106             220.00    -8400.00
04107             240.00    -8000.00
04108             220.00    -8000.00
04109             220.00    -7600.00
04110             220.00    -7800.00
04111             220.00    -7600.00
04112             260.00    -7600.00
04113             220.00    -7200.00
04114             200.00    -7400.00
04115             220.00    -7200.00
04116             200.00    -7200.00
04117             200.00    -7200.00
04118             220.00    -6800.00
04119             220.00    -6600.00
04120             200.00    -6600.00
04121             200.00    -6400.00
04122             200.00    -6400.00
04123             200.00    -6000.00
04124             200.00    -6000.00
04125             200.00    -5800.00
04126             200.00    -6000.00
04127             180.00    -5600.00
04128             180.00    -5600.00
04129             180.00    -5400.00
04130             180.00    -5200.00
04131             180.00    -5000.00
04132             180.00    -4800.00
04133             140.00    -4800.00
04134             180.00    -4400.00
04135             140.00    -4200.00
04136             140.00    -4200.00
04137             140.00    -4000.00
04138             140.00    -3800.00
04139             140.00    -3600.00
04140             120.00    -3600.00
04141             120.00    -3200.00
04142             120.00    -3200.00
04143             120.00    -3200.00
04144             120.00    -2800.00
04145             120.00    -2600.00
04146             120.00    -2400.00
04147             100.00    -2200.00
04148             100.00    -2000.00
04149             120.00    -1800.00
04150             100.00    -1600.00
04151             100.00    -1800.00
04152             100.00    -1200.00
04153             100.00    -1200.00
04154              60.00    -1000.00
04155              80.00     -800.00
04156              60.00     -600.00
04157              60.00     -400.00
04158              40.00     -200.00
04159              60.00     -200.00
04160              60.00        0.00
04161              60.00      400.00
04162             100.00      600.00
04163             140.00      600.00
04164             140.00      800.00
04165             120.00      800.00
04166             100.00     1200.00
04167             100.00     1400.00
04168             120.00     1400.00
04169             300.00     1600.00
04170             920.00     2000.00
04171             740.00     2200.00
04172            -260.00     2200.00
04173            -940.00     2200.00
04174           -1140.00     2600.00
04175            -220.00     3000.00
04176             880.00     3000.00
04177            -140.00     3000.00
04178            -200.00     3200.00
04179             380.00     3200.00
04180            -280.00     4000.00
04181             -80.00     4000.00
04182             100.00     3600.00
04183             -20.00     4400.00
04184             280.00     4000.00
04185            -220.00     4200.00
04186            -120.00     5200.00
04187             -20.00     4400.00
04188            -200.00     5000.00
04189             120.00     5200.00
04190            -120.00     5000.00
04191            -100.00     5600.00
04192             -60.00     5400.00
04193            -140.00     5600.00
04194              20.00     6000.00
04195            -140.00     6000.00
04196            -100.00     6400.00
04197            -100.00     6000.00
04198             -60.00     6800.00
04199            -140.00     6400.00
04200            -200.00     6800.00
04201             -20.00     7000.00
04202            -120.00     6800.00
04203            -120.00     7200.00
04204            -120.00     7200.00
04205            -140.00     7600.00
04206            -180.00     7600.00
04207            -100.00     7600.00
04208            -140.00     7600.00
04209            -180.00     7800.00
04210            -140.00     8000.00
04211            -200.00     8000.00
04212            -140.00     8400.00
04213            -120.00     8400.00
04214            -160.00     8400.00
04215            -200.00     8600.00
04216            -200.00     8600.00
04217            -200.00     8600.00
04218            -200.00     8600.00
04219            -140.00     9000.00
04220            -200.00     8800.00
04221            -220.00     9000.00
04222            -220.00     9200.00
04223            -180.00     9200.00
04224            -200.00     9200.00
04225            -180.00     9400.00
04226            -200.00     9400.00
04227            -220.00     9400.00
04228            -220.00     9400.00
04229            -220.00     9400.00
04230            -220.00     9400.00
04231            -200.00     9600.00
04232            -200.00     9600.00
04233            -220.00     9600.00
04234            -220.00     9800.00
04235            -220.00     9800.00
04236            -220.00     9600.00
04237            -200.00     9800.00
04238            -220.00    10000.00
04239            -220.00    10000.00
04240            -240.00     9800.00
04241            -220.00     9800.00
04242            -240.00    10000.00
04243            -220.00    10000.00
04244            -220.00    10000.00
04245            -220.00    10000.00
04246            -220.00     9800.00
04247            -220.00    10000.00
04248            -220.00    10000.00
04249            -260.00    10000.00
04250            -240.00    10000.00
04251            -240.00     9600.00
04252            -220.00     9600.00
04253            -220.00     9800.00
04254            -260.00     9600.00
04255            -260.00     9600.00
04256            -240.00     9600.00
04257            -240.00     9600.00
04258            -260.00     9600.00
04259            -240.00     9400.00
04260            -260.00     9400.00
04261            -260.00     9400.00
04262            -260.00     9400.00
04263            -240.00     9200.00
04264            -240.00     9200.00
04265            -220.00     9200.00
04266            -220.00     9200.00
04267            -260.00     8800.00
04268            -260.00     8800.00
04269            -220.00     8800.00
04270            -220.00     8600.00
04271            -220.00     8600.00
04272            -220.00     8600.00
04273            -220.00     8400.00
04274            -220.00     8200.00
04275            -220.00     8400.00
04276            -220.00     8000.00
04277            -220.00     8000.00
04278            -220.00     7800.00
04279            -200.00     7600.00
04280            -220.00     7600.00
04281            -220.00     7600.00
04282            -220.00     7600.00
04283            -220.00     7200.00
04284            -200.00     7000.00
04285            -200.00     7000.00
04286            -220.00     7000.00
04287            -220.00     6800.00
04288            -200.00     6400.00
04289            -200.00     6600.00
04290            -200.00     6400.00
04291            -180.00     6200.00
04292            -200.00     6200.00
04293            -180.00     6000.00
04294            -200.00     5600.00
04295            -200.00     5600.00
04296            -180.00     5400.00
04297            -180.00     5400.00
04298            -180.00     5200.00
04299            -180.00     4800.00
04300            -180.00     5000.00
04301            -180.00     4600.00
04302            -140.00     4600.00
04303            -140.00     4400.00
04304            -140.00     4200.00
04305            -140.00     4000.00
04306            -140.00     3800.00
04307            -140.00     3600.00
04308            -120.00     3600.00
04309            -120.00     3200.00
04310            -120.00     3200.00
04311            -120.00     3000.00
04312            -120.00     2800.00
04313            -120.00     2800.00
04314            -120.00     2400.00
04315            -120.00     2200.00
04316            -100.00     2000.00
04317            -100.00     1800.00
04318            -100.00     1600.00
04319             -80.00     1600.00
04320            -100.00     1200.00
04321            -100.00     1200.00
04322             -80.00     1000.00
04323             -60.00      800.00
04324             -60.00      600.00
04325             -60.00      400.00
04326             -60.00      400.00
04327             -40.00        0.00
04328             -40.00        0.00
04329             -20.00     -200.00
04330              60.00     -400.00
04331              80.00     -800.00
04332              40.00     -800.00
04333              20.00    -1000.00
04334              40.00    -1000.00
04335              20.00    -1400.00
04336             100.00    -1600.00
04337             420.00    -1600.00
04338             840.00    -2000.00
04339             420.00    -2000.00
04340            -380.00    -2400.00
04341            -700.00    -2400.00
04342            -780.00    -2400.00
04343            -300.00    -2400.00
04344             580.00    -3000.00
04345              20.00    -3200.00
04346             -60.00    -3000.00
04347             340.00    -3600.00
04348             -40.00    -3200.00
04349             160.00    -3600.00
04350             100.00    -4200.00
04351              20.00    -3800.00
04352             360.00    -4200.00
04353              20.00    -4400.00
04354             -60.00    -4600.00
04355             100.00    -4600.00
04356              20.00    -5000.00
04357             160.00    -5200.00
04358             140.00    -5000.00
04359              40.00    -5400.00
04360              40.00    -5600.00
04361             200.00    -5400.00
04362             180.00    -6000.00
04363              20.00    -6000.00
04364             200.00    -6000.00
04365             140.00    -6000.00
04366             100.00    -6400.00
04367             180.00    -6600.00
04368             100.00    -6600.00
04369             140.00    -6800.00
04370             200.00    -6800.00
04371             180.00    -7000.00
04372             100.00    -7200.00
04373             180.00    -7200.00
04374             200.00    -7600.00
04375             160.00    -7600.00
04376             140.00    -7600.00
04377             140.00    -7800.00
04378             140.00    -8000.00
04379             180.00    -8000.00
04380             200.00    -8000.00
04381             180.00    -8400.00
04382             200.00    -8200.00
04383             180.00    -8400.00
04384             140.00    -8400.00
04385             180.00    -8400.00
04386             200.00    -8600.00
04387             200.00    -8800.00
04388             200.00    -8800.00
04389             200.00    -8800.00
04390             180.00    -9000.00
04391             200.00    -9000.00
04392             240.00    -9000.00
04393             220.00    -9200.00
04394             200.00    -9200.00
04395             200.00    -9200.00
04396             180.00    -9200.00
04397             200.00    -9600.00
04398             220.00    -9200.00
04399             240.00    -9600.00
04400             220.00    -9600.00
04401             220.00    -9600.00
04402             220.00    -9600.00
04403             220.00    -9600.00
04404             220.00    -9600.00
04405             260.00    -9600.00
04406             260.00    -9800.00
04407             260.00    -9800.00
04408             220.00    -9600.00
04409             220.00    -9800.00
04410             220.00    -9600.00
04411             220.00    -9600.00
04412             260.00    -9800.00
04413             260.00    -9600.00
04414             260.00    -9600.00
04415             240.00    -9600.00
04416             220.00    -9600.00
04417             260.00    -9800.00
04418             260.00    -9600.00
04419             260.00    -9600.00
04420             260.00    -9600.00
04421             260.00    -9600.00
04422             260.00    -9400.00
04423             260.00    -9400.00
04424             260.00    -9400.00
04425             260.00    -9200.00
04426             260.00    -9200.00
04427             260.00    -9200.00
04428             260.00    -9200.00
04429             260.00    -9000.00
04430             260.00    -9000.00
04431             260.00    -9000.00
04432             260.00    -9000.00
04433             260.00    -8800.00
04434             260.00    -8800.00
04435             260.00    -8800.00
04436             260.00    -8600.00
04437             220.00    -8400.00
04438             260.00    -8400.00
04439             260.00    -8400.00
04440             260.00    -8200.00
04441             260.00    -8200.00
04442             220.00    -8000.00
04443             220.00    -8000.00
04444             220.00    -7800.00
04445             260.00    -7800.00
04446             220.00    -7400.00
04447             220.00    -7600.00
04448             200.00    -7400.00
04449             200.00    -7200.00
04450             200.00    -7400.00
04451             200.00    -6800.00
04452             220.00    -7000.00
04453             200.00    -6800.00
04454             200.00    -6600.00
04455             200.00    -6400.00
04456             200.00    -6400.00
04457             200.00    -6200.00
04458             180.00    -6000.00
04459             180.00    -5800.00
04460             200.00    -5800.00
04461             180.00    -5600.00
04462             180.00    -5600.00
04463             180.00    -5200.00
04464             180.00    -5200.00
04465             180.00    -5000.00
04466             180.00    -5000.00
04467             180.00    -4800.00
04468             140.00    -4600.00
04469             160.00    -4400.00
04470             140.00    -4200.00
04471             140.00    -3800.00
04472             140.00    -3800.00
04473             140.00    -3600.00
04474             140.00    -3600.00
04475             120.00    -3400.00
04476             120.00    -3200.00
04477             140.00    -3000.00
04478             120.00    -2800.00
04479             120.00    -2600.00
04480             120.00    -2400.00
04481             120.00    -2400.00
04482             100.00    -2000.00
04483             100.00    -2000.00
04484             100.00    -1800.00
04485             100.00    -1600.00
04486             100.00    -1200.00
04487             100.00    -1000.00
04488              60.00    -1000.00
04489              60.00     -800.00
04490              60.00     -400.00
04491              60.00     -400.00
04492              60.00     -200.00
04493              80.00        0.00
04494              60.00        0.00
04495              60.00      400.00
04496              80.00      400.00
04497             140.00      600.00
04498             160.00      800.00
04499             140.00     1000.00
04500             100.00     1000.00
04501             100.00     1200.00
04502             100.00     1200.00
04503             200.00     1600.00
04504             760.00     2000.00
04505             920.00     2200.00
04506              20.00     2200.00
04507            -860.00     2200.00
04508           -1140.00     2400.00
04509            -600.00     2800.00
04510             760.00     3000.00
04511             200.00     2800.00
04512            -420.00     3200.00
04513             360.00     3200.00
04514            -100.00     3600.00
04515            -260.00     4000.00
04516             120.00     3600.00
04517             -60.00     4400.00
04518             260.00     4200.00
04519             -80.00     3800.00
04520            -260.00     5000.00
04521              40.00     4400.00
04522            -220.00     4800.00
04523              60.00     5400.00
04524             -20.00     4800.00
04525            -140.00     5600.00
04526             -20.00     5400.00
04527            -180.00     5600.00
04528              20.00     6000.00
04529            -100.00     6000.00
04530            -120.00     6200.00
04531            -100.00     6000.00
04532            -100.00     6400.00
04533            -100.00     6600.00
04534            -220.00     6600.00
04535             -60.00     7000.00
04536             -80.00     6800.00
04537            -120.00     7200.00
04538            -120.00     7200.00
04539            -160.00     7600.00
04540            -180.00     7600.00
04541            -120.00     7600.00
04542            -120.00     7800.00
04543            -200.00     7800.00
04544            -140.00     8000.00
04545            -200.00     8000.00
04546            -180.00     8200.00
04547            -120.00     8400.00
04548            -140.00     8400.00
04549            -200.00     8400.00
04550            -200.00     8600.00
04551            -180.00     8800.00
04552            -200.00     8600.00
04553            -140.00     9000.00
04554            -180.00     9000.00
04555            -260.00     9000.00
04556            -220.00     9200.00
04557            -180.00     9200.00
04558            -200.00     9200.00
04559            -180.00     9200.00
04560            -180.00     9400.00
04561            -220.00     9400.00
04562            -220.00     9600.00
04563            -200.00     9400.00
04564            -220.00     9600.00
04565            -220.00     9600.00
04566            -200.00     9600.00
04567            -200.00     9800.00
04568            -220.00     9600.00
04569            -220.00    10000.00
04570            -260.00     9800.00
04571            -220.00    10000.00
04572            -200.00    10000.00
04573            -220.00    10000.00
04574            -240.00    10000.00
04575            -220.00    10000.00
04576            -220.00     9800.00
04577            -220.00    10000.00
04578            -240.00     9800.00
04579            -220.00     9800.00
04580            -260.00     9800.00
04581            -220.00    10000.00
04582            -240.00     9800.00
04583            -260.00     9800.00
04584            -260.00    10000.00
04585            -220.00     9800.00
04586            -220.00     9800.00
04587            -240.00     9600.00
04588            -280.00     9600.00
04589            -260.00     9600.00
04590            -240.00     9600.00
04591            -240.00     9600.00
04592            -220.00     9400.00
04593            -260.00     9600.00
04594            -220.00     9400.00
04595            -240.00     9400.00
04596            -260.00     9400.00
04597            -260.00     9200.00
04598            -260.00     9200.00
04599            -220.00     9200.00
04600            -220.00     8800.00
04601            -260.00     9000.00
04602            -260.00     8800.00
04603            -240.00     9000.00
04604            -220.00     8600.00
04605            -220.00     8600.00
04606            -220.00     8600.00
04607            -220.00     8600.00
04608            -220.00     8200.00
04609            -220.00     8200.00
04610            -220.00     8000.00
04611            -220.00     8000.00
04612            -200.00     8000.00
04613            -220.00     7800.00
04614            -220.00     7600.00
04615            -220.00     7600.00
04616            -220.00     7200.00
04617            -220.00     7400.00
04618            -200.00     7200.00
04619            -200.00     7000.00
04620            -200.00     7000.00
04621            -220.00     6800.00
04622            -200.00     6800.00
04623            -200.00     6400.00
04624            -200.00     6400.00
04625            -200.00     6200.00
04626            -180.00     6000.00
04627            -180.00     6000.00
04628            -180.00     5800.00
04629            -200.00     5600.00
04630            -180.00     5400.00
04631            -180.00     5400.00
04632            -160.00     5200.00
04633            -180.00     5000.00
04634            -180.00     4800.00
04635            -180.00     4800.00
04636            -160.00     4400.00
04637            -140.00     4400.00
04638            -140.00     4200.00
04639            -140.00     4000.00
04640            -140.00     3800.00
04641            -140.00     3600.00
04642            -140.00     3600.00
04643            -140.00     3200.00
04644            -140.00     3000.00
04645            -120.00     3000.00
04646            -120.00     2800.00
04647            -120.00     2800.00
04648            -120.00     2400.00
04649            -120.00     2200.00
04650            -100.00     2200.00
04651            -100.00     2000.00
04652            -100.00     1600.00
04653            -100.00     1400.00
04654            -100.00     1400.00
04655            -100.00     1200.00
04656             -60.00      800.00
04657             -60.00      800.00
04658             -80.00      600.00
04659             -80.00      400.00
04660             -60.00      400.00
04661             -60.00        0.00
04662             -40.00        0.00
04663             -40.00     -200.00
04664              40.00     -400.00
04665              40.00     -600.00
04666              40.00     -800.00
04667              40.00    -1000.00
04668              20.00    -1000.00
04669              40.00    -1200.00
04670              60.00    -1600.00
04671             280.00    -1600.00
04672             760.00    -2000.00
04673             600.00    -2400.00
04674            -200.00    -2400.00
04675            -680.00    -2400.00
04676            -780.00    -2600.00
04677            -520.00    -2400.00
04678             440.00    -2800.00
04679             260.00    -3200.00
04680            -200.00    -2800.00
04681             340.00    -3800.00
04682              60.00    -3400.00
04683              40.00    -3400.00
04684             180.00    -4200.00
04685             -40.00    -3800.00
04686             340.00    -4200.00
04687             140.00    -4400.00
04688            -120.00    -4400.00
04689             100.00    -4800.00
04690               0.00    -4800.00
04691             120.00    -5000.00
04692             180.00    -5000.00
04693              60.00    -5200.00
04694              20.00    -5600.00
04695             160.00    -5400.00
04696             220.00    -6000.00
04697              40.00    -5800.00
04698             140.00    -6000.00
04699             180.00    -6400.00
04700              80.00    -6200.00
04701             140.00    -6600.00
04702             100.00    -6600.00
04703             100.00    -6600.00
04704             200.00    -6800.00
04705             180.00    -7000.00
04706             120.00    -7200.00
04707             160.00    -7200.00
04708             200.00    -7400.00
04709             160.00    -7600.00
04710             180.00    -7600.00
04711             180.00    -8000.00
04712             120.00    -8000.00
04713             180.00    -8000.00
04714             200.00    -8000.00
04715             180.00    -8200.00
04716             180.00    -8200.00
04717             200.00    -8400.00
04718             180.00    -8400.00
04719             180.00    -8400.00
04720             200.00    -8800.00
04721             200.00    -8800.00
04722             180.00    -8800.00
04723             180.00    -8800.00
04724             180.00    -9000.00
04725             200.00    -9000.00
04726             220.00    -9000.00
04727             200.00    -9000.00
04728             220.00    -9200.00
04729             200.00    -9200.00
04730             200.00    -9200.00
04731             200.00    -9200.00
04732             220.00    -9600.00
04733             220.00    -9200.00
04734             220.00    -9600.00
04735             240.00    -9600.00
04736             240.00    -9600.00
04737             220.00    -9600.00
04738             220.00    -9600.00
04739             260.00    -9600.00
04740             260.00    -9800.00
04741             260.00    -9800.00
04742             240.00    -9600.00
04743             220.00    -9800.00
04744             260.00    -9600.00
04745             260.00    -9600.00
04746             260.00    -9600.00
04747             260.00    -9800.00
04748             260.00    -9600.00
04749             260.00    -9600.00
04750             260.00    -9600.00
04751             260.00    -9600.00
04752             260.00    -9600.00
04753             260.00    -9600.00
04754             280.00    -9400.00
04755             260.00    -9600.00
04756             260.00    -9400.00
04757             260.00    -9200.00
04758             260.00    -9400.00
04759             260.00    -9200.00
04760             260.00    -9200.00
04761             260.00    -9200.00
04762             260.00    -9200.00
04763             240.00    -9200.00
04764             240.00    -9000.00
04765             240.00    -9000.00
04766             260.00    -9000.00
04767             260.00    -8800.00
04768             260.00    -8800.00
04769             240.00    -8800.00
04770             220.00    -8600.00
04771             220.00    -8400.00
04772             240.00    -8400.00
04773             220.00    -8400.00
04774             260.00    -8200.00
04775             220.00    -8000.00
04776             220.00    -8200.00
04777             200.00    -8000.00
04778             220.00    -7800.00
04779             220.00    -7800.00
04780             220.00    -7600.00
04781             240.00    -7400.00
04782             220.00    -7400.00
04783             200.00    -7200.00
04784             200.00    -7200.00
04785             220.00    -7200.00
04786             200.00    -6800.00
04787             200.00    -6800.00
04788             180.00    -6600.00
04789             180.00    -6400.00
04790             180.00    -6400.00
04791             200.00    -6400.00
04792             220.00    -6000.00
04793             220.00    -6000.00
04794             220.00    -5800.00
04795             220.00    -5600.00
04796             180.00    -5600.00
04797             140.00    -5400.00
04798             120.00    -5200.00
04799             120.00    -5000.00
04800             120.00    -5000.00
04801             140.00    -4800.00
04802             180.00    -4600.00
04803             200.00    -4400.00
04804             200.00    -4200.00
04805             200.00    -4000.00
04806             180.00    -3800.00
04807             140.00    -3800.00
04808             100.00    -3400.00
04809             100.00    -3400.00
04810             100.00    -3200.00
04811             120.00    -3200.00
04812             140.00    -2800.00
04813             180.00    -2800.00
04814             180.00    -2400.00
04815             140.00    -2400.00
04816             120.00    -2200.00
04817             100.00    -2000.00
04818              60.00    -1600.00
04819              60.00    -1600.00
04820              60.00    -1400.00
04821             100.00    -1200.00
04822             100.00    -1000.00
04823             120.00     -800.00
04824             120.00     -800.00
04825             120.00     -600.00
04826             120.00     -400.00
04827              80.00        0.00
04828              40.00        0.00
04829              20.00      200.00
04830              40.00      400.00
04831             100.00      600.00
04832             160.00      600.00
04833             180.00     1000.00
04834             160.00     1000.00
04835             120.00     1200.00
04836             120.00     1400.00
04837             140.00     1600.00
04838             560.00     1800.00
04839             980.00     2200.00
04840             280.00     2200.00
04841            -700.00     2200.00
04842           -1080.00     2200.00
04843            -900.00     2800.00
04844             520.00     3000.00
04845             580.00     2800.00
04846            -440.00     3200.00
04847             200.00     3200.00
04848             100.00     3200.00
04849            -380.00     4000.00
04850              80.00     3600.00
04851             -60.00     4200.00
04852             180.00     4400.00
04853             100.00     3800.00
04854            -280.00     4800.00
04855              40.00     4600.00
04856            -180.00     4600.00
04857             -40.00     5400.00
04858              60.00     4800.00
04859            -200.00     5400.00
04860             -20.00     5600.00
04861            -180.00     5400.00
04862             -40.00     6000.00
04863             -40.00     5800.00
04864            -140.00     6200.00
04865             -60.00     6200.00
04866            -100.00     6400.00
04867             -60.00     6600.00
04868            -220.00     6400.00
04869            -100.00     7000.00
04870             -60.00     6800.00
04871            -120.00     7000.00
04872             -80.00     7200.00
04873            -140.00     7400.00
04874            -140.00     7600.00
04875            -140.00     7600.00
04876            -100.00     7800.00
04877            -160.00     7800.00
04878            -140.00     7800.00
04879            -180.00     8000.00
04880            -200.00     8000.00
04881            -120.00     8400.00
04882            -120.00     8400.00
04883            -180.00     8600.00
04884            -200.00     8600.00
04885            -180.00     9000.00
04886            -180.00     8800.00
04887            -180.00     8800.00
04888            -140.00     9200.00
04889            -220.00     9000.00
04890            -220.00     9000.00
04891            -180.00     9200.00
04892            -180.00     9200.00
04893            -180.00     9400.00
04894            -180.00     9400.00
04895            -220.00     9400.00
04896            -220.00     9400.00
04897            -220.00     9400.00
04898            -220.00     9600.00
04899            -220.00     9600.00
04900            -200.00     9600.00
04901            -200.00     9600.00
04902            -220.00     9600.00
04903            -220.00     9800.00
04904            -220.00     9600.00
04905            -260.00     9600.00
04906            -200.00    10000.00
04907            -260.00     9800.00
04908            -280.00    10000.00
04909            -220.00    10000.00
04910            -240.00     9800.00
04911            -260.00    10000.00
04912            -220.00     9800.00
04913            -220.00    10000.00
04914            -240.00    10000.00
04915            -220.00     9800.00
04916            -260.00    10000.00
04917            -280.00     9800.00
04918            -260.00     9600.00
04919            -260.00     9800.00
04920            -220.00     9800.00
04921            -260.00     9600.00
04922            -220.00     9800.00
04923            -260.00     9600.00
04924            -260.00     9600.00
04925            -260.00     9600.00
04926            -260.00     9400.00
04927            -260.00     9400.00
04928            -260.00     9400.00
04929            -260.00     9400.00
04930            -240.00     9400.00
04931            -240.00     9200.00
04932            -220.00     9200.00
04933            -220.00     9200.00
04934            -220.00     9200.00
04935            -220.00     9000.00
04936            -260.00     9000.00
04937            -240.00     8800.00
04938            -220.00     8600.00
04939            -220.00     8800.00
04940            -220.00     8600.00
04941            -220.00     8600.00
04942            -240.00     8400.00
04943            -220.00     8400.00
04944            -220.00     8200.00
04945            -220.00     8000.00
04946            -200.00     8000.00
04947            -220.00     7800.00
04948            -220.00     7800.00
04949            -220.00     7600.00
04950            -220.00     7600.00
04951            -220.00     7400.00
04952            -200.00     7200.00
04953            -200.00     7200.00
04954            -200.00     6800.00
04955            -220.00     6800.00
04956            -200.00     6800.00
04957            -200.00     6400.00
04958            -200.00     6400.00
04959            -200.00     6200.00
04960            -200.00     6200.00
04961            -180.00     6000.00
04962            -180.00     5800.00
04963            -180.00     5600.00
04964            -200.00     5400.00
04965            -200.00     5200.00
04966            -180.00     5200.00
04967            -180.00     5000.00
04968            -180.00     5000.00
04969            -140.00     4800.00
04970            -200.00     4600.00
04971            -140.00     4400.00
04972            -140.00     4000.00
04973            -160.00     4200.00
04974            -140.00     4000.00
04975            -160.00     3800.00
04976            -140.00     3600.00
04977            -140.00     3200.00
04978            -120.00     3200.00
04979            -120.00     3200.00
04980            -120.00     3000.00
04981            -120.00     2800.00
04982            -120.00     2400.00
04983            -120.00     2400.00
04984            -120.00     2200.00
04985            -100.00     2000.00
04986            -100.00     1800.00
04987            -100.00     1600.00
04988            -100.00     1400.00
04989            -100.00     1200.00
04990             -80.00     1200.00
04991            -100.00      800.00
04992             -60.00      600.00
04993             -60.00      600.00
04994             -60.00      400.00
04995             -60.00      200.00
04996             -60.00        0.00
04997             -40.00     -200.00
04998              40.00     -400.00
04999             100.00     -600.00
05000              60.00     -800.00
