Unit:(mV)
                     CH1         CH2
Frequency              ? 299.952 kHz
00001              25.00    -6400.00
00002             -24.20    -7200.00
00003             -25.00    -8000.00
00004              21.20    -8000.00
00005              10.20    -8000.00
00006             -25.00    -8000.00
00007              21.40    -8800.00
00008              25.00   -10400.00
00009             -25.00    -9600.00
00010              25.00   -11200.00
00011              25.00   -11200.00
00012             -25.00   -12000.00
00013              25.00   -12800.00
00014              -2.20   -13600.00
00015              -3.80   -13600.00
00016              20.40   -14400.00
00017             -25.00   -14400.00
00018              25.00   -16000.00
00019               1.00   -16000.00
00020             -25.00   -16800.00
00021              25.00   -16800.00
00022               3.60   -17600.00
00023             -25.00   -17600.00
00024              16.40   -18400.00
00025              15.00   -19200.00
00026             -25.00   -20000.00
00027              22.60   -20000.00
00028               8.80   -20800.00
00029             -18.20   -20800.00
00030              18.20   -20800.00
00031              -6.00   -22400.00
00032              -6.20   -22400.00
00033              10.40   -23200.00
00034              -1.80   -23200.00
00035              -2.60   -24000.00
00036              12.20   -23200.00
00037              -6.80   -24000.00
00038              -1.00   -25600.00
00039              10.60   -25600.00
00040              -9.40   -25600.00
00041               5.80   -26400.00
00042               5.60   -26400.00
00043              -4.20   -26400.00
00044               3.80   -27200.00
00045               3.00   -27200.00
00046              -2.00   -27200.00
00047               3.00   -28800.00
00048               3.00   -28000.00
00049              -2.00   -28800.00
00050               3.00   -28800.00
00051               1.80   -28800.00
00052              -1.00   -29600.00
00053               4.20   -29600.00
00054               1.40   -29600.00
00055               0.00   -30400.00
00056               4.40   -30400.00
00057               0.40   -30400.00
00058               0.40   -30400.00
00059               3.40   -30400.00
00060               0.60   -30400.00
00061               2.60   -31200.00
00062               2.60   -32000.00
00063               0.40   -32000.00
00064               1.80   -32000.00
00065               1.80   -32000.00
00066               1.20   -32000.00
00067               1.80   -32000.00
00068               2.00   -32000.00
00069               1.60   -32000.00
00070               2.20   -32000.00
00071               1.80   -32000.00
00072               0.40   -32800.00
00073               2.80   -32000.00
00074               1.80   -32800.00
00075               0.80   -32000.00
00076               3.00   -32800.00
00077               0.80   -32000.00
00078               1.40   -32000.00
00079               2.60   -32800.00
00080               1.00   -32000.00
00081               1.80   -32000.00
00082               1.80   -32000.00
00083               1.40   -32000.00
00084               1.40   -31200.00
00085               1.80   -32000.00
00086               1.20   -31200.00
00087               1.00   -31200.00
00088               1.80   -31200.00
00089               1.80   -30400.00
00090               1.40   -30400.00
00091               1.40   -30400.00
00092               1.20   -29600.00
00093               1.40   -29600.00
00094               1.40   -29600.00
00095               1.40   -28800.00
00096               1.80   -29600.00
00097               1.00   -28800.00
00098               1.00   -28800.00
00099               1.40   -28000.00
00100               1.00   -28800.00
00101               0.60   -27200.00
00102               2.00   -27200.00
00103               1.00   -27200.00
00104               0.20   -27200.00
00105               1.40   -27200.00
00106               1.40   -26400.00
00107               1.00   -25600.00
00108               1.40   -25600.00
00109               1.40   -25600.00
00110               1.00   -24800.00
00111               1.00   -24800.00
00112               1.00   -24000.00
00113               1.00   -24000.00
00114               1.00   -24000.00
00115               1.00   -23200.00
00116               1.00   -23200.00
00117               1.00   -22400.00
00118               1.00   -22400.00
00119               0.60   -20800.00
00120               1.00   -20800.00
00121               1.20   -20800.00
00122               0.60   -20000.00
00123               0.40   -18400.00
00124               0.60   -19200.00
00125               0.60   -17600.00
00126               0.60   -17600.00
00127               1.00   -16800.00
00128               0.60   -16800.00
00129               0.20   -16000.00
00130               0.20   -16000.00
00131               0.40   -15200.00
00132               0.20   -14400.00
00133               0.40   -13600.00
00134               1.00   -13600.00
00135               1.00   -12800.00
00136               0.40   -12000.00
00137               0.40   -12000.00
00138               0.20   -11200.00
00139               0.20   -10400.00
00140               0.20   -10400.00
00141              -0.40    -9600.00
00142               0.00    -9600.00
00143               0.40    -8800.00
00144              -0.40    -8000.00
00145              -0.40    -7200.00
00146               0.20    -6400.00
00147              -0.60    -6400.00
00148              -0.20    -4800.00
00149               0.40    -4800.00
00150              -0.40    -4000.00
00151              -0.60    -3200.00
00152               0.20    -2400.00
00153              -0.40    -2400.00
00154              -0.60    -1600.00
00155              -1.00    -1600.00
00156              -0.80     -800.00
00157              -0.20        0.00
00158              -0.20      800.00
00159               0.40     1600.00
00160               3.60     1600.00
00161              -0.40     2400.00
00162              -2.40     2400.00
00163               0.40     3200.00
00164               0.40     3200.00
00165              -2.00     4800.00
00166               8.60     5600.00
00167              25.00     6400.00
00168             -17.20     8000.00
00169             -25.00     8000.00
00170              17.00     8000.00
00171              11.40     8800.00
00172             -25.00     8000.00
00173              25.00     9600.00
00174              22.00     9600.00
00175             -25.00    10400.00
00176              25.00    11200.00
00177             -25.00    11200.00
00178             -23.00    12800.00
00179              25.00    12000.00
00180             -25.00    12800.00
00181              25.00    13600.00
00182             -18.20    14400.00
00183             -25.00    14400.00
00184              25.00    16000.00
00185             -25.00    15200.00
00186              -2.80    16000.00
00187              25.00    17600.00
00188             -25.00    17600.00
00189             -15.60    17600.00
00190              25.00    19200.00
00191             -14.60    19200.00
00192             -24.00    20000.00
00193              25.00    19200.00
00194             -24.60    20800.00
00195               3.00    21600.00
00196              11.00    21600.00
00197             -25.00    22400.00
00198              15.40    22400.00
00199              -4.60    23200.00
00200             -10.40    24000.00
00201              11.80    24000.00
00202              -0.40    24000.00
00203             -17.80    24800.00
00204              15.00    25600.00
00205              -7.00    25600.00
00206             -13.20    25600.00
00207              15.60    26400.00
00208             -10.60    27200.00
00209              -3.80    27200.00
00210               5.20    28000.00
00211              -6.60    28000.00
00212              -4.00    28000.00
00213               3.40    28800.00
00214              -3.80    28000.00
00215              -4.40    28800.00
00216               1.40    28800.00
00217              -5.00    29600.00
00218              -3.00    29600.00
00219               1.80    30400.00
00220              -4.20    30400.00
00221              -1.80    31200.00
00222              -1.40    31200.00
00223              -5.00    31200.00
00224               0.20    31200.00
00225              -4.20    31200.00
00226              -3.40    32000.00
00227               2.40    32000.00
00228              -4.20    32800.00
00229              -3.00    32000.00
00230              -1.00    32000.00
00231              -4.00    32800.00
00232              -2.20    32000.00
00233              -1.20    32800.00
00234              -2.20    32000.00
00235              -3.60    32800.00
00236              -1.80    32800.00
00237              -2.60    32800.00
00238              -3.40    32800.00
00239              -1.00    32000.00
00240              -3.80    32800.00
00241              -0.80    33600.00
00242              -1.40    32800.00
00243              -4.00    32000.00
00244              -0.60    32800.00
00245              -2.60    32000.00
00246              -2.20    32800.00
00247              -1.80    32800.00
00248              -3.40    32000.00
00249              -2.20    32800.00
00250              -2.00    32000.00
00251              -2.20    32000.00
00252              -2.00    32800.00
00253              -1.80    32000.00
00254              -2.00    32000.00
00255              -2.60    31200.00
00256              -1.40    31200.00
00257              -2.80    31200.00
00258              -2.20    31200.00
00259              -0.60    31200.00
00260              -1.80    30400.00
00261              -2.00    31200.00
00262              -2.20    30400.00
00263              -2.60    29600.00
00264              -2.20    29600.00
00265              -2.20    28800.00
00266              -2.00    29600.00
00267              -1.80    28800.00
00268              -2.00    28800.00
00269              -1.40    28000.00
00270              -1.80    28000.00
00271              -2.00    27200.00
00272              -1.80    28000.00
00273              -1.40    27200.00
00274              -1.40    27200.00
00275              -2.60    25600.00
00276              -2.00    25600.00
00277              -1.60    24800.00
00278              -2.00    24800.00
00279              -1.40    24800.00
00280              -2.00    24000.00
00281              -1.80    24000.00
00282              -1.80    23200.00
00283              -2.00    22400.00
00284              -1.40    22400.00
00285              -2.20    22400.00
00286              -1.00    21600.00
00287              -1.20    21600.00
00288              -2.20    20000.00
00289              -1.40    20800.00
00290              -2.00    19200.00
00291              -1.60    18400.00
00292              -1.20    18400.00
00293              -1.40    17600.00
00294              -1.40    17600.00
00295              -1.40    16800.00
00296              -1.20    16000.00
00297              -1.40    16000.00
00298              -1.40    15200.00
00299              -1.20    15200.00
00300              -1.40    14400.00
00301              -1.00    14400.00
00302              -1.20    12800.00
00303              -1.40    12800.00
00304              -1.00    12000.00
00305              -0.60    12000.00
00306              -0.80    11200.00
00307              -1.00    10400.00
00308              -0.60     9600.00
00309              -0.60     9600.00
00310              -1.40     8800.00
00311              -0.60     8000.00
00312              -1.00     8000.00
00313              -1.20     6400.00
00314              -0.40     7200.00
00315              -0.40     5600.00
00316              -1.00     5600.00
00317              -0.60     4800.00
00318              -0.40     4000.00
00319              -0.20     3200.00
00320              -0.20     2400.00
00321              -0.60     2400.00
00322               0.20     1600.00
00323              -0.20      800.00
00324              -0.20        0.00
00325               0.40     -800.00
00326               1.40     -800.00
00327               3.40    -1600.00
00328              -1.40    -1600.00
00329              -0.20    -2400.00
00330               2.00    -2400.00
00331               0.60    -3200.00
00332              -0.20    -4000.00
00333               7.40    -4000.00
00334              24.60    -5600.00
00335               4.00    -7200.00
00336             -25.00    -7200.00
00337               0.40    -7200.00
00338              25.00    -8000.00
00339             -25.00    -8000.00
00340             -18.00    -8000.00
00341              25.00    -9600.00
00342             -25.00    -9600.00
00343             -25.00   -10400.00
00344              25.00   -11200.00
00345             -25.00   -11200.00
00346             -10.00   -12800.00
00347              25.00   -12800.00
00348             -25.00   -13600.00
00349              25.00   -14400.00
00350             -25.00   -14400.00
00351               6.00   -16000.00
00352              25.00   -15200.00
00353             -25.00   -16000.00
00354              12.40   -16800.00
00355              25.00   -17600.00
00356             -25.00   -17600.00
00357              -4.20   -18400.00
00358              25.00   -19200.00
00359             -24.40   -19200.00
00360              -0.60   -19200.00
00361              25.00   -20000.00
00362             -21.00   -20800.00
00363               7.60   -20800.00
00364               8.20   -21600.00
00365             -13.40   -22400.00
00366               8.20   -22400.00
00367               5.20   -23200.00
00368              -6.80   -23200.00
00369               9.00   -24000.00
00370               2.60   -24000.00
00371              -9.20   -24800.00
00372              11.60   -24000.00
00373              -2.80   -25600.00
00374              -3.00   -26400.00
00375               9.80   -26400.00
00376              -3.40   -26400.00
00377               0.40   -27200.00
00378               5.20   -27200.00
00379              -0.60   -27200.00
00380               0.80   -27200.00
00381               5.00   -28800.00
00382              -0.60   -28800.00
00383               0.60   -28800.00
00384               3.80   -28800.00
00385              -1.00   -28800.00
00386               2.20   -29600.00
00387               3.80   -29600.00
00388              -0.60   -29600.00
00389               2.60   -29600.00
00390               2.60   -30400.00
00391              -0.60   -30400.00
00392               3.00   -30400.00
00393               1.80   -31200.00
00394               1.00   -30400.00
00395               3.00   -31200.00
00396               0.60   -32000.00
00397               1.20   -32000.00
00398               2.00   -32000.00
00399               1.20   -32000.00
00400               2.00   -32000.00
00401               1.80   -32000.00
00402               1.80   -32000.00
00403               1.40   -32800.00
00404               2.20   -32000.00
00405               0.60   -32000.00
00406               1.40   -32000.00
00407               2.20   -32800.00
00408               0.40   -32000.00
00409               2.60   -32800.00
00410               1.60   -32000.00
00411               0.40   -32800.00
00412               2.20   -32000.00
00413               2.00   -32000.00
00414               1.20   -32000.00
00415               1.00   -32000.00
00416               1.40   -32000.00
00417               2.60   -32000.00
00418               1.00   -32000.00
00419               0.20   -31200.00
00420               2.00   -32000.00
00421               2.60   -31200.00
00422               0.20   -30400.00
00423               0.60   -30400.00
00424               2.80   -30400.00
00425               0.60   -30400.00
00426               0.60   -29600.00
00427               2.60   -30400.00
00428               1.40   -29600.00
00429               0.20   -29600.00
00430               2.00   -28800.00
00431               1.80   -28800.00
00432              -0.40   -28800.00
00433               1.20   -28800.00
00434               2.20   -27200.00
00435               0.40   -27200.00
00436               0.40   -27200.00
00437               2.20   -27200.00
00438               1.20   -26400.00
00439               0.20   -27200.00
00440               1.20   -26400.00
00441               2.20   -25600.00
00442               0.40   -25600.00
00443               1.20   -25600.00
00444               2.00   -24000.00
00445               1.00   -24000.00
00446               0.40   -24000.00
00447               1.00   -23200.00
00448               0.20   -23200.00
00449               1.00   -22400.00
00450               1.20   -22400.00
00451               1.00   -22400.00
00452               1.20   -20800.00
00453               0.40   -20800.00
00454               1.00   -20800.00
00455               1.20   -20000.00
00456               0.20   -18400.00
00457               0.60   -18400.00
00458               1.20   -18400.00
00459               1.00   -17600.00
00460               1.00   -16800.00
00461               0.20   -16800.00
00462               0.40   -16000.00
00463               1.00   -16000.00
00464               0.20   -15200.00
00465               0.00   -14400.00
00466               0.60   -14400.00
00467               0.40   -13600.00
00468               0.40   -12800.00
00469               0.60   -12800.00
00470               0.00   -12800.00
00471               0.60   -11200.00
00472               0.40   -11200.00
00473              -0.40   -10400.00
00474               0.40   -10400.00
00475              -0.20    -9600.00
00476              -0.60    -8000.00
00477               0.40    -8000.00
00478              -1.00    -7200.00
00479              -0.40    -6400.00
00480               0.60    -6400.00
00481              -0.40    -5600.00
00482              -0.20    -4800.00
00483              -0.40    -4000.00
00484              -0.60    -4000.00
00485              -0.40    -3200.00
00486              -0.80    -2400.00
00487              -0.60    -1600.00
00488               0.20    -1600.00
00489              -0.20     -800.00
00490              -0.60        0.00
00491              -0.20        0.00
00492              -0.40     1600.00
00493               1.20     1600.00
00494               2.60     2400.00
00495              -3.00     2400.00
00496              -0.40     3200.00
00497               1.20     4000.00
00498              -2.00     4000.00
00499               2.40     4800.00
00500              23.60     6400.00
00501              15.80     7200.00
00502             -25.00     8000.00
00503              -7.60     8000.00
00504              25.00     8000.00
00505             -25.00     8000.00
00506               3.60     9600.00
00507              25.00     9600.00
00508             -25.00     9600.00
00509              25.00    11200.00
00510              25.00    11200.00
00511             -25.00    12000.00
00512              25.00    12800.00
00513             -25.00    12800.00
00514              12.20    13600.00
00515              25.00    14400.00
00516             -25.00    14400.00
00517              25.00    16000.00
00518               7.00    16000.00
00519             -25.00    16000.00
00520              25.00    16800.00
00521              -7.00    17600.00
00522             -25.00    17600.00
00523              21.00    18400.00
00524              13.20    18400.00
00525             -25.00    19200.00
00526              25.00    20800.00
00527               4.40    20800.00
00528             -21.00    21600.00
00529              25.00    21600.00
00530             -25.00    22400.00
00531               1.20    22400.00
00532              10.00    22400.00
00533             -16.20    24000.00
00534               4.60    24000.00
00535              12.20    24800.00
00536             -19.00    24800.00
00537               1.40    24800.00
00538              10.80    25600.00
00539             -22.20    25600.00
00540               9.60    26400.00
00541               1.80    26400.00
00542             -11.00    27200.00
00543               5.20    27200.00
00544              -2.80    28000.00
00545              -6.20    28000.00
00546               1.00    28800.00
00547              -1.00    28800.00
00548              -5.40    28800.00
00549               1.00    28800.00
00550              -3.00    29600.00
00551              -4.60    29600.00
00552               2.60    30400.00
00553              -3.80    29600.00
00554              -3.80    30400.00
00555               2.00    30400.00
00556              -5.80    31200.00
00557              -2.60    31200.00
00558               0.40    31200.00
00559              -6.20    32000.00
00560              -0.20    31200.00
00561              -0.40    31200.00
00562              -4.00    32000.00
00563              -1.40    32800.00
00564              -2.80    32800.00
00565              -2.20    32800.00
00566              -1.80    32800.00
00567              -2.00    32800.00
00568              -2.80    32800.00
00569              -2.00    32800.00
00570              -2.00    32800.00
00571              -3.80    32000.00
00572              -1.00    32800.00
00573              -3.00    33600.00
00574              -2.80    33600.00
00575               0.20    33600.00
00576              -4.20    32800.00
00577              -2.20    32800.00
00578              -0.80    32800.00
00579              -3.00    32800.00
00580              -2.00    32800.00
00581              -2.20    32800.00
00582              -2.20    32000.00
00583              -2.20    32800.00
00584              -2.20    32800.00
00585              -2.00    32800.00
00586              -2.80    32000.00
00587              -1.40    32000.00
00588              -2.00    31200.00
00589              -2.00    31200.00
00590              -2.00    31200.00
00591              -2.80    31200.00
00592              -1.20    31200.00
00593              -1.80    31200.00
00594              -2.60    30400.00
00595              -1.60    29600.00
00596              -2.20    29600.00
00597              -2.00    29600.00
00598              -1.40    29600.00
00599              -2.20    28800.00
00600              -2.00    28800.00
00601              -2.20    28800.00
00602              -1.60    28000.00
00603              -2.00    28000.00
00604              -2.20    27200.00
00605              -2.00    27200.00
00606              -2.20    27200.00
00607              -1.60    27200.00
00608              -2.20    26400.00
00609              -2.20    25600.00
00610              -1.20    25600.00
00611              -2.00    24800.00
00612              -1.40    24800.00
00613              -1.80    24000.00
00614              -2.00    24000.00
00615              -1.20    24000.00
00616              -1.80    23200.00
00617              -1.80    22400.00
00618              -2.00    22400.00
00619              -1.40    21600.00
00620              -1.40    21600.00
00621              -2.00    20800.00
00622              -1.80    20000.00
00623              -2.00    19200.00
00624              -1.80    19200.00
00625              -1.20    19200.00
00626              -2.00    18400.00
00627              -1.20    17600.00
00628              -1.20    17600.00
00629              -1.40    16000.00
00630              -1.00    16000.00
00631              -1.40    16000.00
00632              -1.00    15200.00
00633              -1.20    14400.00
00634              -1.20    14400.00
00635              -1.00    13600.00
00636              -1.60    12800.00
00637              -1.40    12800.00
00638              -0.60    12000.00
00639              -1.20    11200.00
00640              -0.60    11200.00
00641              -0.80    10400.00
00642              -0.40     8800.00
00643              -1.00     8800.00
00644              -0.60     8000.00
00645              -0.20     8000.00
00646              -1.00     7200.00
00647              -0.60     6400.00
00648              -0.20     5600.00
00649              -1.00     4800.00
00650              -0.60     4800.00
00651              -0.40     4800.00
00652              -0.40     3200.00
00653              -0.60     2400.00
00654              -0.40     1600.00
00655              -0.20     1600.00
00656              -0.40        0.00
00657               0.20        0.00
00658               0.40        0.00
00659               0.60     -800.00
00660               3.80     -800.00
00661              -0.20    -1600.00
00662              -1.20    -2400.00
00663               1.60    -2400.00
00664               1.00    -3200.00
00665              -0.60    -4000.00
00666               3.60    -4800.00
00667              16.60    -4800.00
00668              23.40    -6400.00
00669             -25.00    -7200.00
00670             -25.00    -8000.00
00671              25.00    -8000.00
00672              -5.00    -8000.00
00673             -25.00    -8800.00
00674              25.00    -9600.00
00675              25.00   -10400.00
00676             -25.00    -9600.00
00677              25.00   -11200.00
00678              19.40   -11200.00
00679             -25.00   -12000.00
00680              25.00   -13600.00
00681             -22.00   -12800.00
00682              13.20   -14400.00
00683               3.00   -14400.00
00684             -25.00   -14400.00
00685              25.00   -16000.00
00686             -20.40   -16000.00
00687             -16.60   -16800.00
00688              25.00   -17600.00
00689             -10.60   -16800.00
00690             -21.80   -18400.00
00691              25.00   -18400.00
00692              -0.20   -19200.00
00693             -24.40   -19200.00
00694              25.00   -20000.00
00695              -5.40   -20800.00
00696             -10.00   -20800.00
00697              18.00   -20800.00
00698             -11.40   -22400.00
00699              -0.40   -22400.00
00700               9.20   -23200.00
00701              -4.60   -23200.00
00702               1.40   -24000.00
00703              10.40   -24000.00
00704              -9.40   -24000.00
00705               5.20   -24000.00
00706               6.40   -24800.00
00707              -9.20   -25600.00
00708               9.20   -26400.00
00709               1.80   -26400.00
00710              -2.80   -26400.00
00711               5.20   -27200.00
00712               1.80   -27200.00
00713              -1.60   -27200.00
00714               3.80   -28000.00
00715               2.00   -28800.00
00716              -1.80   -28800.00
00717               4.40   -28800.00
00718               0.40   -28800.00
00719               0.20   -28800.00
00720               4.60   -28800.00
00721               0.40   -29600.00
00722               0.60   -30400.00
00723               3.80   -29600.00
00724              -0.60   -30400.00
00725               1.40   -30400.00
00726               2.80   -30400.00
00727               0.40   -32000.00
00728               2.80   -31200.00
00729               1.80   -31200.00
00730               1.00   -31200.00
00731               1.40   -32000.00
00732               1.40   -32000.00
00733               1.80   -32000.00
00734               1.60   -32000.00
00735               2.00   -32000.00
00736               1.40   -32000.00
00737               2.20   -32800.00
00738               1.60   -32000.00
00739               0.60   -32000.00
00740               2.60   -32800.00
00741               1.00   -32000.00
00742               1.40   -32800.00
00743               1.80   -32800.00
00744               0.60   -32000.00
00745               2.00   -32000.00
00746               2.00   -32000.00
00747               1.40   -32000.00
00748               1.80   -32000.00
00749               1.20   -32800.00
00750               1.40   -32000.00
00751               1.40   -32000.00
00752               1.80   -31200.00
00753               1.20   -32000.00
00754               1.40   -31200.00
00755               1.80   -30400.00
00756               1.00   -31200.00
00757               1.40   -31200.00
00758               1.20   -30400.00
00759               1.20   -30400.00
00760               1.80   -29600.00
00761               0.60   -29600.00
00762               1.40   -29600.00
00763               2.00   -29600.00
00764               1.20   -29600.00
00765               1.40   -28800.00
00766               2.00   -28800.00
00767               1.00   -28800.00
00768               1.00   -27200.00
00769               2.00   -27200.00
00770               1.20   -27200.00
00771               1.00   -26400.00
00772               1.40   -26400.00
00773               1.00   -26400.00
00774               1.20   -25600.00
00775               1.20   -25600.00
00776               0.60   -25600.00
00777               1.40   -24800.00
00778               1.60   -24000.00
00779               0.60   -24000.00
00780               1.40   -24000.00
00781               1.00   -23200.00
00782               0.40   -22400.00
00783               0.80   -22400.00
00784               0.60   -22400.00
00785               1.00   -20800.00
00786               1.00   -21600.00
00787               1.20   -20000.00
00788               1.00   -20000.00
00789               1.00   -19200.00
00790               0.80   -19200.00
00791               0.20   -18400.00
00792               0.80   -17600.00
00793               0.60   -17600.00
00794               0.20   -16800.00
00795               1.00   -16800.00
00796               0.40   -16000.00
00797               0.40   -15200.00
00798               0.40   -16000.00
00799               0.20   -14400.00
00800               0.20   -14400.00
00801               0.20   -13600.00
00802              -0.20   -12800.00
00803               0.20   -12000.00
00804               0.20   -12000.00
00805               0.40   -11200.00
00806               0.20   -11200.00
00807              -0.20    -9600.00
00808              -0.40    -9600.00
00809              -0.40    -9600.00
00810               0.20    -8000.00
00811              -0.40    -8000.00
00812              -0.20    -7200.00
00813               0.20    -6400.00
00814              -0.40    -5600.00
00815               0.20    -4800.00
00816              -0.20    -4000.00
00817              -0.60    -4000.00
00818              -0.40    -3200.00
00819              -0.60    -3200.00
00820              -0.80    -1600.00
00821              -0.20    -1600.00
00822              -0.60     -800.00
00823              -0.60     -800.00
00824              -0.20        0.00
00825              -0.40      800.00
00826               0.40     1600.00
00827               4.20     1600.00
00828              -2.00     2400.00
00829              -2.20     3200.00
00830               1.80     3200.00
00831              -0.20     3200.00
00832              -1.40     4800.00
00833              12.40     5600.00
00834              25.00     7200.00
00835             -25.00     7200.00
00836             -25.00     8000.00
00837              25.00     8000.00
00838              -5.40     8000.00
00839             -25.00     8800.00
00840              25.00     9600.00
00841             -21.40     9600.00
00842             -25.00    11200.00
00843              25.00    11200.00
00844             -25.00    12000.00
00845              18.00    12800.00
00846              20.40    12800.00
00847             -25.00    13600.00
00848              25.00    14400.00
00849             -25.00    14400.00
00850               1.20    15200.00
00851              25.00    15200.00
00852             -25.00    16000.00
00853              25.00    16800.00
00854              25.00    17600.00
00855             -25.00    17600.00
00856              -1.80    17600.00
00857              25.00    19200.00
00858             -25.00    19200.00
00859              -4.60    19200.00
00860              25.00    20000.00
00861             -25.00    21600.00
00862              17.20    21600.00
00863              -4.60    22400.00
00864             -18.80    22400.00
00865              18.00    22400.00
00866             -11.00    23200.00
00867              -6.60    24000.00
00868              14.60    24000.00
00869              -7.60    24800.00
00870             -14.60    24800.00
00871              18.00    25600.00
00872             -15.00    25600.00
00873              -5.20    25600.00
00874              12.60    27200.00
00875             -13.20    27200.00
00876               0.20    27200.00
00877               2.00    28000.00
00878              -6.80    28000.00
00879              -1.80    28800.00
00880               1.80    28000.00
00881              -5.80    28800.00
00882              -1.80    28800.00
00883              -0.40    28800.00
00884              -6.20    29600.00
00885               0.60    30400.00
00886              -0.20    30400.00
00887              -6.20    30400.00
00888               1.80    31200.00
00889              -2.80    31200.00
00890              -6.00    31200.00
00891               2.00    32000.00
00892              -4.20    31200.00
00893              -3.00    32800.00
00894               1.40    32000.00
00895              -4.20    32000.00
00896              -2.60    32000.00
00897              -1.80    32000.00
00898              -3.40    32800.00
00899              -1.00    32800.00
00900              -2.00    32800.00
00901              -2.60    32800.00
00902              -2.40    32800.00
00903              -1.20    32800.00
00904              -3.60    32800.00
00905              -1.40    32800.00
00906              -1.40    33600.00
00907              -4.20    32800.00
00908               0.20    32800.00
00909              -2.60    32800.00
00910              -3.80    32800.00
00911              -0.60    32800.00
00912              -2.80    32800.00
00913              -2.00    32000.00
00914              -2.20    32800.00
00915              -2.60    32000.00
00916              -1.60    32800.00
00917              -2.20    32000.00
00918              -2.00    32000.00
00919              -2.20    32000.00
00920              -2.20    32000.00
00921              -2.20    32000.00
00922              -2.20    31200.00
00923              -0.60    31200.00
00924              -3.60    31200.00
00925              -2.00    32000.00
00926              -1.00    30400.00
00927              -3.00    30400.00
00928              -2.20    30400.00
00929              -2.20    30400.00
00930              -2.60    28800.00
00931              -2.20    28800.00
00932              -1.80    28800.00
00933              -2.40    28800.00
00934              -2.20    28000.00
00935              -1.40    28800.00
00936              -2.00    27200.00
00937              -2.20    28000.00
00938              -1.80    27200.00
00939              -2.60    27200.00
00940              -1.40    27200.00
00941              -1.80    26400.00
00942              -3.00    25600.00
00943              -1.20    25600.00
00944              -1.80    25600.00
00945              -2.20    24800.00
00946              -1.00    24800.00
00947              -2.60    24000.00
00948              -1.80    24000.00
00949              -1.20    23200.00
00950              -2.00    23200.00
00951              -1.40    22400.00
00952              -1.60    21600.00
00953              -1.80    21600.00
00954              -1.40    20800.00
00955              -1.60    20800.00
00956              -2.00    20000.00
00957              -1.80    19200.00
00958              -1.20    19200.00
00959              -1.80    18400.00
00960              -1.20    17600.00
00961              -1.20    17600.00
00962              -1.20    16000.00
00963              -0.60    16000.00
00964              -1.80    16000.00
00965              -0.60    15200.00
00966              -0.60    14400.00
00967              -1.40    14400.00
00968              -0.40    12800.00
00969              -1.20    12800.00
00970              -1.80    12800.00
00971              -0.20    12000.00
00972              -1.00    11200.00
00973              -0.60    11200.00
00974              -1.20    10400.00
00975              -1.20     9600.00
00976              -0.20     9600.00
00977              -0.60     8000.00
00978              -0.60     8000.00
00979              -0.40     7200.00
00980              -1.00     6400.00
00981              -0.20     6400.00
00982              -0.60     5600.00
00983              -1.00     4800.00
00984              -0.80     4800.00
00985              -0.20     3200.00
00986              -0.40     3200.00
00987              -0.60     2400.00
00988              -0.60     1600.00
00989               0.40     1600.00
00990              -0.20        0.00
00991              -0.20        0.00
00992               0.80     -800.00
00993               2.20     -800.00
00994               2.00    -1600.00
00995              -1.40    -1600.00
00996               0.80    -1600.00
00997               1.40    -3200.00
00998               0.40    -4000.00
00999               1.00    -4000.00
01000              10.00    -4000.00
01001              25.00    -6400.00
01002             -13.80    -7200.00
01003             -25.00    -8000.00
01004              14.00    -8000.00
01005              17.60    -8000.00
01006             -25.00    -8000.00
01007               5.00    -8800.00
01008              25.00    -9600.00
01009             -25.00   -10400.00
01010               0.60   -11200.00
01011              25.00   -11200.00
01012             -25.00   -11200.00
01013              19.40   -12800.00
01014              12.40   -12800.00
01015             -14.80   -13600.00
01016              25.00   -14400.00
01017             -25.00   -14400.00
01018              25.00   -15200.00
01019              15.40   -16000.00
01020             -25.00   -16800.00
01021              25.00   -16800.00
01022              13.20   -17600.00
01023             -25.00   -17600.00
01024               9.20   -18400.00
01025              22.60   -19200.00
01026             -25.00   -19200.00
01027              15.00   -20000.00
01028              17.20   -20800.00
01029             -21.60   -20800.00
01030              15.80   -21600.00
01031              -0.60   -21600.00
01032             -10.00   -22400.00
01033              10.00   -22400.00
01034               1.00   -23200.00
01035              -4.40   -23200.00
01036              11.60   -24000.00
01037              -3.40   -24000.00
01038              -4.60   -25600.00
01039              11.80   -25600.00
01040              -7.60   -25600.00
01041               3.00   -26400.00
01042               8.20   -26400.00
01043              -4.40   -27200.00
01044               2.80   -27200.00
01045               4.20   -27200.00
01046              -2.00   -27200.00
01047               2.20   -27200.00
01048               4.40   -28800.00
01049              -2.00   -28800.00
01050               2.00   -28800.00
01051               3.00   -29600.00
01052              -1.40   -28800.00
01053               3.40   -29600.00
01054               3.00   -30400.00
01055              -0.60   -30400.00
01056               3.60   -30400.00
01057               1.20   -30400.00
01058              -0.40   -30400.00
01059               3.00   -31200.00
01060               0.60   -31200.00
01061               2.20   -31200.00
01062               2.60   -31200.00
01063               0.20   -32000.00
01064               1.40   -32000.00
01065               1.40   -31200.00
01066               1.00   -32000.00
01067               2.00   -32000.00
01068               1.80   -32000.00
01069               1.20   -32000.00
01070               2.00   -32800.00
01071               2.00   -32800.00
01072               0.40   -32000.00
01073               2.60   -32800.00
01074               2.00   -32000.00
01075               0.40   -32000.00
01076               2.60   -32000.00
01077               1.00   -32000.00
01078               0.60   -32800.00
01079               2.60   -32000.00
01080               1.00   -32000.00
01081               1.40   -32000.00
01082               1.80   -32000.00
01083               1.00   -32000.00
01084               1.20   -31200.00
01085               2.00   -32000.00
01086               1.40   -32000.00
01087               1.20   -30400.00
01088               2.20   -31200.00
01089               1.00   -30400.00
01090               1.20   -30400.00
01091               1.40   -30400.00
01092               1.40   -30400.00
01093               1.40   -30400.00
01094               1.00   -30400.00
01095               1.80   -29600.00
01096               2.20   -29600.00
01097               0.80   -28800.00
01098               1.40   -28800.00
01099               1.60   -28800.00
01100               0.60   -28800.00
01101               1.80   -28800.00
01102               1.20   -27200.00
01103               0.60   -27200.00
01104               1.40   -27200.00
01105               0.60   -26400.00
01106               2.00   -26400.00
01107               1.80   -26400.00
01108               0.40   -25600.00
01109               1.80   -25600.00
01110               0.40   -24800.00
01111               0.40   -24000.00
01112               1.80   -24000.00
01113               0.60   -24000.00
01114               1.00   -23200.00
01115               1.60   -23200.00
01116               0.40   -22400.00
01117               0.60   -22400.00
01118               1.80   -20800.00
01119               0.20   -21600.00
01120               0.40   -20800.00
01121               1.40   -20000.00
01122               0.40   -19200.00
01123               0.80   -18400.00
01124               1.40   -18400.00
01125               0.60   -17600.00
01126               0.40   -18400.00
01127               0.40   -16800.00
01128               0.20   -16800.00
01129              -0.40   -16000.00
01130               0.40   -16000.00
01131               1.00   -15200.00
01132               0.60   -14400.00
01133               0.40   -14400.00
01134               0.80   -13600.00
01135               0.20   -12800.00
01136              -0.20   -12800.00
01137               0.00   -12000.00
01138               0.40   -11200.00
01139               0.20   -10400.00
01140               0.00   -10400.00
01141               0.20    -9600.00
01142              -0.20    -8800.00
01143              -0.20    -8000.00
01144              -0.40    -8000.00
01145              -0.60    -7200.00
01146              -0.20    -6400.00
01147              -0.40    -6400.00
01148              -0.40    -5600.00
01149               0.40    -4800.00
01150              -0.40    -4000.00
01151               0.20    -3200.00
01152               0.00    -3200.00
01153              -1.00    -2400.00
01154              -0.60    -1600.00
01155              -0.40     -800.00
01156              -0.80     -800.00
01157              -0.60     -800.00
01158               0.20      800.00
01159              -0.20      800.00
01160               2.80     1600.00
01161               0.60     2400.00
01162              -2.60     3200.00
01163               0.40     3200.00
01164               0.60     4000.00
01165              -1.40     4000.00
01166               6.20     4800.00
01167              25.00     6400.00
01168              -3.80     7200.00
01169             -25.00     8000.00
01170               9.40     8000.00
01171              19.60     8000.00
01172             -25.00     8000.00
01173              25.00     9600.00
01174              25.00    10400.00
01175             -25.00     9600.00
01176              25.00    11200.00
01177              -1.00    11200.00
01178             -25.00    12800.00
01179              25.00    12800.00
01180             -25.00    12800.00
01181              25.00    14400.00
01182              14.00    14400.00
01183             -25.00    14400.00
01184              25.00    16000.00
01185             -25.00    16000.00
01186             -25.00    16000.00
01187              25.00    17600.00
01188             -25.00    17600.00
01189             -23.00    17600.00
01190              25.00    18400.00
01191              -3.00    19200.00
01192             -25.00    20000.00
01193              25.00    20000.00
01194             -15.40    20800.00
01195              -6.60    21600.00
01196              19.40    21600.00
01197             -25.00    22400.00
01198              11.60    22400.00
01199               1.00    23200.00
01200             -15.00    24000.00
01201              10.00    24000.00
01202               6.20    24000.00
01203             -21.00    24800.00
01204              10.80    24800.00
01205               1.00    25600.00
01206             -19.60    26400.00
01207              14.40    25600.00
01208              -6.20    27200.00
01209              -7.00    27200.00
01210               6.00    27200.00
01211              -5.00    28000.00
01212              -4.80    28000.00
01213               2.60    28000.00
01214              -3.40    28800.00
01215              -4.60    28800.00
01216               1.80    29600.00
01217              -5.00    29600.00
01218              -2.80    30400.00
01219               2.60    30400.00
01220              -5.40    30400.00
01221              -1.20    30400.00
01222               0.40    30400.00
01223              -7.00    31200.00
01224               0.40    31200.00
01225              -1.40    32000.00
01226              -5.40    32800.00
01227               2.00    32000.00
01228              -2.20    32000.00
01229              -3.80    32800.00
01230              -1.20    32800.00
01231              -3.20    32000.00
01232              -2.20    32800.00
01233              -1.80    32800.00
01234              -2.00    32800.00
01235              -2.80    32800.00
01236              -2.00    32800.00
01237              -2.00    32800.00
01238              -3.20    32800.00
01239              -1.20    32800.00
01240              -3.60    32800.00
01241              -1.40    32800.00
01242              -1.00    32800.00
01243              -4.20    32800.00
01244              -0.60    32800.00
01245              -2.00    32800.00
01246              -2.80    32800.00
01247              -1.20    32800.00
01248              -3.00    33600.00
01249              -2.40    32800.00
01250              -2.20    32800.00
01251              -2.00    32000.00
01252              -2.00    32000.00
01253              -2.20    32000.00
01254              -1.80    31200.00
01255              -2.20    31200.00
01256              -2.00    31200.00
01257              -2.40    31200.00
01258              -2.40    31200.00
01259              -1.80    31200.00
01260              -2.00    30400.00
01261              -2.40    30400.00
01262              -2.20    30400.00
01263              -2.20    30400.00
01264              -1.80    29600.00
01265              -2.20    29600.00
01266              -2.60    29600.00
01267              -2.20    28800.00
01268              -2.20    28800.00
01269              -1.80    28000.00
01270              -2.20    28000.00
01271              -1.60    27200.00
01272              -1.40    27200.00
01273              -2.00    27200.00
01274              -1.80    26400.00
01275              -2.20    25600.00
01276              -2.20    25600.00
01277              -1.20    25600.00
01278              -2.20    25600.00
01279              -1.40    24800.00
01280              -2.20    24000.00
01281              -2.20    24000.00
01282              -1.40    23200.00
01283              -1.40    22400.00
01284              -1.40    22400.00
01285              -2.40    22400.00
01286              -1.40    21600.00
01287              -1.00    20800.00
01288              -2.20    20800.00
01289              -1.80    20800.00
01290              -2.00    19200.00
01291              -1.20    19200.00
01292              -1.20    18400.00
01293              -1.40    18400.00
01294              -1.00    17600.00
01295              -1.40    17600.00
01296              -1.60    16800.00
01297              -1.00    16000.00
01298              -1.20    15200.00
01299              -1.20    15200.00
01300              -1.20    14400.00
01301              -0.60    13600.00
01302              -1.20    13600.00
01303              -1.20    12800.00
01304              -1.00    12000.00
01305              -0.60    11200.00
01306              -1.20    11200.00
01307              -1.00    10400.00
01308              -0.60     9600.00
01309              -0.60     8800.00
01310              -1.00     8800.00
01311              -0.60     8000.00
01312              -0.60     8000.00
01313              -0.60     7200.00
01314              -0.40     6400.00
01315              -0.40     5600.00
01316              -1.00     5600.00
01317              -0.40     4000.00
01318              -0.60     4000.00
01319              -0.40     3200.00
01320              -0.40     2400.00
01321              -0.60     2400.00
01322              -0.20     1600.00
01323               0.00     1600.00
01324              -0.20      800.00
01325               0.20        0.00
01326               1.00     -800.00
01327               3.60     -800.00
01328              -1.20    -1600.00
01329              -0.60    -1600.00
01330               1.20    -3200.00
01331               0.60    -3200.00
01332              -0.60    -4000.00
01333               5.40    -4800.00
01334              21.80    -4800.00
01335              13.20    -7200.00
01336             -25.00    -7200.00
01337              -9.60    -8000.00
01338              25.00    -8000.00
01339             -22.00    -8000.00
01340             -25.00    -8000.00
01341              25.00    -9600.00
01342               0.40    -9600.00
01343             -25.00   -10400.00
01344              25.00   -11200.00
01345             -20.20   -11200.00
01346             -25.00   -12800.00
01347              25.00   -12800.00
01348             -25.00   -13600.00
01349              25.00   -13600.00
01350             -17.20   -14400.00
01351              -7.80   -14400.00
01352              25.00   -16000.00
01353             -25.00   -16000.00
01354               1.20   -16800.00
01355              25.00   -16800.00
01356             -22.20   -17600.00
01357             -11.80   -17600.00
01358              25.00   -17600.00
01359             -15.60   -19200.00
01360             -10.80   -20000.00
01361              25.00   -20000.00
01362             -16.60   -20800.00
01363               1.00   -20800.00
01364              13.00   -22400.00
01365             -13.80   -22400.00
01366               5.80   -23200.00
01367               7.40   -23200.00
01368              -6.20   -24000.00
01369               6.20   -24000.00
01370               6.40   -24000.00
01371             -10.20   -24800.00
01372              10.00   -24800.00
01373               0.60   -25600.00
01374              -6.00   -25600.00
01375              10.20   -25600.00
01376              -2.20   -26400.00
01377              -0.60   -26400.00
01378               5.20   -27200.00
01379               0.20   -26400.00
01380               0.20   -28000.00
01381               4.60   -28000.00
01382               0.00   -28800.00
01383              -0.60   -28800.00
01384               4.20   -28800.00
01385              -0.80   -28800.00
01386               1.80   -29600.00
01387               3.80   -29600.00
01388              -0.60   -30400.00
01389               2.00   -30400.00
01390               2.80   -30400.00
01391              -1.20   -30400.00
01392               2.80   -31200.00
01393               2.00   -32000.00
01394               0.40   -31200.00
01395               3.20   -32000.00
01396               0.60   -31200.00
01397               1.00   -32000.00
01398               1.80   -32000.00
01399               1.00   -32000.00
01400               2.00   -32000.00
01401               1.80   -32000.00
01402               1.80   -32000.00
01403               1.40   -32000.00
01404               2.00   -32800.00
01405               0.60   -32800.00
01406               1.20   -32000.00
01407               2.60   -32800.00
01408               0.40   -32000.00
01409               2.20   -32000.00
01410               2.00   -32000.00
01411               0.20   -32000.00
01412               2.20   -32000.00
01413               1.80   -32000.00
01414               1.20   -32000.00
01415               2.20   -31200.00
01416               1.20   -32000.00
01417               1.80   -32000.00
01418               1.80   -32000.00
01419               1.40   -31200.00
01420               1.20   -31200.00
01421               1.60   -31200.00
01422               1.80   -30400.00
01423               1.00   -30400.00
01424               1.80   -30400.00
01425               1.20   -30400.00
01426               1.60   -30400.00
01427               2.40   -30400.00
01428               1.20   -29600.00
01429               2.00   -28800.00
01430               1.80   -29600.00
01431               0.80   -28800.00
01432               1.20   -28800.00
01433               1.60   -28000.00
01434               0.60   -28800.00
01435               1.40   -28000.00
01436               0.80   -27200.00
01437               1.00   -27200.00
01438               1.00   -26400.00
01439               1.40   -26400.00
01440               1.40   -27200.00
01441               1.20   -26400.00
01442               1.00   -25600.00
01443               1.00   -25600.00
01444               1.20   -24800.00
01445               1.00   -24000.00
01446               1.00   -24000.00
01447               1.20   -24000.00
01448               0.60   -23200.00
01449               0.60   -23200.00
01450               0.80   -22400.00
01451               0.40   -22400.00
01452               1.00   -20800.00
01453               0.40   -20800.00
01454               0.60   -20000.00
01455               1.00   -19200.00
01456               0.40   -19200.00
01457               0.40   -18400.00
01458               0.60   -17600.00
01459               0.60   -17600.00
01460               0.40   -17600.00
01461               0.40   -16800.00
01462               0.20   -16000.00
01463               0.20   -16000.00
01464               0.40   -15200.00
01465               0.20   -14400.00
01466              -0.20   -14400.00
01467               0.40   -13600.00
01468               0.20   -12800.00
01469               0.20   -12800.00
01470               0.20   -12000.00
01471               0.20   -11200.00
01472               0.40   -11200.00
01473               0.20   -10400.00
01474              -0.20    -9600.00
01475               0.20    -9600.00
01476              -0.20    -8800.00
01477              -0.20    -8000.00
01478              -0.40    -7200.00
01479              -0.20    -6400.00
01480              -0.20    -6400.00
01481              -0.40    -5600.00
01482               0.20    -4800.00
01483              -0.20    -4800.00
01484              -0.60    -4000.00
01485              -0.20    -3200.00
01486              -0.40    -2400.00
01487              -0.60    -2400.00
01488              -0.20    -1600.00
01489              -0.60     -800.00
01490              -0.20     -800.00
01491              -0.20      800.00
01492               0.00     1600.00
01493               1.20     1600.00
01494               3.40     1600.00
01495              -2.80     3200.00
01496              -1.00     3200.00
01497               1.80     4000.00
01498              -1.20     4000.00
01499               1.00     4800.00
01500              19.40     5600.00
01501              25.00     7200.00
01502             -25.00     8000.00
01503             -18.80     8000.00
01504              25.00     8000.00
01505             -24.20     8000.00
01506             -15.00     8800.00
01507              25.00    10400.00
01508             -25.00     9600.00
01509               8.40    11200.00
01510              25.00    12000.00
01511             -25.00    12000.00
01512              25.00    12800.00
01513             -18.80    12800.00
01514             -16.60    14400.00
01515              25.00    14400.00
01516             -25.00    14400.00
01517              25.00    15200.00
01518              25.00    15200.00
01519             -25.00    16000.00
01520              25.00    16800.00
01521               7.20    17600.00
01522             -25.00    17600.00
01523              13.20    18400.00
01524              21.80    19200.00
01525             -25.00    20000.00
01526              16.40    20800.00
01527              18.00    20800.00
01528             -25.00    21600.00
01529              25.00    22400.00
01530             -18.40    22400.00
01531             -10.00    22400.00
01532              14.80    22400.00
01533             -13.80    24000.00
01534              -1.20    24000.00
01535              15.00    24000.00
01536             -14.60    24800.00
01537              -6.40    25600.00
01538              15.20    25600.00
01539             -21.20    26400.00
01540               4.40    26400.00
01541               7.20    27200.00
01542             -13.80    27200.00
01543               3.80    27200.00
01544              -1.00    27200.00
01545              -6.80    28000.00
01546               1.00    28000.00
01547               0.60    28800.00
01548              -6.00    28800.00
01549              -0.60    28800.00
01550              -1.40    30400.00
01551              -5.80    30400.00
01552               2.40    30400.00
01553              -1.80    29600.00
01554              -5.20    31200.00
01555               2.00    31200.00
01556              -4.40    30400.00
01557              -4.40    31200.00
01558               1.00    31200.00
01559              -5.20    31200.00
01560              -0.60    31200.00
01561               0.00    32800.00
01562              -3.80    32000.00
01563              -1.20    32800.00
01564              -2.80    32800.00
01565              -2.80    32800.00
01566              -1.80    32000.00
01567              -2.00    32800.00
01568              -2.80    32000.00
01569              -2.00    32800.00
01570              -1.20    32800.00
01571              -3.60    32800.00
01572              -1.80    32800.00
01573              -1.60    32800.00
01574              -3.80    32000.00
01575              -0.20    32800.00
01576              -2.80    33600.00
01577              -2.80    32800.00
01578              -1.00    32000.00
01579              -2.80    32800.00
01580              -1.80    32800.00
01581              -2.80    32800.00
01582              -2.80    32800.00
01583              -2.60    32000.00
01584              -2.40    32000.00
01585              -2.20    32000.00
01586              -2.80    32000.00
01587              -1.40    32000.00
01588              -2.20    31200.00
01589              -2.60    32000.00
01590              -1.80    31200.00
01591              -3.00    31200.00
01592              -2.00    31200.00
01593              -1.80    30400.00
01594              -2.80    31200.00
01595              -2.20    30400.00
01596              -2.20    29600.00
01597              -2.00    30400.00
01598              -1.60    29600.00
01599              -2.60    28800.00
01600              -2.20    28000.00
01601              -2.20    28800.00
01602              -1.60    28000.00
01603              -2.40    28000.00
01604              -2.20    27200.00
01605              -2.00    27200.00
01606              -2.20    27200.00
01607              -1.40    25600.00
01608              -2.00    26400.00
01609              -2.60    25600.00
01610              -1.40    25600.00
01611              -2.00    24800.00
01612              -1.40    24800.00
01613              -1.40    24000.00
01614              -2.40    24000.00
01615              -1.20    24000.00
01616              -1.80    23200.00
01617              -1.80    22400.00
01618              -1.20    22400.00
01619              -2.00    21600.00
01620              -1.40    21600.00
01621              -1.20    20800.00
01622              -1.80    20800.00
01623              -2.00    20000.00
01624              -1.40    19200.00
01625              -0.80    18400.00
01626              -1.80    18400.00
01627              -1.00    17600.00
01628              -1.00    17600.00
01629              -1.80    16800.00
01630              -0.60    16000.00
01631              -1.20    16000.00
01632              -1.20    15200.00
01633              -1.40    14400.00
01634              -1.20    14400.00
01635              -1.00    13600.00
01636              -1.60    12800.00
01637              -2.00    12800.00
01638               0.20    12000.00
01639              -1.00    11200.00
01640              -1.20    11200.00
01641              -0.60    10400.00
01642              -0.40     9600.00
01643              -1.40     8800.00
01644              -0.40     8000.00
01645               0.20     8000.00
01646              -1.00     7200.00
01647              -1.20     6400.00
01648              -0.20     6400.00
01649              -1.00     5600.00
01650              -1.20     4800.00
01651              -0.80     4000.00
01652              -0.20     3200.00
01653              -0.60     3200.00
01654              -1.20     2400.00
01655              -0.40     1600.00
01656               0.20      800.00
01657              -0.60        0.00
01658               0.20        0.00
01659               0.60     -800.00
01660               2.80    -1600.00
01661              -0.20    -1600.00
01662              -1.20    -1600.00
01663               2.00    -2400.00
01664               1.00    -3200.00
01665              -0.20    -4000.00
01666               2.00    -4000.00
01667              13.00    -5600.00
01668              25.00    -7200.00
01669             -25.00    -7200.00
01670             -25.00    -8000.00
01671              24.20    -8000.00
01672               5.20    -8000.00
01673             -25.00    -8800.00
01674              25.00    -8800.00
01675              25.00   -10400.00
01676             -25.00    -9600.00
01677              25.00   -11200.00
01678              25.00   -11200.00
01679             -25.00   -12000.00
01680              25.00   -12800.00
01681             -10.20   -12800.00
01682               2.60   -13600.00
01683              15.40   -13600.00
01684             -25.00   -14400.00
01685              25.00   -16000.00
01686              -7.00   -16000.00
01687             -25.00   -16800.00
01688              25.00   -16800.00
01689              -1.40   -17600.00
01690             -25.00   -17600.00
01691              21.20   -17600.00
01692               9.80   -19200.00
01693             -25.00   -19200.00
01694              25.00   -20000.00
01695              -0.60   -20800.00
01696              -9.20   -20800.00
01697              10.80   -21600.00
01698              -6.00   -22400.00
01699              -0.60   -22400.00
01700              11.60   -23200.00
01701               1.60   -23200.00
01702              -6.20   -23200.00
01703              16.40   -24000.00
01704             -13.40   -24800.00
01705              -2.00   -24000.00
01706              11.60   -25600.00
01707             -11.00   -25600.00
01708              10.00   -26400.00
01709               6.00   -25600.00
01710              -2.80   -26400.00
01711               2.80   -27200.00
01712               3.20   -27200.00
01713              -1.20   -28000.00
01714              -1.20   -28000.00
01715               2.20   -28800.00
01716               0.60   -28800.00
01717               1.80   -28800.00
01718               1.00   -28800.00
01719               3.60   -29600.00
01720               4.60   -29600.00
01721               0.20   -29600.00
01722               0.20   -30400.00
01723               1.20   -30400.00
01724              -0.40   -30400.00
01725               1.80   -30400.00
01726               2.00   -30400.00
01727               1.80   -31200.00
01728               4.20   -31200.00
01729               1.80   -32000.00
01730               1.00   -32000.00
01731               0.60   -32000.00
01732               0.40   -32000.00
01733               0.40   -32000.00
01734               0.60   -32000.00
01735               3.00   -32800.00
01736               2.80   -32000.00
01737               1.60   -32000.00
01738               2.80   -32000.00
01739               1.80   -32800.00
01740               1.00   -32000.00
01741               0.40   -32000.00
01742               1.20   -32800.00
01743               1.40   -32800.00
01744               0.80   -32000.00
01745               2.60   -32000.00
01746               2.60   -32000.00
01747               2.20   -32000.00
01748               1.80   -32000.00
01749               0.20   -32000.00
01750               1.60   -32000.00
01751               1.20   -32000.00
01752               0.80   -32000.00
01753               2.60   -32000.00
01754               2.60   -31200.00
01755               1.20   -30400.00
01756               1.80   -31200.00
01757               1.40   -30400.00
01758               0.20   -30400.00
01759               1.40   -29600.00
01760               1.80   -29600.00
01761               0.40   -29600.00
01762               2.60   -29600.00
01763               1.80   -29600.00
01764               1.20   -29600.00
01765               2.60   -28800.00
01766               0.60   -28800.00
01767               0.40   -28000.00
01768               2.20   -28000.00
01769               0.60   -27200.00
01770               1.40   -27200.00
01771               1.80   -27200.00
01772               0.60   -26400.00
01773               1.40   -26400.00
01774               1.40   -25600.00
01775               0.40   -25600.00
01776               1.20   -25600.00
01777               1.20   -24800.00
01778               1.00   -24000.00
01779               1.00   -24000.00
01780               1.20   -23200.00
01781               0.80   -23200.00
01782               0.60   -23200.00
01783               0.60   -22400.00
01784               0.40   -21600.00
01785               0.60   -22400.00
01786               0.40   -20800.00
01787               0.80   -20800.00
01788               1.00   -20000.00
01789               0.60   -20000.00
01790               0.40   -19200.00
01791               0.60   -18400.00
01792               0.60   -18400.00
01793               0.20   -17600.00
01794               0.40   -17600.00
01795               0.20   -16800.00
01796               0.40   -16000.00
01797               0.60   -16000.00
01798               0.40   -14400.00
01799               0.20   -14400.00
01800               0.40   -14400.00
01801               0.40   -13600.00
01802               0.20   -12800.00
01803               0.00   -12000.00
01804              -0.20   -11200.00
01805               0.40   -11200.00
01806               0.20   -10400.00
01807              -0.20   -10400.00
01808               0.20    -9600.00
01809              -0.60    -8800.00
01810               0.20    -8000.00
01811              -0.20    -8000.00
01812              -0.40    -7200.00
01813               0.20    -6400.00
01814               0.20    -6400.00
01815              -0.40    -4800.00
01816              -0.20    -4800.00
01817              -0.40    -4000.00
01818              -0.60    -3200.00
01819               0.20    -3200.00
01820              -1.00    -2400.00
01821              -0.60    -1600.00
01822              -0.20     -800.00
01823              -0.60     -800.00
01824              -0.60        0.00
01825               0.40      800.00
01826               0.20      800.00
01827               3.00     1600.00
01828              -0.60     1600.00
01829              -1.80     2400.00
01830               1.40     3200.00
01831               0.40     4000.00
01832              -1.40     4800.00
01833               9.40     5600.00
01834              25.00     6400.00
01835             -24.60     8000.00
01836             -25.00     7200.00
01837              21.40     8800.00
01838               5.40     8000.00
01839             -25.00     8800.00
01840              25.00     9600.00
01841               6.60     9600.00
01842             -25.00    11200.00
01843              25.00    11200.00
01844             -25.00    11200.00
01845              -7.40    12800.00
01846              25.00    12800.00
01847             -25.00    12800.00
01848              25.00    14400.00
01849             -25.00    14400.00
01850             -25.00    15200.00
01851              25.00    16000.00
01852             -25.00    16000.00
01853              10.60    16000.00
01854              25.00    16000.00
01855             -25.00    17600.00
01856             -10.20    18400.00
01857              25.00    19200.00
01858             -20.60    19200.00
01859             -16.80    20000.00
01860              25.00    20800.00
01861             -25.00    21600.00
01862               9.00    21600.00
01863               5.80    21600.00
01864             -25.00    22400.00
01865              17.40    22400.00
01866              -6.80    23200.00
01867             -10.80    24000.00
01868              13.60    24000.00
01869              -2.20    24800.00
01870             -17.80    24800.00
01871              16.80    24800.00
01872              -9.20    25600.00
01873             -10.80    25600.00
01874              14.60    26400.00
01875             -11.40    27200.00
01876              -2.20    27200.00
01877               4.20    28000.00
01878              -6.00    27200.00
01879              -2.60    28000.00
01880               2.60    28800.00
01881              -4.80    28800.00
01882              -2.80    28800.00
01883               0.60    28800.00
01884              -5.80    29600.00
01885              -0.60    28800.00
01886               1.40    30400.00
01887              -6.40    30400.00
01888               0.40    30400.00
01889              -0.60    31200.00
01890              -6.20    31200.00
01891               1.20    30400.00
01892              -3.40    32000.00
01893              -3.60    32000.00
01894               1.20    31200.00
01895              -3.80    32800.00
01896              -2.20    32000.00
01897              -1.40    32000.00
01898              -3.20    32800.00
01899              -2.00    32800.00
01900              -1.80    32800.00
01901              -2.20    32000.00
01902              -3.00    32800.00
01903              -1.00    33600.00
01904              -2.80    32800.00
01905              -2.60    32800.00
01906              -1.00    32000.00
01907              -4.20    33600.00
01908              -0.60    32800.00
01909              -1.80    32800.00
01910              -4.20    32000.00
01911              -0.60    32800.00
01912              -2.60    32800.00
01913              -2.80    32800.00
01914              -2.20    32800.00
01915              -2.80    32800.00
01916              -2.60    32800.00
01917              -2.20    32000.00
01918              -1.40    32800.00
01919              -2.80    32000.00
01920              -2.80    32800.00
01921              -1.40    31200.00
01922              -2.20    32000.00
01923              -2.20    31200.00
01924              -2.60    31200.00
01925              -2.00    31200.00
01926              -1.80    31200.00
01927              -2.80    30400.00
01928              -2.20    30400.00
01929              -2.20    30400.00
01930              -2.20    30400.00
01931              -1.80    28800.00
01932              -2.00    29600.00
01933              -2.20    28800.00
01934              -2.80    28800.00
01935              -1.80    28000.00
01936              -1.20    28000.00
01937              -2.20    28000.00
01938              -2.00    28000.00
01939              -2.00    27200.00
01940              -2.00    27200.00
01941              -2.00    25600.00
01942              -2.20    25600.00
01943              -1.40    25600.00
01944              -1.80    24800.00
01945              -2.20    24800.00
01946              -1.40    24800.00
01947              -2.20    24000.00
01948              -1.80    24000.00
01949              -1.20    23200.00
01950              -1.40    23200.00
01951              -1.20    22400.00
01952              -1.80    22400.00
01953              -1.60    21600.00
01954              -1.40    21600.00
01955              -1.60    20800.00
01956              -1.80    20000.00
01957              -1.40    19200.00
01958              -1.00    19200.00
01959              -1.60    18400.00
01960              -1.60    17600.00
01961              -1.20    17600.00
01962              -1.20    16000.00
01963              -0.60    16000.00
01964              -1.20    16000.00
01965              -1.40    15200.00
01966              -1.20    15200.00
01967              -1.20    14400.00
01968              -0.60    13600.00
01969              -1.00    12800.00
01970              -1.60    12000.00
01971              -0.80    11200.00
01972              -1.00    11200.00
01973              -1.20    11200.00
01974              -1.20    10400.00
01975              -0.80     9600.00
01976              -0.60     9600.00
01977              -1.20     8800.00
01978              -0.40     8000.00
01979              -1.20     8000.00
01980              -1.20     7200.00
01981              -0.60     5600.00
01982              -0.60     5600.00
01983              -1.00     4800.00
01984              -0.60     4800.00
01985              -0.80     3200.00
01986              -0.40     3200.00
01987              -0.40     2400.00
01988              -0.80     2400.00
01989              -0.20     1600.00
01990              -0.40        0.00
01991              -0.60        0.00
01992               0.00     -800.00
01993               1.40     -800.00
01994               2.80    -1600.00
01995              -1.40    -1600.00
01996               0.40    -2400.00
01997               1.60    -3200.00
01998               0.40    -4000.00
01999               0.20    -4000.00
02000               7.80    -4000.00
02001              25.00    -5600.00
02002              -2.00    -7200.00
02003             -25.00    -7200.00
02004               5.40    -8000.00
02005              23.60    -8800.00
02006             -25.00    -8800.00
02007             -10.60    -8800.00
02008              25.00   -10400.00
02009             -25.00   -10400.00
02010             -25.00   -10400.00
02011              25.00   -11200.00
02012             -25.00   -12000.00
02013               2.00   -12800.00
02014              25.00   -12800.00
02015             -23.40   -12800.00
02016              25.00   -13600.00
02017             -25.00   -14400.00
02018              14.00   -15200.00
02019              25.00   -16000.00
02020             -25.00   -16000.00
02021              18.60   -16800.00
02022              22.20   -16800.00
02023             -25.00   -17600.00
02024               0.80   -17600.00
02025              25.00   -19200.00
02026             -25.00   -19200.00
02027               5.40   -20000.00
02028              24.40   -20000.00
02029             -22.00   -20800.00
02030              11.40   -21600.00
02031               4.80   -22400.00
02032             -12.20   -22400.00
02033               9.80   -22400.00
02034               3.40   -23200.00
02035              -6.20   -23200.00
02036               9.80   -24000.00
02037               0.40   -24000.00
02038              -7.20   -24800.00
02039              11.80   -25600.00
02040              -4.80   -25600.00
02041              -0.20   -25600.00
02042               9.80   -26400.00
02043              -4.40   -26400.00
02044               1.00   -27200.00
02045               5.00   -27200.00
02046              -1.20   -27200.00
02047               1.00   -27200.00
02048               5.00   -28000.00
02049              -1.20   -28800.00
02050               0.40   -28800.00
02051               3.60   -28800.00
02052              -1.40   -28800.00
02053               2.60   -29600.00
02054               3.80   -29600.00
02055              -1.00   -29600.00
02056               2.80   -30400.00
02057               2.20   -29600.00
02058              -0.60   -30400.00
02059               2.60   -30400.00
02060               1.40   -30400.00
02061               2.00   -32000.00
02062               2.80   -31200.00
02063              -0.40   -32000.00
02064               1.80   -32000.00
02065               2.00   -32000.00
02066              -0.40   -32000.00
02067               2.60   -32000.00
02068               3.40   -32000.00
02069               0.40   -32000.00
02070               1.80   -32000.00
02071               3.20   -32000.00
02072               0.20   -32000.00
02073               1.00   -32800.00
02074               3.60   -32000.00
02075               0.40   -32000.00
02076               2.00   -32000.00
02077               2.20   -32800.00
02078               1.00   -32000.00
02079               1.80   -32000.00
02080               1.20   -32800.00
02081               3.00   -32000.00
02082               1.00   -32000.00
02083               0.80   -32000.00
02084               3.00   -32000.00
02085               1.20   -32000.00
02086               0.20   -31200.00
02087               2.60   -31200.00
02088               2.40   -30400.00
02089               0.40   -30400.00
02090               1.80   -30400.00
02091               2.00   -29600.00
02092               0.20   -30400.00
02093               1.40   -29600.00
02094               3.60   -29600.00
02095               1.00   -29600.00
02096               1.20   -29600.00
02097               2.00   -28800.00
02098               0.60   -28800.00
02099               0.40   -28000.00
02100               2.00   -28800.00
02101               2.00   -28000.00
02102               0.40   -28000.00
02103               1.00   -27200.00
02104               2.00   -26400.00
02105               0.40   -27200.00
02106               0.60   -26400.00
02107               2.00   -26400.00
02108               1.20   -25600.00
02109              -0.40   -26400.00
02110               0.80   -25600.00
02111               1.40   -24000.00
02112               0.40   -24000.00
02113               1.00   -24000.00
02114               2.00   -24000.00
02115               0.40   -23200.00
02116               0.40   -23200.00
02117               1.00   -21600.00
02118               0.40   -22400.00
02119               0.40   -21600.00
02120               1.00   -20800.00
02121               1.40   -20000.00
02122               0.20   -20000.00
02123               0.20   -19200.00
02124               0.60   -18400.00
02125               0.40   -18400.00
02126               0.60   -17600.00
02127               0.60   -17600.00
02128               0.40   -16800.00
02129              -0.40   -16000.00
02130               0.40   -16000.00
02131               1.00   -15200.00
02132               0.20   -14400.00
02133               0.40   -13600.00
02134               1.00   -13600.00
02135               0.20   -12800.00
02136              -0.40   -12800.00
02137               0.00   -12800.00
02138               1.00   -11200.00
02139               0.20   -11200.00
02140              -0.40   -10400.00
02141               0.60    -9600.00
02142              -0.40    -9600.00
02143              -0.60    -8800.00
02144               0.00    -8000.00
02145              -0.20    -7200.00
02146              -0.60    -6400.00
02147               0.20    -6400.00
02148               0.40    -6400.00
02149               0.40    -4800.00
02150              -0.60    -4800.00
02151              -0.20    -4000.00
02152               0.20    -3200.00
02153              -0.60    -2400.00
02154              -0.60    -1600.00
02155               0.20    -1600.00
02156              -0.60     -800.00
02157              -0.60        0.00
02158              -0.20      800.00
02159              -0.20     1600.00
02160               2.00     2400.00
02161               1.80     1600.00
02162              -2.80     2400.00
02163               0.40     3200.00
02164               1.00     3200.00
02165              -2.00     4800.00
02166               4.20     4800.00
02167              25.00     7200.00
02168               8.20     7200.00
02169             -25.00     8000.00
02170              -1.00     8000.00
02171              25.00     8800.00
02172             -25.00     8000.00
02173              14.60     9600.00
02174              25.00     9600.00
02175             -25.00    10400.00
02176              25.00    12000.00
02177              25.00    11200.00
02178             -25.00    12000.00
02179              25.00    12800.00
02180             -25.00    13600.00
02181              25.00    14400.00
02182              25.00    14400.00
02183             -25.00    15200.00
02184              25.00    15200.00
02185             -11.00    16000.00
02186             -25.00    16000.00
02187              25.00    16800.00
02188             -15.60    17600.00
02189             -25.00    18400.00
02190              25.00    18400.00
02191               7.60    19200.00
02192             -25.00    19200.00
02193              25.00    20000.00
02194              -3.40    21600.00
02195             -16.60    20800.00
02196              25.00    21600.00
02197             -25.00    22400.00
02198               5.80    22400.00
02199               6.60    23200.00
02200             -16.20    22400.00
02201               6.80    24000.00
02202              10.40    24000.00
02203             -20.20    24800.00
02204               5.60    25600.00
02205               7.60    24800.00
02206             -22.00    25600.00
02207              12.20    26400.00
02208              -1.00    27200.00
02209              -9.80    26400.00
02210               5.80    28000.00
02211              -3.60    28000.00
02212              -5.80    28000.00
02213               1.80    28800.00
02214              -1.40    28800.00
02215              -4.60    28800.00
02216               1.40    28800.00
02217              -3.80    28800.00
02218              -3.80    30400.00
02219               2.40    30400.00
02220              -4.60    30400.00
02221              -2.80    31200.00
02222               1.80    30400.00
02223              -6.20    30400.00
02224              -1.40    32000.00
02225              -0.20    31200.00
02226              -5.80    32800.00
02227               0.40    31200.00
02228              -1.20    32000.00
02229              -3.80    32800.00
02230              -1.00    32000.00
02231              -3.40    32000.00
02232              -2.20    32800.00
02233              -1.80    32800.00
02234              -2.20    32000.00
02235              -2.60    32800.00
02236              -2.20    32000.00
02237              -2.00    32800.00
02238              -3.40    32800.00
02239              -1.20    32800.00
02240              -3.40    32800.00
02241              -2.20    33600.00
02242              -0.20    32800.00
02243              -4.00    33600.00
02244              -1.80    32800.00
02245              -1.80    32800.00
02246              -3.20    32000.00
02247              -1.80    32800.00
02248              -3.00    32800.00
02249              -2.60    32800.00
02250              -2.20    32000.00
02251              -2.60    32000.00
02252              -2.20    32800.00
02253              -2.60    32000.00
02254              -2.20    32000.00
02255              -2.20    31200.00
02256              -1.80    31200.00
02257              -2.40    31200.00
02258              -2.60    31200.00
02259              -1.40    31200.00
02260              -2.20    31200.00
02261              -2.20    30400.00
02262              -1.80    30400.00
02263              -2.60    30400.00
02264              -2.00    30400.00
02265              -2.00    29600.00
02266              -2.80    28800.00
02267              -2.20    28800.00
02268              -2.00    28800.00
02269              -1.80    28000.00
02270              -1.80    28000.00
02271              -2.00    28000.00
02272              -2.00    27200.00
02273              -2.00    27200.00
02274              -1.40    27200.00
02275              -2.40    26400.00
02276              -2.00    25600.00
02277              -1.20    25600.00
02278              -2.20    24800.00
02279              -1.20    24800.00
02280              -1.80    24000.00
02281              -2.20    24000.00
02282              -1.20    24000.00
02283              -1.80    23200.00
02284              -1.60    22400.00
02285              -1.20    22400.00
02286              -1.80    21600.00
02287              -1.20    21600.00
02288              -1.40    20800.00
02289              -2.00    20000.00
02290              -1.40    19200.00
02291              -0.80    19200.00
02292              -1.60    18400.00
02293              -1.20    17600.00
02294              -1.00    17600.00
02295              -2.00    16800.00
02296              -0.60    16800.00
02297              -1.20    16000.00
02298              -2.00    15200.00
02299              -0.80    15200.00
02300              -2.00    14400.00
02301              -1.20    14400.00
02302              -0.60    14400.00
02303              -2.00    12800.00
02304              -1.20    12800.00
02305              -0.20    11200.00
02306              -1.40    11200.00
02307              -1.20    11200.00
02308              -1.40     9600.00
02309              -0.40     9600.00
02310              -0.40     8800.00
02311              -1.20     8000.00
02312              -2.20     8000.00
02313               0.00     8000.00
02314              -0.40     6400.00
02315              -2.00     6400.00
02316              -0.40     5600.00
02317               0.40     4800.00
02318              -1.20     4000.00
02319              -1.00     3200.00
02320               0.00     3200.00
02321              -0.40     2400.00
02322              -1.00     1600.00
02323               0.60      800.00
02324              -0.40        0.00
02325              -1.40        0.00
02326               1.20        0.00
02327               5.00    -1600.00
02328              -1.40    -1600.00
02329              -1.80    -2400.00
02330               2.60    -3200.00
02331               1.40    -3200.00
02332              -2.80    -4000.00
02333               4.40    -4000.00
02334              20.20    -4800.00
02335              20.00    -6400.00
02336             -25.00    -7200.00
02337             -18.20    -8000.00
02338              25.00    -8000.00
02339             -12.00    -8800.00
02340             -25.00    -8000.00
02341              25.00    -9600.00
02342              25.00   -10400.00
02343             -25.00   -10400.00
02344              25.00   -11200.00
02345               5.20   -11200.00
02346             -25.00   -12000.00
02347              25.00   -13600.00
02348             -25.00   -12800.00
02349              18.60   -14400.00
02350              -5.20   -14400.00
02351             -20.60   -14400.00
02352              25.00   -16000.00
02353             -25.00   -16000.00
02354              -9.40   -16800.00
02355              25.00   -16800.00
02356             -16.00   -17600.00
02357             -18.20   -17600.00
02358              25.00   -18400.00
02359              -6.00   -19200.00
02360             -19.60   -20000.00
02361              25.00   -20000.00
02362             -10.60   -20800.00
02363              -5.80   -20800.00
02364              16.60   -22400.00
02365             -13.20   -22400.00
02366               2.60   -22400.00
02367               8.40   -22400.00
02368              -5.80   -23200.00
02369               3.40   -24000.00
02370               8.60   -24000.00
02371             -10.60   -24000.00
02372               7.40   -24800.00
02373               4.20   -25600.00
02374              -8.40   -25600.00
02375               9.40   -25600.00
02376              -0.40   -26400.00
02377              -2.20   -26400.00
02378               5.20   -27200.00
02379               1.00   -27200.00
02380              -0.60   -27200.00
02381               4.40   -28000.00
02382               1.00   -28800.00
02383              -1.20   -28800.00
02384               4.00   -28800.00
02385               0.00   -28800.00
02386               0.60   -29600.00
02387               4.20   -29600.00
02388               0.20   -29600.00
02389               1.20   -29600.00
02390               3.40   -30400.00
02391              -0.40   -30400.00
02392               2.00   -31200.00
02393               2.20   -30400.00
02394               0.40   -31200.00
02395               2.80   -31200.00
02396               1.00   -32000.00
02397               1.00   -32000.00
02398               2.00   -32000.00
02399               1.20   -32000.00
02400               2.20   -32000.00
02401               1.80   -32000.00
02402               2.00   -32000.00
02403               1.00   -32000.00
02404               2.60   -32000.00
02405               1.20   -32000.00
02406               0.20   -32000.00
02407               3.40   -32000.00
02408               1.20   -32000.00
02409               1.20   -32000.00
02410               3.00   -32000.00
02411               0.60   -32000.00
02412               1.60   -32000.00
02413               2.60   -32000.00
02414               1.20   -32000.00
02415               2.00   -32000.00
02416               2.00   -32000.00
02417               1.40   -32000.00
02418               2.20   -31200.00
02419               1.80   -32000.00
02420               1.00   -30400.00
02421               1.80   -30400.00
02422               2.00   -30400.00
02423               0.80   -30400.00
02424               1.80   -30400.00
02425               1.80   -29600.00
02426               1.40   -30400.00
02427               2.40   -29600.00
02428               1.00   -29600.00
02429               1.20   -29600.00
02430               1.40   -28800.00
02431               0.60   -28800.00
02432               1.00   -28800.00
02433               2.00   -28000.00
02434               0.60   -28800.00
02435               1.20   -28000.00
02436               1.20   -27200.00
02437               1.00   -27200.00
02438               1.20   -27200.00
02439               1.40   -26400.00
02440               0.60   -26400.00
02441               1.20   -26400.00
02442               1.00   -25600.00
02443               1.00   -24800.00
02444               1.40   -24800.00
02445               1.00   -24000.00
02446               1.00   -24000.00
02447               1.20   -24000.00
02448               0.20   -23200.00
02449               0.40   -22400.00
02450               1.20   -22400.00
02451               0.60   -22400.00
02452               0.60   -21600.00
02453               0.40   -20800.00
02454               1.00   -20800.00
02455               0.60   -20800.00
02456               0.60   -19200.00
02457               0.80   -18400.00
02458               0.40   -18400.00
02459               1.00   -17600.00
02460               0.40   -17600.00
02461               0.20   -16800.00
02462               1.00   -16000.00
02463               0.40   -16000.00
02464               0.40   -16000.00
02465               0.40   -15200.00
02466               0.20   -14400.00
02467               0.20   -14400.00
02468               0.60   -12800.00
02469               0.20   -12800.00
02470               0.00   -12800.00
02471               0.40   -11200.00
02472               0.40   -11200.00
02473              -0.20   -10400.00
02474              -0.20   -10400.00
02475              -0.20    -9600.00
02476              -0.40    -8800.00
02477               0.20    -8000.00
02478               0.00    -7200.00
02479              -0.20    -7200.00
02480               0.40    -6400.00
02481              -0.40    -6400.00
02482              -0.40    -4800.00
02483               0.20    -4000.00
02484              -0.60    -4000.00
02485              -0.20    -3200.00
02486               0.20    -2400.00
02487              -0.40    -1600.00
02488              -0.40    -1600.00
02489              -0.40     -800.00
02490              -0.60        0.00
02491              -0.20        0.00
02492               0.20        0.00
02493               0.40     1600.00
02494               3.20     1600.00
02495              -2.20     2400.00
02496              -1.40     3200.00
02497               1.00     3200.00
02498              -0.60     4000.00
02499              -0.40     4800.00
02500              14.60     5600.00
02501              25.00     7200.00
02502             -25.00     7200.00
02503             -25.00     8000.00
02504              25.00     8000.00
02505             -12.60     8800.00
02506             -25.00     8800.00
02507              25.00     9600.00
02508             -25.00    10400.00
02509             -21.40    11200.00
02510              25.00    11200.00
02511             -25.00    11200.00
02512              25.00    12800.00
02513               6.80    12800.00
02514             -25.00    13600.00
02515              25.00    14400.00
02516             -25.00    15200.00
02517              20.20    15200.00
02518              25.00    16000.00
02519             -25.00    16000.00
02520              25.00    17600.00
02521              23.40    17600.00
02522             -25.00    18400.00
02523               4.40    18400.00
02524              25.00    19200.00
02525             -25.00    19200.00
02526               3.60    20000.00
02527              25.00    20800.00
02528             -25.00    20800.00
02529              21.80    21600.00
02530              -9.40    22400.00
02531             -14.80    22400.00
02532              17.20    23200.00
02533             -13.20    24000.00
02534              -4.40    23200.00
02535              15.00    24800.00
02536             -10.60    24800.00
02537             -10.80    24800.00
02538              17.40    25600.00
02539             -18.00    25600.00
02540              -1.20    25600.00
02541              10.60    27200.00
02542             -13.40    27200.00
02543               2.00    27200.00
02544               1.20    28000.00
02545              -6.80    27200.00
02546              -0.60    28000.00
02547               1.40    28800.00
02548              -5.40    28800.00
02549              -0.60    28800.00
02550              -1.00    29600.00
02551              -5.60    29600.00
02552               1.20    30400.00
02553              -1.00    30400.00
02554              -5.20    30400.00
02555               1.80    31200.00
02556              -3.40    30400.00
02557              -5.00    31200.00
02558               1.20    31200.00
02559              -4.40    31200.00
02560              -2.20    32000.00
02561               0.20    32800.00
02562              -3.80    32800.00
02563              -2.20    32000.00
02564              -2.20    32800.00
02565              -2.60    32800.00
02566              -2.00    32800.00
02567              -2.00    32800.00
02568              -2.40    33600.00
02569              -2.80    32800.00
02570              -1.00    32800.00
02571              -3.80    33600.00
02572              -2.00    32800.00
02573              -1.60    33600.00
02574              -4.20    32800.00
02575               0.20    33600.00
02576              -2.80    32000.00
02577              -3.80    32800.00
02578              -0.80    33600.00
02579              -2.80    32800.00
02580              -2.20    32800.00
02581              -2.60    32800.00
02582              -2.60    32800.00
02583              -2.20    32800.00
02584              -2.40    32000.00
02585              -2.20    32000.00
02586              -2.60    32800.00
02587              -1.40    32000.00
02588              -2.40    31200.00
02589              -2.20    32000.00
02590              -1.40    31200.00
02591              -3.20    31200.00
02592              -2.00    31200.00
02593              -0.60    31200.00
02594              -3.00    31200.00
02595              -2.20    30400.00
02596              -1.40    30400.00
02597              -2.60    30400.00
02598              -1.80    28800.00
02599              -1.80    28800.00
02600              -2.20    28800.00
02601              -2.20    28800.00
02602              -2.00    28800.00
02603              -1.80    28000.00
02604              -2.00    28000.00
02605              -2.20    27200.00
02606              -2.20    27200.00
02607              -1.20    26400.00
02608              -2.20    26400.00
02609              -2.60    25600.00
02610              -0.60    25600.00
02611              -2.20    25600.00
02612              -1.80    24800.00
02613              -0.60    24000.00
02614              -2.80    24800.00
02615              -1.20    24000.00
02616              -1.20    22400.00
02617              -2.00    23200.00
02618              -1.80    22400.00
02619              -1.80    21600.00
02620              -1.20    21600.00
02621              -1.80    20800.00
02622              -2.20    20000.00
02623              -1.40    19200.00
02624              -1.40    19200.00
02625              -1.60    19200.00
02626              -1.40    17600.00
02627              -1.20    17600.00
02628              -2.00    17600.00
02629              -1.20    17600.00
02630              -0.60    16000.00
02631              -2.00    16000.00
02632              -1.20    15200.00
02633              -1.20    14400.00
02634              -1.80    14400.00
02635              -1.00    13600.00
02636              -1.40    12800.00
02637              -1.40    12000.00
02638              -0.40    12000.00
02639              -1.00    11200.00
02640              -1.00    11200.00
02641              -1.40    10400.00
02642              -0.60     9600.00
02643              -0.60     9600.00
02644              -1.20     8000.00
02645               0.00     8000.00
02646              -1.00     7200.00
02647              -1.40     6400.00
02648              -0.40     6400.00
02649              -1.00     5600.00
02650              -1.20     4800.00
02651               0.20     4800.00
02652              -0.60     3200.00
02653              -0.60     3200.00
02654              -0.20     2400.00
02655              -0.60     1600.00
02656              -0.60     1600.00
02657               0.20      800.00
02658              -0.20        0.00
02659               0.40     -800.00
02660               2.80     -800.00
02661               1.40    -1600.00
02662              -1.40    -1600.00
02663               1.40    -2400.00
02664               1.00    -3200.00
02665               0.40    -3200.00
02666               1.80    -4000.00
02667              10.80    -4000.00
02668              25.00    -6400.00
02669             -19.60    -8000.00
02670             -25.00    -7200.00
02671              18.60    -8000.00
02672              13.20    -8000.00
02673             -25.00    -8000.00
02674              14.60    -8800.00
02675              25.00   -10400.00
02676             -25.00    -9600.00
02677              16.20   -11200.00
02678              25.00   -11200.00
02679             -25.00   -12000.00
02680              25.00   -12800.00
02681               3.60   -12800.00
02682              -8.40   -13600.00
02683              24.60   -14400.00
02684             -25.00   -14400.00
02685              25.00   -14400.00
02686               6.80   -16000.00
02687             -25.00   -16800.00
02688              25.00   -16800.00
02689               7.40   -17600.00
02690             -25.00   -17600.00
02691              13.20   -18400.00
02692              17.60   -18400.00
02693             -25.00   -19200.00
02694              19.60   -20000.00
02695              12.00   -20800.00
02696             -20.00   -20800.00
02697              17.60   -20800.00
02698              -4.20   -21600.00
02699              -8.40   -22400.00
02700              10.60   -22400.00
02701              -0.60   -23200.00
02702              -3.60   -24000.00
02703              12.20   -24000.00
02704              -5.20   -24800.00
02705              -2.80   -24800.00
02706              10.80   -25600.00
02707              -8.60   -25600.00
02708               4.60   -26400.00
02709               6.80   -26400.00
02710              -5.00   -27200.00
02711               2.60   -27200.00
02712               4.20   -27200.00
02713              -1.60   -27200.00
02714               2.20   -28800.00
02715               4.40   -28800.00
02716              -2.60   -28800.00
02717               1.40   -28800.00
02718               4.20   -28800.00
02719              -1.00   -28800.00
02720               2.20   -28800.00
02721               3.20   -29600.00
02722               0.20   -29600.00
02723               2.60   -30400.00
02724               1.00   -30400.00
02725               1.00   -30400.00
02726               2.00   -30400.00
02727               1.00   -30400.00
02728               3.60   -31200.00
02729               0.60   -32000.00
02730              -0.20   -32000.00
02731               2.60   -32000.00
02732               1.40   -32000.00
02733               1.40   -32000.00
02734               2.60   -32000.00
02735               2.00   -32000.00
02736               1.20   -32000.00
02737               2.20   -32000.00
02738               2.20   -32000.00
02739               0.60   -32000.00
02740               2.60   -32000.00
02741               1.60   -32000.00
02742               0.60   -32000.00
02743               2.80   -32800.00
02744               0.60   -32000.00
02745               1.80   -32000.00
02746               2.20   -32000.00
02747               1.00   -32000.00
02748               2.00   -32000.00
02749               1.40   -32000.00
02750               1.40   -32000.00
02751               2.00   -32000.00
02752               1.40   -32000.00
02753               1.20   -30400.00
02754               1.40   -31200.00
02755               1.40   -31200.00
02756               0.80   -30400.00
02757               1.80   -30400.00
02758               1.20   -30400.00
02759               0.60   -30400.00
02760               2.00   -30400.00
02761               1.40   -29600.00
02762               1.00   -29600.00
02763               2.20   -29600.00
02764               1.40   -28800.00
02765               1.00   -28800.00
02766               1.40   -28800.00
02767               1.20   -28800.00
02768               1.00   -28000.00
02769               1.20   -28000.00
02770               0.80   -27200.00
02771               1.00   -26400.00
02772               1.00   -27200.00
02773               1.20   -26400.00
02774               1.40   -26400.00
02775               1.00   -25600.00
02776               1.00   -25600.00
02777               1.00   -25600.00
02778               0.80   -24000.00
02779               1.00   -24000.00
02780               0.60   -24000.00
02781               0.60   -24000.00
02782               1.40   -23200.00
02783               1.00   -23200.00
02784               0.60   -22400.00
02785               1.00   -20800.00
02786               0.40   -20800.00
02787               0.40   -20800.00
02788               0.60   -20000.00
02789               0.40   -20000.00
02790               0.40   -18400.00
02791               1.20   -18400.00
02792               1.00   -18400.00
02793               0.20   -17600.00
02794               0.40   -16800.00
02795               0.60   -16800.00
02796               0.80   -16000.00
02797               0.60   -16000.00
02798               0.40   -15200.00
02799               0.20   -14400.00
02800               0.40   -14400.00
02801               0.60   -12800.00
02802               0.60   -12800.00
02803              -0.20   -12800.00
02804              -0.20   -11200.00
02805               0.60   -11200.00
02806              -0.20   -11200.00
02807               0.20    -9600.00
02808               0.40    -9600.00
02809              -0.40    -9600.00
02810              -0.20    -8000.00
02811               0.20    -8000.00
02812              -0.40    -7200.00
02813               0.40    -7200.00
02814              -0.20    -6400.00
02815              -0.20    -5600.00
02816               0.20    -4800.00
02817              -0.40    -4000.00
02818              -0.60    -4000.00
02819               0.00    -3200.00
02820              -0.60    -2400.00
02821              -0.60    -1600.00
02822              -0.40     -800.00
02823              -0.80     -800.00
02824              -0.60        0.00
02825               0.20      800.00
02826              -0.20     1600.00
02827               3.00     1600.00
02828               0.40     2400.00
02829              -2.60     2400.00
02830               0.20     3200.00
02831               1.00     4000.00
02832              -2.20     4800.00
02833               6.80     4800.00
02834              25.00     7200.00
02835             -12.20     7200.00
02836             -25.00     8000.00
02837              14.20     8000.00
02838              14.60     8000.00
02839             -25.00     8800.00
02840              25.00     9600.00
02841              25.00     9600.00
02842             -25.00    11200.00
02843              25.00    11200.00
02844             -19.40    12000.00
02845             -25.00    12000.00
02846              25.00    12800.00
02847             -25.00    12800.00
02848              25.00    14400.00
02849              -4.20    14400.00
02850             -25.00    15200.00
02851              25.00    15200.00
02852             -25.00    16000.00
02853             -12.20    16800.00
02854              25.00    17600.00
02855             -25.00    17600.00
02856             -18.60    18400.00
02857              25.00    18400.00
02858              -9.40    19200.00
02859             -25.00    20800.00
02860              25.00    20000.00
02861             -21.40    21600.00
02862              -0.60    21600.00
02863              15.00    21600.00
02864             -25.00    22400.00
02865              14.60    23200.00
02866              -1.80    24000.00
02867             -13.80    24000.00
02868              11.40    24000.00
02869               3.40    24800.00
02870             -20.20    24800.00
02871              14.00    25600.00
02872              -2.60    25600.00
02873             -16.20    25600.00
02874              14.80    26400.00
02875              -8.40    27200.00
02876              -5.00    27200.00
02877               5.20    28000.00
02878              -5.40    28000.00
02879              -3.80    28000.00
02880               2.40    28000.00
02881              -3.80    28800.00
02882              -3.60    28800.00
02883               1.20    29600.00
02884              -5.40    29600.00
02885              -2.00    28800.00
02886               2.00    30400.00
02887              -6.00    30400.00
02888              -1.00    30400.00
02889               0.40    30400.00
02890              -6.80    31200.00
02891               0.20    31200.00
02892              -1.80    32000.00
02893              -5.20    32000.00
02894               1.20    32000.00
02895              -2.60    32000.00
02896              -3.60    32000.00
02897              -1.20    32800.00
02898              -3.40    32000.00
02899              -2.20    32800.00
02900              -1.80    32000.00
02901              -2.60    32800.00
02902              -3.40    32800.00
02903              -1.20    32000.00
02904              -2.20    32800.00
02905              -3.40    32800.00
02906              -0.60    33600.00
02907              -3.80    32800.00
02908              -1.80    32800.00
02909              -0.60    33600.00
02910              -4.40    33600.00
02911              -1.20    32800.00
02912              -1.80    33600.00
02913              -3.00    32000.00
02914              -2.00    32000.00
02915              -2.80    32800.00
02916              -2.20    32000.00
02917              -2.60    32800.00
02918              -1.80    32800.00
02919              -2.20    32000.00
02920              -2.20    32000.00
02921              -1.80    31200.00
02922              -2.20    32000.00
02923              -1.40    32000.00
02924              -2.60    31200.00
02925              -2.20    31200.00
02926              -1.00    31200.00
02927              -2.60    30400.00
02928              -2.20    30400.00
02929              -1.80    30400.00
02930              -2.60    30400.00
02931              -2.00    30400.00
02932              -1.60    28800.00
02933              -2.00    28800.00
02934              -2.00    28800.00
02935              -1.60    28000.00
02936              -1.40    28000.00
02937              -2.20    27200.00
02938              -1.80    28000.00
02939              -2.20    26400.00
02940              -1.40    27200.00
02941              -1.20    26400.00
02942              -2.60    25600.00
02943              -2.00    25600.00
02944              -1.20    25600.00
02945              -2.00    25600.00
02946              -2.00    24800.00
02947              -1.80    24800.00
02948              -1.80    24000.00
02949              -1.80    24000.00
02950              -1.80    22400.00
02951              -0.60    22400.00
02952              -2.00    21600.00
02953              -2.20    21600.00
02954              -1.20    20800.00
02955              -1.80    20800.00
02956              -2.60    20000.00
02957              -1.80    19200.00
02958              -1.20    19200.00
02959              -2.00    18400.00
02960              -1.40    18400.00
02961              -1.20    17600.00
02962              -1.40    17600.00
02963              -1.40    16000.00
02964              -1.20    16000.00
02965              -1.00    15200.00
02966              -1.60    14400.00
02967              -1.80    14400.00
02968              -0.20    14400.00
02969              -1.80    12800.00
02970              -2.00    12800.00
02971              -0.40    12000.00
02972              -1.20    12000.00
02973              -2.00    11200.00
02974              -0.60    10400.00
02975              -1.20     9600.00
02976              -0.60     8800.00
02977              -0.60     8800.00
02978              -1.00     8000.00
02979              -1.00     8000.00
02980              -0.60     6400.00
02981              -1.00     7200.00
02982              -0.40     5600.00
02983              -0.40     4800.00
02984              -0.60     4000.00
02985              -0.60     3200.00
02986              -0.20     3200.00
02987              -0.60     2400.00
02988              -1.20     1600.00
02989              -0.20     1600.00
02990               0.20      800.00
02991              -0.20        0.00
02992               0.20     -800.00
02993               2.00     -800.00
02994               3.40     -800.00
02995              -1.60    -1600.00
02996               0.40    -2400.00
02997               1.20    -3200.00
02998               0.60    -3200.00
02999               0.20    -4000.00
03000               6.00    -4800.00
03001              23.60    -5600.00
03002               8.40    -7200.00
03003             -25.00    -8000.00
03004              -3.80    -8000.00
03005              25.00    -8800.00
03006             -25.00    -8000.00
03007             -22.80    -8800.00
03008              25.00    -9600.00
03009             -15.00    -9600.00
03010             -25.00   -10400.00
03011              25.00   -11200.00
03012             -25.00   -11200.00
03013             -18.20   -12800.00
03014              25.00   -13600.00
03015             -25.00   -12800.00
03016              25.00   -14400.00
03017             -24.60   -14400.00
03018              -0.20   -15200.00
03019              25.00   -15200.00
03020             -25.00   -16000.00
03021               8.40   -16800.00
03022              25.00   -16800.00
03023             -25.00   -17600.00
03024              -7.40   -17600.00
03025              25.00   -19200.00
03026             -20.60   -18400.00
03027              -5.00   -20000.00
03028              25.00   -20000.00
03029             -19.00   -20800.00
03030               5.00   -20800.00
03031              10.00   -21600.00
03032             -14.00   -22400.00
03033               6.80   -22400.00
03034               5.80   -23200.00
03035              -6.80   -23200.00
03036               7.60   -24000.00
03037               4.00   -24800.00
03038              -9.80   -24000.00
03039              11.40   -24800.00
03040              -1.40   -25600.00
03041              -4.20   -25600.00
03042              10.20   -26400.00
03043              -2.80   -26400.00
03044              -0.40   -27200.00
03045               5.20   -26400.00
03046              -0.40   -27200.00
03047               0.20   -27200.00
03048               5.00   -28000.00
03049              -0.40   -28800.00
03050               0.00   -28800.00
03051               4.20   -28800.00
03052              -1.00   -29600.00
03053               2.00   -29600.00
03054               4.20   -29600.00
03055              -0.60   -29600.00
03056               2.60   -30400.00
03057               3.00   -30400.00
03058              -1.20   -30400.00
03059               3.00   -30400.00
03060               2.20   -31200.00
03061               1.00   -31200.00
03062               2.80   -32000.00
03063               0.80   -32000.00
03064               1.40   -32000.00
03065               1.40   -32000.00
03066               1.20   -32000.00
03067               2.00   -32000.00
03068               1.80   -32000.00
03069               1.80   -32000.00
03070               2.00   -32000.00
03071               2.60   -32000.00
03072               0.60   -32000.00
03073               1.40   -32000.00
03074               3.20   -32000.00
03075               0.60   -32800.00
03076               2.20   -32000.00
03077               2.00   -32000.00
03078               0.60   -32000.00
03079               1.80   -32000.00
03080               1.80   -32000.00
03081               1.60   -32000.00
03082               1.20   -32000.00
03083               1.80   -32000.00
03084               1.40   -32000.00
03085               1.20   -32000.00
03086               1.80   -31200.00
03087               1.80   -31200.00
03088               1.40   -31200.00
03089               1.20   -30400.00
03090               1.80   -30400.00
03091               1.40   -30400.00
03092               0.40   -29600.00
03093               2.20   -30400.00
03094               2.20   -29600.00
03095               0.40   -29600.00
03096               2.00   -29600.00
03097               1.20   -29600.00
03098               0.80   -28800.00
03099               1.80   -28800.00
03100               1.00   -28800.00
03101               0.80   -28800.00
03102               1.20   -28000.00
03103               0.60   -27200.00
03104               1.20   -27200.00
03105               1.20   -26400.00
03106               1.40   -27200.00
03107               1.40   -26400.00
03108               1.20   -26400.00
03109               1.00   -25600.00
03110               1.20   -25600.00
03111               1.20   -24800.00
03112               0.60   -24000.00
03113               1.20   -24000.00
03114               1.00   -24000.00
03115               0.40   -23200.00
03116               1.40   -22400.00
03117               1.00   -22400.00
03118               0.60   -22400.00
03119               1.20   -21600.00
03120               0.60   -20800.00
03121               0.80   -20000.00
03122               0.60   -19200.00
03123               0.60   -19200.00
03124               0.60   -19200.00
03125               0.60   -17600.00
03126               1.00   -17600.00
03127               0.40   -17600.00
03128               0.20   -16800.00
03129               0.40   -16800.00
03130               0.20   -16000.00
03131               0.20   -15200.00
03132               0.40   -14400.00
03133               0.40   -13600.00
03134               0.60   -14400.00
03135               0.40   -12800.00
03136               0.40   -12800.00
03137               0.20   -12800.00
03138              -0.20   -12000.00
03139               0.40   -11200.00
03140              -0.20   -10400.00
03141              -0.40   -10400.00
03142              -0.20    -9600.00
03143              -0.20    -8000.00
03144               0.40    -8000.00
03145              -0.20    -7200.00
03146               0.00    -7200.00
03147              -0.20    -6400.00
03148              -0.40    -6400.00
03149              -0.20    -4800.00
03150              -0.20    -4800.00
03151              -0.20    -3200.00
03152              -0.40    -3200.00
03153              -0.40    -2400.00
03154              -0.40    -1600.00
03155              -1.00    -1600.00
03156              -1.00     -800.00
03157              -0.60        0.00
03158              -0.40        0.00
03159              -0.40        0.00
03160               1.40     1600.00
03161               2.40     1600.00
03162              -3.00     2400.00
03163              -0.60     3200.00
03164               1.20     3200.00
03165              -1.40     3200.00
03166               2.00     4800.00
03167              21.40     6400.00
03168              19.80     7200.00
03169             -25.00     7200.00
03170             -12.20     8000.00
03171              25.00     8000.00
03172             -25.00     8000.00
03173              -4.00     9600.00
03174              25.00     9600.00
03175             -25.00     9600.00
03176              25.00    11200.00
03177              25.00    11200.00
03178             -25.00    12000.00
03179              25.00    12800.00
03180             -25.00    12800.00
03181               0.60    13600.00
03182              25.00    14400.00
03183             -25.00    15200.00
03184              25.00    15200.00
03185              18.20    15200.00
03186             -25.00    16000.00
03187              25.00    16800.00
03188              -1.20    17600.00
03189             -25.00    18400.00
03190              17.80    18400.00
03191              17.00    19200.00
03192             -25.00    19200.00
03193              21.20    20000.00
03194               9.40    20800.00
03195             -24.60    21600.00
03196              25.00    21600.00
03197             -23.00    22400.00
03198              -2.20    22400.00
03199              11.60    23200.00
03200             -15.80    24000.00
03201               2.80    24000.00
03202              13.00    24000.00
03203             -17.20    24800.00
03204              -1.00    24800.00
03205              12.40    25600.00
03206             -22.00    26400.00
03207               8.00    25600.00
03208               3.60    26400.00
03209             -12.40    27200.00
03210               5.00    27200.00
03211              -2.00    28000.00
03212              -6.80    28000.00
03213               1.00    28000.00
03214              -0.40    28000.00
03215              -6.00    28800.00
03216               0.60    28800.00
03217              -2.60    29600.00
03218              -5.40    30400.00
03219               2.20    30400.00
03220              -3.00    30400.00
03221              -4.40    30400.00
03222               2.00    30400.00
03223              -5.40    31200.00
03224              -3.00    31200.00
03225               1.00    31200.00
03226              -5.40    31200.00
03227              -0.40    31200.00
03228              -0.20    32000.00
03229              -4.20    32800.00
03230              -1.80    32000.00
03231              -2.80    32800.00
03232              -2.80    32000.00
03233              -1.80    32800.00
03234              -2.20    32800.00
03235              -3.00    32800.00
03236              -2.00    32800.00
03237              -1.60    32800.00
03238              -4.00    32800.00
03239              -1.20    32000.00
03240              -2.40    32800.00
03241              -3.60    32800.00
03242               0.40    32800.00
03243              -3.60    32000.00
03244              -2.80    32800.00
03245              -1.00    33600.00
03246              -2.80    32800.00
03247              -2.00    32800.00
03248              -2.60    32800.00
03249              -2.40    32800.00
03250              -2.20    32000.00
03251              -2.00    32800.00
03252              -2.00    32000.00
03253              -2.40    32800.00
03254              -1.80    32000.00
03255              -2.00    32800.00
03256              -2.00    31200.00
03257              -2.00    31200.00
03258              -2.80    30400.00
03259              -1.20    31200.00
03260              -2.00    31200.00
03261              -2.60    30400.00
03262              -1.80    30400.00
03263              -2.20    30400.00
03264              -2.20    29600.00
03265              -1.60    29600.00
03266              -2.20    28800.00
03267              -2.20    28800.00
03268              -2.00    28800.00
03269              -1.40    28000.00
03270              -2.00    28000.00
03271              -2.00    28000.00
03272              -1.80    27200.00
03273              -1.60    27200.00
03274              -1.80    27200.00
03275              -2.20    25600.00
03276              -2.20    25600.00
03277              -1.40    25600.00
03278              -2.20    24800.00
03279              -1.40    24800.00
03280              -1.80    24000.00
03281              -2.40    24800.00
03282              -1.40    23200.00
03283              -1.80    23200.00
03284              -1.80    22400.00
03285              -1.80    21600.00
03286              -2.00    21600.00
03287              -1.20    21600.00
03288              -1.80    21600.00
03289              -2.00    20000.00
03290              -1.80    19200.00
03291              -1.60    19200.00
03292              -1.20    18400.00
03293              -1.60    18400.00
03294              -1.40    17600.00
03295              -1.40    17600.00
03296              -1.60    16800.00
03297              -1.00    16000.00
03298              -1.40    15200.00
03299              -1.20    15200.00
03300              -1.40    14400.00
03301              -1.20    14400.00
03302              -1.00    13600.00
03303              -1.20    12800.00
03304              -1.00    12000.00
03305              -1.20    12000.00
03306              -0.60    11200.00
03307              -1.00    10400.00
03308              -1.80    11200.00
03309              -0.40     9600.00
03310              -0.60     8800.00
03311              -1.80     8000.00
03312              -0.40     8000.00
03313              -1.00     7200.00
03314              -1.20     6400.00
03315              -0.40     5600.00
03316              -0.60     5600.00
03317              -0.60     4800.00
03318              -0.60     4000.00
03319              -0.60     3200.00
03320               0.20     2400.00
03321              -0.60     2400.00
03322              -0.80     1600.00
03323               0.40     1600.00
03324              -0.20        0.00
03325              -0.20        0.00
03326               1.00     -800.00
03327               3.60    -1600.00
03328              -0.20    -1600.00
03329              -1.20    -1600.00
03330               1.60    -3200.00
03331               1.00    -3200.00
03332              -0.20    -3200.00
03333               3.20    -4000.00
03334              15.80    -4800.00
03335              25.00    -6400.00
03336             -25.00    -7200.00
03337             -25.00    -8000.00
03338              25.00    -8000.00
03339              -1.00    -8000.00
03340             -25.00    -8000.00
03341              25.00    -8800.00
03342              25.00   -10400.00
03343             -25.00   -10400.00
03344              25.00   -11200.00
03345              25.00   -11200.00
03346             -25.00   -12000.00
03347              25.00   -12800.00
03348             -17.80   -13600.00
03349               9.00   -13600.00
03350               8.60   -14400.00
03351             -25.00   -15200.00
03352              25.00   -15200.00
03353             -15.40   -16000.00
03354             -20.60   -16800.00
03355              25.00   -16800.00
03356              -7.00   -17600.00
03357             -23.80   -17600.00
03358              23.60   -18400.00
03359               4.00   -19200.00
03360             -25.00   -20000.00
03361              25.00   -20000.00
03362              -2.20   -20800.00
03363             -11.80   -20800.00
03364              18.60   -21600.00
03365             -10.80   -22400.00
03366              -1.40   -22400.00
03367               9.80   -23200.00
03368              -4.40   -23200.00
03369               0.40   -24000.00
03370              11.40   -24000.00
03371              -9.20   -24000.00
03372               3.40   -24800.00
03373               7.40   -24800.00
03374              -9.40   -25600.00
03375               8.20   -26400.00
03376               2.60   -26400.00
03377              -3.00   -26400.00
03378               4.80   -26400.00
03379               1.60   -27200.00
03380              -1.20   -28000.00
03381               3.80   -28000.00
03382               2.00   -28800.00
03383              -1.20   -28800.00
03384               4.20   -28800.00
03385               0.60   -28800.00
03386              -0.20   -29600.00
03387               4.80   -29600.00
03388               0.40   -29600.00
03389               0.20   -30400.00
03390               4.40   -29600.00
03391              -0.40   -30400.00
03392               1.40   -29600.00
03393               3.00   -31200.00
03394               0.00   -32000.00
03395               2.60   -32000.00
03396               2.00   -31200.00
03397               0.40   -31200.00
03398               2.00   -32000.00
03399               1.40   -32000.00
03400               1.80   -32000.00
03401               2.00   -32000.00
03402               1.80   -32000.00
03403               1.20   -32000.00
03404               2.60   -32000.00
03405               0.60   -32000.00
03406               0.20   -32000.00
03407               3.60   -32000.00
03408               1.40   -32000.00
03409               0.40   -32000.00
03410               3.00   -32000.00
03411               1.20   -32800.00
03412               1.00   -32000.00
03413               1.80   -32000.00
03414               2.60   -32000.00
03415               1.80   -32000.00
03416               0.60   -32000.00
03417               1.20   -32000.00
03418               2.20   -32000.00
03419               1.00   -32000.00
03420              -0.60   -31200.00
03421               3.40   -32000.00
03422               2.20   -30400.00
03423              -0.60   -30400.00
03424               3.60   -30400.00
03425               1.20   -30400.00
03426              -1.80   -29600.00
03427               3.60   -29600.00
03428               2.20   -29600.00
03429              -0.20   -29600.00
03430               3.00   -28800.00
03431               2.00   -28800.00
03432               0.20   -28800.00
03433               1.80   -28800.00
03434               1.00   -28800.00
03435               1.20   -27200.00
03436               2.20   -27200.00
03437               0.60   -27200.00
03438               0.60   -27200.00
03439               1.00   -27200.00
03440               1.40   -25600.00
03441               1.80   -25600.00
03442               1.60   -25600.00
03443               0.40   -25600.00
03444               1.00   -24000.00
03445               1.80   -24800.00
03446               0.40   -24000.00
03447               1.40   -24000.00
03448               1.80   -24000.00
03449               0.40   -22400.00
03450               1.00   -22400.00
03451               1.00   -20800.00
03452               0.40   -21600.00
03453               0.40   -20800.00
03454               1.40   -20000.00
03455               1.40   -20000.00
03456               0.20   -19200.00
03457               1.40   -18400.00
03458               1.00   -18400.00
03459               0.40   -17600.00
03460               0.60   -16800.00
03461               0.20   -17600.00
03462               0.40   -16800.00
03463               0.20   -16000.00
03464               0.80   -16000.00
03465               1.00   -15200.00
03466              -0.20   -14400.00
03467               0.20   -12800.00
03468               0.40   -13600.00
03469              -0.20   -12800.00
03470              -0.20   -12800.00
03471               0.20   -11200.00
03472               0.20   -11200.00
03473               0.40   -10400.00
03474              -0.20   -10400.00
03475              -0.20    -9600.00
03476              -0.40    -8800.00
03477              -0.20    -8000.00
03478              -0.40    -8000.00
03479              -0.20    -7200.00
03480              -0.20    -6400.00
03481              -0.40    -6400.00
03482               0.20    -4800.00
03483              -0.20    -4800.00
03484              -0.60    -3200.00
03485              -0.20    -4000.00
03486              -0.40    -2400.00
03487              -0.60    -2400.00
03488              -0.20    -1600.00
03489              -0.60     -800.00
03490              -0.60     -800.00
03491              -0.20        0.00
03492              -0.40      800.00
03493               0.40     1600.00
03494               3.00     1600.00
03495              -1.80     2400.00
03496              -1.60     2400.00
03497               0.60     3200.00
03498              -0.40     3200.00
03499              -1.00     4800.00
03500              11.60     5600.00
03501              25.00     7200.00
03502             -25.00     7200.00
03503             -25.00     8000.00
03504              24.60     8000.00
03505              -1.80     8000.00
03506             -25.00     8800.00
03507              25.00     9600.00
03508             -11.60    10400.00
03509             -25.00    11200.00
03510              25.00    11200.00
03511             -25.00    11200.00
03512               9.00    12000.00
03513              25.00    12800.00
03514             -25.00    12800.00
03515              25.00    14400.00
03516             -25.00    14400.00
03517             -11.00    15200.00
03518              25.00    15200.00
03519             -25.00    16000.00
03520              24.40    16800.00
03521              25.00    16800.00
03522             -25.00    17600.00
03523              -4.40    18400.00
03524              25.00    18400.00
03525             -25.00    19200.00
03526              -8.60    20000.00
03527              25.00    20000.00
03528             -25.00    20800.00
03529              14.60    21600.00
03530              -1.00    21600.00
03531             -20.60    22400.00
03532              18.20    23200.00
03533              -9.60    24000.00
03534              -7.80    24000.00
03535              14.20    24800.00
03536              -6.00    24800.00
03537             -15.80    24800.00
03538              17.40    24800.00
03539             -12.60    25600.00
03540              -7.60    25600.00
03541              13.20    26400.00
03542             -12.20    27200.00
03543              -1.00    28000.00
03544               2.60    27200.00
03545              -6.20    28000.00
03546              -2.60    28000.00
03547               1.80    28800.00
03548              -5.00    28800.00
03549              -1.20    28800.00
03550               0.20    29600.00
03551              -6.80    29600.00
03552               0.60    30400.00
03553               0.20    30400.00
03554              -6.20    30400.00
03555               1.40    30400.00
03556              -2.40    31200.00
03557              -6.80    31200.00
03558               1.80    31200.00
03559              -3.60    31200.00
03560              -3.40    32800.00
03561               1.00    32000.00
03562              -3.80    32800.00
03563              -2.60    32000.00
03564              -2.20    32800.00
03565              -3.20    32800.00
03566              -1.00    32000.00
03567              -1.60    32800.00
03568              -2.20    32800.00
03569              -2.80    33600.00
03570              -1.40    32800.00
03571              -3.40    32800.00
03572              -2.80    32800.00
03573              -1.00    32800.00
03574              -3.80    33600.00
03575              -0.20    33600.00
03576              -1.40    32800.00
03577              -3.60    32800.00
03578              -1.00    32800.00
03579              -2.80    32800.00
03580              -2.60    32800.00
03581              -2.20    32800.00
03582              -2.80    32800.00
03583              -2.00    32800.00
03584              -2.00    32000.00
03585              -1.80    32800.00
03586              -2.40    32000.00
03587              -2.00    31200.00
03588              -2.00    32000.00
03589              -2.60    31200.00
03590              -1.80    31200.00
03591              -2.80    31200.00
03592              -2.00    31200.00
03593              -1.00    31200.00
03594              -2.20    30400.00
03595              -1.80    30400.00
03596              -2.20    29600.00
03597              -2.60    30400.00
03598              -2.00    29600.00
03599              -2.60    29600.00
03600              -2.00    28800.00
03601              -2.00    28000.00
03602              -1.40    28800.00
03603              -1.40    28000.00
03604              -2.20    27200.00
03605              -2.00    27200.00
03606              -2.20    27200.00
03607              -2.00    26400.00
03608              -2.00    26400.00
03609              -2.60    25600.00
03610              -1.60    25600.00
03611              -1.40    24800.00
03612              -1.20    24800.00
03613              -1.40    24000.00
03614              -2.20    24000.00
03615              -1.80    24000.00
03616              -2.60    23200.00
03617              -1.80    23200.00
03618              -1.40    22400.00
03619              -2.20    22400.00
03620              -1.20    21600.00
03621              -1.20    20800.00
03622              -2.00    20800.00
03623              -2.00    19200.00
03624              -1.80    19200.00
03625              -1.20    19200.00
03626              -1.40    18400.00
03627              -1.40    18400.00
03628              -1.00    17600.00
03629              -1.00    16800.00
03630              -1.20    16800.00
03631              -0.80    16000.00
03632              -1.40    15200.00
03633              -1.40    14400.00
03634              -1.20    14400.00
03635              -1.20    13600.00
03636              -1.40    12800.00
03637              -1.20    12800.00
03638              -0.60    12000.00
03639              -0.60    11200.00
03640              -0.80    11200.00
03641              -1.20     9600.00
03642              -0.60     9600.00
03643              -0.60     8800.00
03644              -1.20     8000.00
03645              -0.60     8000.00
03646              -1.00     7200.00
03647              -1.00     6400.00
03648              -0.40     5600.00
03649              -0.60     5600.00
03650              -0.60     4800.00
03651              -0.60     4800.00
03652              -0.60     4000.00
03653              -0.20     3200.00
03654              -0.40     1600.00
03655              -0.60     2400.00
03656               0.20     1600.00
03657               0.40      800.00
03658              -0.20        0.00
03659               0.40     -800.00
03660               2.00    -1600.00
03661               2.20    -1600.00
03662              -1.40    -2400.00
03663               1.00    -2400.00
03664               1.20    -3200.00
03665               0.20    -3200.00
03666               0.40    -4000.00
03667               9.00    -4800.00
03668              25.00    -6400.00
03669              -9.00    -7200.00
03670             -25.00    -8000.00
03671              11.40    -8000.00
03672              20.00    -8000.00
03673             -25.00    -8800.00
03674              -1.00    -8000.00
03675              25.00   -10400.00
03676             -25.00    -9600.00
03677              -8.60   -10400.00
03678              25.00   -11200.00
03679             -25.00   -11200.00
03680              13.20   -12800.00
03681              18.00   -12800.00
03682             -18.20   -13600.00
03683              25.00   -14400.00
03684             -25.00   -14400.00
03685              22.20   -16000.00
03686              20.20   -16000.00
03687             -25.00   -16000.00
03688              24.60   -17600.00
03689              16.40   -16800.00
03690             -25.00   -17600.00
03691               5.80   -17600.00
03692              24.40   -19200.00
03693             -25.00   -19200.00
03694              11.00   -20000.00
03695              20.20   -20800.00
03696             -21.80   -20800.00
03697              13.80   -21600.00
03698               1.00   -22400.00
03699             -10.80   -22400.00
03700              10.00   -22400.00
03701               2.00   -23200.00
03702              -4.80   -23200.00
03703              11.20   -24000.00
03704              -1.80   -24800.00
03705              -6.20   -24800.00
03706              12.20   -25600.00
03707              -6.40   -25600.00
03708               1.60   -25600.00
03709               8.60   -26400.00
03710              -4.20   -27200.00
03711               2.00   -27200.00
03712               4.20   -27200.00
03713              -1.40   -28000.00
03714               1.80   -28800.00
03715               4.40   -28000.00
03716              -1.60   -28800.00
03717               1.80   -28800.00
03718               3.20   -29600.00
03719              -1.20   -29600.00
03720               3.80   -29600.00
03721               3.00   -30400.00
03722              -1.00   -30400.00
03723               4.20   -30400.00
03724               1.00   -30400.00
03725              -0.60   -30400.00
03726               3.60   -31200.00
03727               0.60   -30400.00
03728               1.00   -32000.00
03729               3.60   -31200.00
03730               0.40   -32000.00
03731               0.80   -32000.00
03732               2.00   -32000.00
03733               1.40   -32000.00
03734               1.80   -32000.00
03735               2.00   -32000.00
03736               1.40   -32000.00
03737               1.80   -32000.00
03738               2.00   -32000.00
03739               0.40   -32000.00
03740               2.20   -32800.00
03741               1.40   -32000.00
03742               0.20   -32000.00
03743               3.40   -32000.00
03744               0.60   -32000.00
03745               1.00   -32000.00
03746               3.60   -32000.00
03747               0.60   -32000.00
03748               1.00   -32000.00
03749               2.60   -32000.00
03750               0.60   -32000.00
03751               1.40   -32000.00
03752               2.20   -32000.00
03753               0.60   -31200.00
03754               1.40   -32000.00
03755               2.20   -30400.00
03756               0.20   -32000.00
03757               1.40   -30400.00
03758               2.20   -30400.00
03759              -0.20   -30400.00
03760               2.20   -29600.00
03761               2.20   -30400.00
03762               0.40   -29600.00
03763               2.40   -29600.00
03764               1.40   -28800.00
03765               0.60   -28800.00
03766               2.00   -28800.00
03767               1.20   -28000.00
03768               0.40   -28000.00
03769               1.80   -28000.00
03770               1.00   -27200.00
03771               1.40   -27200.00
03772               1.40   -26400.00
03773               1.20   -26400.00
03774               1.20   -26400.00
03775               1.20   -25600.00
03776               0.40   -25600.00
03777               1.40   -24800.00
03778               1.80   -24800.00
03779               1.00   -24000.00
03780               1.00   -24000.00
03781               1.40   -23200.00
03782               0.40   -23200.00
03783               1.20   -22400.00
03784               1.00   -22400.00
03785               1.00   -21600.00
03786               1.00   -21600.00
03787               0.60   -20000.00
03788               0.80   -20000.00
03789               0.60   -20000.00
03790               0.80   -19200.00
03791               1.00   -18400.00
03792               0.60   -17600.00
03793               0.60   -17600.00
03794               0.20   -17600.00
03795               0.40   -16800.00
03796               0.40   -16800.00
03797               0.40   -16000.00
03798               0.60   -16000.00
03799               0.20   -14400.00
03800               0.40   -13600.00
03801               0.40   -13600.00
03802              -0.20   -12800.00
03803               0.20   -12800.00
03804               0.20   -12000.00
03805              -0.20   -11200.00
03806               0.20   -11200.00
03807              -0.20   -10400.00
03808              -0.20    -9600.00
03809              -0.20    -9600.00
03810               0.40    -8000.00
03811              -0.20    -8000.00
03812              -0.20    -7200.00
03813               0.20    -7200.00
03814              -0.40    -5600.00
03815              -0.40    -6400.00
03816              -0.20    -4800.00
03817              -0.20    -4000.00
03818              -0.60    -3200.00
03819              -0.40    -3200.00
03820              -0.60    -2400.00
03821              -0.60    -1600.00
03822              -0.60     -800.00
03823              -0.60     -800.00
03824              -0.20        0.00
03825              -0.40        0.00
03826              -0.20      800.00
03827               2.20     1600.00
03828               0.80     1600.00
03829              -2.40     2400.00
03830               0.20     3200.00
03831               0.60     3200.00
03832              -1.80     4000.00
03833               5.20     4800.00
03834              25.00     6400.00
03835               0.40     6400.00
03836             -25.00     8000.00
03837               5.80     8000.00
03838              21.80     8000.00
03839             -25.00     8800.00
03840              25.00     9600.00
03841              25.00     9600.00
03842             -25.00     9600.00
03843              25.00    11200.00
03844               9.40    11200.00
03845             -25.00    12000.00
03846              25.00    12800.00
03847             -25.00    12800.00
03848              25.00    14400.00
03849              24.80    14400.00
03850             -25.00    14400.00
03851              25.00    15200.00
03852             -25.00    15200.00
03853             -25.00    16800.00
03854              25.00    16800.00
03855             -23.80    18400.00
03856             -25.00    17600.00
03857              25.00    18400.00
03858               1.00    19200.00
03859             -25.00    20000.00
03860              25.00    20800.00
03861             -11.00    20000.00
03862             -10.60    21600.00
03863              22.00    21600.00
03864             -25.00    22400.00
03865               9.40    22400.00
03866               3.40    22400.00
03867             -15.60    24000.00
03868               8.40    24000.00
03869               7.60    24000.00
03870             -20.40    24800.00
03871               9.00    25600.00
03872               3.40    24800.00
03873             -20.40    25600.00
03874              13.80    26400.00
03875              -4.40    27200.00
03876              -8.20    27200.00
03877               5.80    27200.00
03878              -4.40    28000.00
03879              -5.40    28000.00
03880               2.00    28800.00
03881              -2.80    28800.00
03882              -4.60    29600.00
03883               1.40    28800.00
03884              -4.80    30400.00
03885              -3.40    29600.00
03886               2.20    30400.00
03887              -5.40    30400.00
03888              -2.00    31200.00
03889               1.40    31200.00
03890              -6.60    31200.00
03891              -0.40    31200.00
03892              -0.60    32000.00
03893              -5.80    31200.00
03894               0.80    32800.00
03895              -1.60    32800.00
03896              -4.00    31200.00
03897              -1.40    32000.00
03898              -3.00    32800.00
03899              -2.60    32800.00
03900              -1.60    32000.00
03901              -2.00    32800.00
03902              -2.80    32000.00
03903              -1.40    32800.00
03904              -2.00    32800.00
03905              -3.60    32800.00
03906              -0.60    33600.00
03907              -3.40    32800.00
03908              -2.00    32800.00
03909               0.00    32800.00
03910              -4.20    32800.00
03911              -1.80    32800.00
03912              -1.60    33600.00
03913              -3.40    32800.00
03914              -2.20    32000.00
03915              -2.60    32800.00
03916              -2.60    32800.00
03917              -2.00    32000.00
03918              -1.80    32000.00
03919              -2.20    32800.00
03920              -1.80    32000.00
03921              -1.40    32000.00
03922              -2.60    32000.00
03923              -1.40    31200.00
03924              -2.20    31200.00
03925              -3.00    30400.00
03926              -1.20    31200.00
03927              -2.20    30400.00
03928              -3.00    30400.00
03929              -1.40    30400.00
03930              -2.60    29600.00
03931              -2.00    29600.00
03932              -1.80    29600.00
03933              -2.60    28800.00
03934              -2.00    28800.00
03935              -2.00    28800.00
03936              -2.00    28000.00
03937              -2.00    28000.00
03938              -1.80    27200.00
03939              -2.40    27200.00
03940              -2.00    26400.00
03941              -1.20    25600.00
03942              -2.80    25600.00
03943              -2.20    25600.00
03944              -1.20    24800.00
03945              -2.40    25600.00
03946              -1.80    24800.00
03947              -1.80    24800.00
03948              -1.80    24000.00
03949              -2.20    24000.00
03950              -2.00    22400.00
03951              -1.20    22400.00
03952              -2.00    22400.00
03953              -1.80    21600.00
03954              -0.60    21600.00
03955              -2.60    20800.00
03956              -2.00    20000.00
03957              -1.40    19200.00
03958              -1.60    19200.00
03959              -1.60    18400.00
03960              -0.60    17600.00
03961              -2.00    17600.00
03962              -1.80    16800.00
03963              -0.60    16000.00
03964              -1.40    16000.00
03965              -1.80    15200.00
03966              -1.20    15200.00
03967               0.40    14400.00
03968              -1.40    13600.00
03969              -2.00    12800.00
03970               0.00    12800.00
03971              -1.20    12000.00
03972              -2.60    12000.00
03973               0.00    11200.00
03974               0.20     9600.00
03975              -1.80     9600.00
03976              -0.20     8800.00
03977              -0.60     8800.00
03978              -1.40     8000.00
03979              -1.20     8000.00
03980               0.20     6400.00
03981              -0.40     7200.00
03982              -1.00     5600.00
03983              -0.60     5600.00
03984              -0.20     4800.00
03985              -1.60     3200.00
03986               0.20     3200.00
03987               0.40     3200.00
03988              -1.80     1600.00
03989              -0.60     1600.00
03990               0.60      800.00
03991              -0.80        0.00
03992              -0.40        0.00
03993               1.80     -800.00
03994               3.80    -1600.00
03995              -1.80    -1600.00
03996              -0.40    -1600.00
03997               1.80    -3200.00
03998               0.20    -3200.00
03999              -0.60    -4000.00
04000               5.40    -4800.00
04001              20.40    -5600.00
04002              15.60    -7200.00
04003             -25.00    -8000.00
04004             -13.00    -8000.00
04005              25.00    -8000.00
04006             -18.20    -8800.00
04007             -25.00    -8000.00
04008              25.00    -9600.00
04009               8.40    -9600.00
04010             -25.00   -10400.00
04011              25.00   -11200.00
04012             -12.20   -11200.00
04013             -25.00   -12000.00
04014              25.00   -12800.00
04015             -25.00   -13600.00
04016              23.60   -14400.00
04017             -13.00   -14400.00
04018             -13.00   -14400.00
04019              25.00   -15200.00
04020             -25.00   -16000.00
04021              -2.80   -16800.00
04022              25.00   -16800.00
04023             -20.00   -17600.00
04024             -14.20   -18400.00
04025              25.00   -19200.00
04026             -11.80   -18400.00
04027             -14.00   -19200.00
04028              25.00   -20000.00
04029             -14.80   -20800.00
04030              -1.40   -21600.00
04031              14.60   -22400.00
04032             -13.80   -22400.00
04033               5.20   -22400.00
04034               8.00   -23200.00
04035              -7.00   -23200.00
04036               5.40   -24000.00
04037               7.60   -24000.00
04038             -10.80   -24000.00
04039               9.00   -24800.00
04040               2.60   -25600.00
04041              -7.00   -25600.00
04042              10.20   -26400.00
04043              -0.60   -26400.00
04044              -1.40   -27200.00
04045               5.20   -27200.00
04046               0.60   -27200.00
04047              -0.60   -28000.00
04048               4.60   -28000.00
04049               0.20   -28800.00
04050              -1.00   -28800.00
04051               5.00   -28800.00
04052              -0.40   -28800.00
04053               1.00   -28800.00
04054               5.20   -29600.00
04055              -0.40   -29600.00
04056               1.20   -29600.00
04057               3.20   -29600.00
04058              -1.00   -30400.00
04059               2.00   -30400.00
04060               2.60   -31200.00
04061               0.40   -32000.00
04062               3.20   -32000.00
04063               1.00   -32000.00
04064               0.80   -31200.00
04065               2.00   -32000.00
04066               0.60   -32000.00
04067               1.00   -32000.00
04068               1.80   -32000.00
04069               2.00   -32000.00
04070               1.40   -32000.00
04071               2.60   -32800.00
04072               0.80   -32000.00
04073               0.60   -32000.00
04074               2.20   -32000.00
04075               0.60   -32800.00
04076               2.20   -32000.00
04077               2.20   -32000.00
04078               0.40   -32800.00
04079               2.40   -32000.00
04080               1.80   -32000.00
04081               1.00   -32000.00
04082               1.80   -32000.00
04083               1.20   -32000.00
04084               1.40   -32000.00
04085               1.60   -32000.00
04086               1.40   -32000.00
04087               1.60   -30400.00
04088               1.40   -32000.00
04089               1.40   -30400.00
04090               1.60   -30400.00
04091               1.20   -31200.00
04092               1.00   -30400.00
04093               1.80   -29600.00
04094               2.00   -29600.00
04095               1.00   -29600.00
04096               2.00   -28800.00
04097               2.00   -29600.00
04098               1.20   -28800.00
04099               1.00   -28800.00
04100               1.40   -28800.00
04101               1.20   -28000.00
04102               0.80   -27200.00
04103               2.00   -27200.00
04104               1.40   -27200.00
04105               0.80   -26400.00
04106               1.40   -26400.00
04107               1.80   -26400.00
04108               1.20   -25600.00
04109               1.20   -25600.00
04110               1.00   -24800.00
04111               1.20   -24000.00
04112               1.00   -24000.00
04113               0.80   -24000.00
04114               1.20   -23200.00
04115               1.00   -23200.00
04116               1.00   -22400.00
04117               1.00   -22400.00
04118               1.00   -21600.00
04119               1.00   -21600.00
04120               1.00   -20800.00
04121               1.20   -20800.00
04122               0.60   -20000.00
04123               0.80   -19200.00
04124               0.60   -18400.00
04125               0.40   -18400.00
04126               0.40   -17600.00
04127               0.20   -17600.00
04128               0.40   -17600.00
04129               0.40   -16000.00
04130               0.20   -16000.00
04131               0.40   -16000.00
04132               0.20   -14400.00
04133               0.40   -14400.00
04134               0.40   -13600.00
04135               0.20   -13600.00
04136               0.40   -12800.00
04137              -0.40   -12800.00
04138               0.40   -11200.00
04139               0.40   -11200.00
04140              -0.40   -10400.00
04141               0.20    -9600.00
04142              -0.20    -8800.00
04143              -0.60    -8800.00
04144               0.60    -8000.00
04145              -0.60    -8000.00
04146              -0.60    -7200.00
04147               0.60    -6400.00
04148              -0.60    -6400.00
04149              -0.20    -4800.00
04150               0.20    -4800.00
04151              -1.00    -4000.00
04152               0.20    -3200.00
04153              -0.20    -2400.00
04154              -0.60    -1600.00
04155              -0.60    -1600.00
04156              -1.00    -1600.00
04157              -0.20        0.00
04158               0.00        0.00
04159              -0.20      800.00
04160               1.20     1600.00
04161               2.80     1600.00
04162              -2.60     2400.00
04163              -0.60     3200.00
04164               1.20     3200.00
04165              -0.60     3200.00
04166               1.00     4800.00
04167              17.00     5600.00
04168              25.00     7200.00
04169             -25.00     7200.00
04170             -23.40     8000.00
04171              25.00     8000.00
04172             -20.40     8800.00
04173             -20.40     8800.00
04174              25.00    10400.00
04175             -25.00     9600.00
04176              -1.20    11200.00
04177              25.00    11200.00
04178             -25.00    12000.00
04179              25.00    12800.00
04180             -10.20    12800.00
04181             -25.00    12800.00
04182              25.00    14400.00
04183             -25.00    14400.00
04184              25.00    15200.00
04185              25.00    15200.00
04186             -25.00    16000.00
04187              25.00    16800.00
04188              13.00    17600.00
04189             -25.00    17600.00
04190              10.20    18400.00
04191              23.20    19200.00
04192             -25.00    19200.00
04193              11.20    20000.00
04194              20.20    20800.00
04195             -25.00    21600.00
04196              25.00    21600.00
04197             -16.60    22400.00
04198              -9.80    22400.00
04199              15.60    23200.00
04200             -15.00    24000.00
04201              -1.20    24000.00
04202              14.20    24800.00
04203             -14.00    24000.00
04204              -7.00    25600.00
04205              15.60    25600.00
04206             -20.40    25600.00
04207               2.80    26400.00
04208               7.80    27200.00
04209             -13.40    26400.00
04210               3.00    27200.00
04211              -0.60    28000.00
04212              -5.40    28000.00
04213               0.20    28000.00
04214              -0.60    28800.00
04215              -5.40    28800.00
04216               1.20    28800.00
04217              -2.60    28800.00
04218              -6.60    28800.00
04219               2.80    30400.00
04220              -2.00    29600.00
04221              -6.00    30400.00
04222               2.20    30400.00
04223              -3.60    31200.00
04224              -5.00    31200.00
04225               2.00    31200.00
04226              -4.40    32000.00
04227              -2.60    32000.00
04228               0.20    32800.00
04229              -2.60    32000.00
04230              -1.40    32000.00
04231              -3.60    32800.00
04232              -2.20    32800.00
04233              -0.80    32800.00
04234              -3.40    32800.00
04235              -3.40    32800.00
04236              -1.40    32000.00
04237              -0.80    32800.00
04238              -3.80    32000.00
04239              -1.00    32800.00
04240              -1.20    32800.00
04241              -5.00    32800.00
04242               0.40    32800.00
04243              -3.00    33600.00
04244              -3.60    33600.00
04245              -0.40    32800.00
04246              -2.60    32800.00
04247              -2.20    32000.00
04248              -2.80    32800.00
04249              -2.60    32800.00
04250              -1.40    32800.00
04251              -2.60    32800.00
04252              -2.60    32000.00
04253              -2.20    32000.00
04254              -1.60    31200.00
04255              -2.60    31200.00
04256              -1.40    32000.00
04257              -1.40    31200.00
04258              -3.60    31200.00
04259              -1.80    31200.00
04260              -1.40    31200.00
04261              -3.40    30400.00
04262              -1.40    30400.00
04263              -2.20    29600.00
04264              -2.60    30400.00
04265              -1.40    28800.00
04266              -2.60    28800.00
04267              -2.20    28800.00
04268              -2.40    28800.00
04269              -2.00    28800.00
04270              -2.00    28000.00
04271              -2.20    28000.00
04272              -2.00    27200.00
04273              -2.00    27200.00
04274              -1.80    27200.00
04275              -2.20    25600.00
04276              -2.20    25600.00
04277              -1.40    25600.00
04278              -2.40    24800.00
04279              -1.40    24800.00
04280              -1.60    24000.00
04281              -2.20    24000.00
04282              -1.20    23200.00
04283              -1.40    23200.00
04284              -1.80    22400.00
04285              -1.40    22400.00
04286              -2.60    22400.00
04287              -1.20    21600.00
04288              -1.40    20800.00
04289              -2.20    20800.00
04290              -1.20    19200.00
04291              -1.40    19200.00
04292              -1.20    18400.00
04293              -1.40    18400.00
04294              -1.00    17600.00
04295              -1.20    17600.00
04296              -1.80    16800.00
04297              -0.60    16000.00
04298              -1.20    15200.00
04299              -1.40    15200.00
04300              -1.20    14400.00
04301              -0.60    14400.00
04302              -0.80    13600.00
04303              -1.40    12800.00
04304              -1.00    12800.00
04305              -0.60    12000.00
04306              -1.20    11200.00
04307              -0.40    11200.00
04308              -1.00    10400.00
04309              -0.60     9600.00
04310              -1.00     8800.00
04311              -1.20     8000.00
04312               0.00     8000.00
04313              -1.20     7200.00
04314              -1.40     6400.00
04315               0.20     6400.00
04316              -0.80     5600.00
04317              -1.00     4800.00
04318              -0.60     4000.00
04319              -0.40     3200.00
04320              -0.40     3200.00
04321              -0.40     2400.00
04322              -0.60     1600.00
04323               0.20     1600.00
04324              -0.60        0.00
04325              -0.40        0.00
04326               1.00     -800.00
04327               2.80     -800.00
04328               0.40    -1600.00
04329              -1.40    -2400.00
04330               1.40    -3200.00
04331               1.00    -2400.00
04332               0.40    -3200.00
04333               2.40    -4000.00
04334              12.60    -4800.00
04335              25.00    -6400.00
04336             -25.00    -7200.00
04337             -25.00    -8000.00
04338              22.60    -8000.00
04339               7.60    -8800.00
04340             -25.00    -8000.00
04341              25.00    -8800.00
04342              25.00   -10400.00
04343             -25.00    -9600.00
04344              25.00   -11200.00
04345              25.00   -11200.00
04346             -25.00   -12000.00
04347              25.00   -13600.00
04348              -6.20   -12800.00
04349              -1.20   -13600.00
04350              18.60   -13600.00
04351             -25.00   -14400.00
04352              25.00   -15200.00
04353              -2.60   -16000.00
04354             -25.00   -16800.00
04355              25.00   -16800.00
04356               1.20   -17600.00
04357             -25.00   -17600.00
04358              18.20   -18400.00
04359              13.00   -19200.00
04360             -25.00   -19200.00
04361              24.40   -20000.00
04362               6.20   -20000.00
04363             -17.40   -21600.00
04364              18.80   -20800.00
04365              -7.00   -22400.00
04366              -5.40   -22400.00
04367              10.60   -22400.00
04368              -2.00   -24000.00
04369              -2.20   -24000.00
04370              12.40   -24000.00
04371              -7.00   -24000.00
04372              -0.40   -24800.00
04373              10.20   -25600.00
04374              -9.40   -25600.00
04375               6.00   -25600.00
04376               5.40   -26400.00
04377              -3.80   -27200.00
04378               3.80   -26400.00
04379               2.80   -27200.00
04380              -2.00   -28000.00
04381               3.40   -28000.00
04382               3.40   -28800.00
04383              -1.80   -28800.00
04384               3.60   -28800.00
04385               1.80   -28800.00
04386              -1.20   -29600.00
04387               4.20   -29600.00
04388               1.20   -29600.00
04389              -0.20   -29600.00
04390               4.20   -29600.00
04391               0.20   -30400.00
04392               0.40   -30400.00
04393               3.40   -30400.00
04394               0.20   -31200.00
04395               2.00   -31200.00
04396               2.60   -32000.00
04397               0.40   -32000.00
04398               1.80   -31200.00
04399               1.40   -32000.00
04400               1.40   -32000.00
04401               2.00   -32000.00
04402               2.00   -32000.00
04403               1.00   -32000.00
04404               2.20   -32000.00
04405               1.40   -32800.00
04406              -0.20   -32000.00
04407               2.80   -32000.00
04408               1.20   -32800.00
04409               0.40   -32000.00
04410               3.40   -32000.00
04411               1.00   -32000.00
04412               1.60   -32000.00
04413               2.60   -32000.00
04414               1.20   -32000.00
04415               2.00   -32000.00
04416               1.40   -32000.00
04417               1.20   -32000.00
04418               2.00   -32000.00
04419               1.40   -32000.00
04420               1.20   -32000.00
04421               1.80   -31200.00
04422               1.40   -30400.00
04423               1.00   -30400.00
04424               1.80   -30400.00
04425               1.40   -30400.00
04426               1.20   -29600.00
04427               2.00   -29600.00
04428               1.40   -29600.00
04429               1.40   -29600.00
04430               2.20   -29600.00
04431               1.20   -28800.00
04432               1.00   -28800.00
04433               1.60   -28000.00
04434               1.20   -28800.00
04435               1.20   -27200.00
04436               1.40   -27200.00
04437               1.00   -27200.00
04438               1.20   -27200.00
04439               1.00   -27200.00
04440               1.40   -26400.00
04441               1.80   -25600.00
04442               1.20   -25600.00
04443               1.00   -25600.00
04444               1.20   -24800.00
04445               1.40   -24800.00
04446               0.60   -24000.00
04447               1.00   -24000.00
04448               1.20   -23200.00
04449               0.40   -23200.00
04450               1.00   -23200.00
04451               0.80   -22400.00
04452               0.60   -22400.00
04453               0.60   -20800.00
04454               1.00   -20000.00
04455               1.00   -20000.00
04456               0.60   -20000.00
04457               0.60   -18400.00
04458               0.40   -18400.00
04459               0.60   -17600.00
04460               0.80   -17600.00
04461               0.20   -17600.00
04462               0.80   -16800.00
04463               0.40   -16000.00
04464               0.20   -16000.00
04465               0.60   -14400.00
04466               0.20   -14400.00
04467               0.20   -14400.00
04468               0.40   -13600.00
04469              -0.20   -12800.00
04470              -0.20   -12000.00
04471               0.20   -12000.00
04472               0.20   -11200.00
04473               0.20   -10400.00
04474               0.20   -10400.00
04475               0.20    -9600.00
04476               0.00    -8800.00
04477               0.20    -8000.00
04478              -0.20    -8000.00
04479               0.20    -7200.00
04480               0.20    -6400.00
04481              -0.40    -6400.00
04482              -0.20    -4800.00
04483               0.20    -4800.00
04484              -0.80    -4000.00
04485              -0.20    -4000.00
04486              -0.20    -3200.00
04487              -0.60    -2400.00
04488              -0.60    -1600.00
04489              -0.40     -800.00
04490              -0.20     -800.00
04491               0.00        0.00
04492               0.00        0.00
04493               0.40     1600.00
04494               2.80     1600.00
04495              -0.40     2400.00
04496              -2.00     2400.00
04497               0.60     3200.00
04498               0.40     3200.00
04499              -1.60     4800.00
04500               9.00     4800.00
04501              25.00     7200.00
04502             -20.40     7200.00
04503             -25.00     8000.00
04504              19.60     8000.00
04505               8.60     8000.00
04506             -25.00     8000.00
04507              25.00     9600.00
04508              14.60     9600.00
04509             -25.00    10400.00
04510              25.00    11200.00
04511             -25.00    11200.00
04512             -16.40    12800.00
04513              25.00    12800.00
04514             -25.00    12800.00
04515              25.00    14400.00
04516             -25.00    14400.00
04517             -25.00    15200.00
04518              25.00    15200.00
04519             -25.00    16000.00
04520               4.20    16000.00
04521              25.00    16000.00
04522             -25.00    17600.00
04523             -12.60    17600.00
04524              25.00    18400.00
04525             -17.20    19200.00
04526             -20.40    19200.00
04527              25.00    20800.00
04528             -25.00    20800.00
04529               6.00    21600.00
04530               9.00    21600.00
04531             -25.00    22400.00
04532              16.80    22400.00
04533              -5.20    23200.00
04534             -11.60    24000.00
04535              12.80    24000.00
04536              -0.60    24800.00
04537             -18.80    24800.00
04538              15.60    24800.00
04539              -7.60    25600.00
04540             -12.60    25600.00
04541              14.80    27200.00
04542             -10.80    27200.00
04543              -3.00    27200.00
04544               4.40    27200.00
04545              -6.20    28000.00
04546              -3.00    28000.00
04547               2.00    28000.00
04548              -4.60    28800.00
04549              -3.00    28800.00
04550               1.00    28800.00
04551              -6.20    30400.00
04552              -0.60    29600.00
04553               1.40    30400.00
04554              -6.60    30400.00
04555               0.60    30400.00
04556              -0.60    30400.00
04557              -6.80    31200.00
04558               1.20    31200.00
04559              -2.80    31200.00
04560              -4.20    31200.00
04561               1.20    32000.00
04562              -3.40    32000.00
04563              -2.60    32800.00
04564              -1.40    32000.00
04565              -3.60    32800.00
04566              -1.40    32000.00
04567              -1.40    32800.00
04568              -2.60    32000.00
04569              -2.20    32800.00
04570              -1.00    33600.00
04571              -3.00    32000.00
04572              -2.60    32800.00
04573              -0.60    32800.00
04574              -4.40    33600.00
04575              -0.80    33600.00
04576              -1.20    32000.00
04577              -4.40    32800.00
04578              -1.00    32800.00
04579              -2.20    32800.00
04580              -2.60    32800.00
04581              -2.00    32800.00
04582              -2.80    32800.00
04583              -2.20    32000.00
04584              -2.20    32000.00
04585              -2.20    32000.00
04586              -2.60    32000.00
04587              -2.20    32000.00
04588              -2.20    32000.00
04589              -2.20    31200.00
04590              -1.60    31200.00
04591              -3.00    31200.00
04592              -2.60    31200.00
04593              -1.40    31200.00
04594              -2.80    31200.00
04595              -2.20    30400.00
04596              -2.20    29600.00
04597              -2.60    30400.00
04598              -1.80    30400.00
04599              -2.00    28800.00
04600              -2.20    28800.00
04601              -2.00    28800.00
04602              -2.00    28800.00
04603              -2.00    28000.00
04604              -2.20    28000.00
04605              -2.20    27200.00
04606              -2.00    27200.00
04607              -1.80    26400.00
04608              -1.80    26400.00
04609              -2.40    25600.00
04610              -1.80    25600.00
04611              -1.80    25600.00
04612              -2.00    24800.00
04613              -1.40    24800.00
04614              -2.20    24800.00
04615              -1.60    24000.00
04616              -1.40    24000.00
04617              -1.60    22400.00
04618              -1.20    22400.00
04619              -1.80    22400.00
04620              -1.40    21600.00
04621              -1.20    20800.00
04622              -2.00    20800.00
04623              -1.40    19200.00
04624              -1.40    19200.00
04625              -1.20    18400.00
04626              -1.00    18400.00
04627              -1.20    18400.00
04628              -1.20    17600.00
04629              -1.20    17600.00
04630              -0.60    16000.00
04631              -1.40    16000.00
04632              -1.00    15200.00
04633              -1.00    15200.00
04634              -1.80    14400.00
04635              -0.60    13600.00
04636              -1.20    12800.00
04637              -2.00    12800.00
04638              -1.00    12000.00
04639               0.00    12000.00
04640              -1.80    11200.00
04641              -0.60     9600.00
04642               0.20     9600.00
04643               0.20     8800.00
04644              -1.20     8800.00
04645              -1.20     8000.00
04646               0.20     8000.00
04647              -2.60     6400.00
04648              -2.20     6400.00
04649               0.40     5600.00
04650              -0.60     5600.00
04651              -1.80     4800.00
04652               1.40     3200.00
04653               2.00     3200.00
04654              -1.60     2400.00
04655              -0.20     2400.00
04656              -0.40     1600.00
04657              -2.80      800.00
04658              -0.60        0.00
04659              -1.00        0.00
04660               3.00     -800.00
04661               3.40    -1600.00
04662              -1.80    -2400.00
04663               3.40    -2400.00
04664               0.40    -3200.00
04665              -0.60    -3200.00
04666               1.00    -4000.00
04667               5.60    -4000.00
04668              23.80    -5600.00
04669               2.80    -7200.00
04670             -25.00    -8000.00
04671               3.40    -8000.00
04672              25.00    -8000.00
04673             -25.00    -8800.00
04674             -14.80    -8800.00
04675              25.00   -10400.00
04676             -25.00   -10400.00
04677             -25.00   -10400.00
04678              25.00   -11200.00
04679             -25.00   -11200.00
04680              -3.40   -12800.00
04681              25.00   -12800.00
04682             -25.00   -13600.00
04683              25.00   -13600.00
04684             -25.00   -14400.00
04685               9.00   -15200.00
04686              25.00   -15200.00
04687             -25.00   -16000.00
04688              16.40   -16800.00
04689              25.00   -16800.00
04690             -25.00   -17600.00
04691              -1.20   -18400.00
04692              25.00   -18400.00
04693             -25.00   -19200.00
04694               1.80   -20000.00
04695              25.00   -20000.00
04696             -21.00   -20800.00
04697               9.40   -20800.00
04698               6.60   -21600.00
04699             -12.40   -22400.00
04700               8.80   -22400.00
04701               3.80   -22400.00
04702              -6.00   -24000.00
04703               9.20   -24000.00
04704               1.60   -24000.00
04705              -8.40   -24000.00
04706              12.40   -24800.00
04707              -3.40   -25600.00
04708              -1.80   -26400.00
04709               9.80   -25600.00
04710              -3.80   -26400.00
04711               0.40   -27200.00
04712               4.40   -27200.00
04713              -1.00   -27200.00
04714               0.60   -28000.00
04715               4.60   -28800.00
04716              -0.60   -28800.00
04717               0.60   -28800.00
04718               3.60   -28800.00
04719              -1.00   -29600.00
04720               2.00   -29600.00
04721               3.60   -29600.00
04722              -0.60   -30400.00
04723               2.60   -29600.00
04724               2.20   -30400.00
04725              -0.60   -29600.00
04726               2.60   -30400.00
04727               1.20   -30400.00
04728               0.80   -31200.00
04729               2.80   -32000.00
04730               0.40   -32000.00
04731               1.00   -31200.00
04732               2.00   -32000.00
04733               1.40   -32000.00
04734               2.00   -32000.00
04735               2.00   -32000.00
04736               1.40   -32000.00
04737               1.40   -32000.00
04738               2.20   -32000.00
04739               0.40   -32000.00
04740               1.80   -32000.00
04741               2.60   -32000.00
04742               0.40   -32800.00
04743               2.80   -32000.00
04744               1.80   -32000.00
04745               0.40   -32000.00
04746               2.60   -32000.00
04747               1.20   -32000.00
04748               1.40   -32000.00
04749               2.00   -32000.00
04750               1.40   -32000.00
04751               1.40   -32000.00
04752               1.80   -31200.00
04753               1.40   -32000.00
04754               1.60   -30400.00
04755               1.80   -31200.00
04756               1.20   -31200.00
04757               1.20   -30400.00
04758               1.40   -30400.00
04759               1.40   -30400.00
04760               1.80   -29600.00
04761               2.20   -30400.00
04762               1.00   -29600.00
04763               1.40   -29600.00
04764               1.20   -29600.00
04765               1.00   -28800.00
04766               1.80   -28800.00
04767               1.80   -28000.00
04768               1.20   -28800.00
04769               1.20   -27200.00
04770               1.20   -27200.00
04771               1.20   -27200.00
04772               1.00   -27200.00
04773               1.80   -26400.00
04774               1.00   -26400.00
04775               1.00   -25600.00
04776               1.00   -26400.00
04777               1.00   -24800.00
04778               1.20   -24800.00
04779               1.00   -24000.00
04780               0.60   -24000.00
04781               1.00   -23200.00
04782               0.40   -23200.00
04783               1.00   -22400.00
04784               1.00   -22400.00
04785               0.40   -22400.00
04786               1.20   -20800.00
04787               1.00   -20800.00
04788               0.60   -20800.00
04789               0.40   -20000.00
04790               0.60   -18400.00
04791               0.40   -19200.00
04792              -0.20   -17600.00
04793               1.00   -18400.00
04794               0.40   -17600.00
04795               0.00   -16800.00
04796               0.40   -16000.00
04797               1.20   -16000.00
04798               0.40   -15200.00
04799              -0.40   -14400.00
04800               1.00   -14400.00
04801               1.00   -13600.00
04802              -0.60   -12800.00
04803               0.60   -12800.00
04804               0.40   -12000.00
04805              -0.40   -11200.00
04806               0.40   -11200.00
04807               0.20   -10400.00
04808              -0.20    -9600.00
04809              -0.20    -8800.00
04810              -0.40    -8000.00
04811               0.40    -8000.00
04812              -0.40    -7200.00
04813              -0.20    -6400.00
04814               1.20    -6400.00
04815              -0.20    -4800.00
04816              -1.00    -5600.00
04817               0.60    -4000.00
04818              -0.80    -4000.00
04819              -1.00    -3200.00
04820               0.60    -2400.00
04821              -0.60    -1600.00
04822              -0.60     -800.00
04823               0.20        0.00
04824              -0.60        0.00
04825              -0.60        0.00
04826               0.60      800.00
04827               1.80     1600.00
04828               1.80     1600.00
04829              -2.20     3200.00
04830               0.20     3200.00
04831               0.80     3200.00
04832              -1.40     4000.00
04833               3.40     4000.00
04834              24.60     5600.00
04835              12.40     7200.00
04836             -25.00     8000.00
04837              -4.40     8000.00
04838              25.00     8000.00
04839             -25.00     8800.00
04840               9.00     9600.00
04841              25.00    10400.00
04842             -25.00     9600.00
04843              25.00    11200.00
04844              25.00    11200.00
04845             -25.00    12000.00
04846              25.00    12800.00
04847             -25.00    12800.00
04848              18.80    12800.00
04849              25.00    14400.00
04850             -25.00    15200.00
04851              25.00    15200.00
04852              -1.00    16000.00
04853             -25.00    17600.00
04854              25.00    16800.00
04855             -11.00    17600.00
04856             -25.00    17600.00
04857              22.80    18400.00
04858              10.00    19200.00
04859             -25.00    19200.00
04860              25.00    20800.00
04861               0.40    20000.00
04862             -19.00    21600.00
04863              25.00    21600.00
04864             -25.00    22400.00
04865               3.20    22400.00
04866               9.00    22400.00
04867             -16.40    24000.00
04868               5.20    24000.00
04869              11.20    24000.00
04870             -19.00    24800.00
04871               2.60    24800.00
04872               9.00    25600.00
04873             -21.40    25600.00
04874              10.60    26400.00
04875               0.40    27200.00
04876             -10.20    27200.00
04877               5.20    27200.00
04878              -3.00    27200.00
04879              -5.60    28000.00
04880               1.00    28800.00
04881              -1.20    28800.00
04882              -5.00    28800.00
04883               1.20    28800.00
04884              -3.80    29600.00
04885              -4.60    29600.00
04886               2.60    29600.00
04887              -3.80    30400.00
04888              -3.60    30400.00
04889               2.00    30400.00
04890              -5.40    31200.00
04891              -2.20    30400.00
04892               0.60    31200.00
04893              -4.60    32000.00
04894              -0.60    31200.00
04895              -1.20    32000.00
04896              -3.00    32800.00
04897              -2.20    32000.00
04898              -3.20    32000.00
04899              -1.80    32800.00
04900              -2.00    32800.00
04901              -2.60    32800.00
04902              -2.60    33600.00
04903              -1.80    32800.00
04904              -1.40    32800.00
04905              -3.80    32800.00
04906              -1.00    32800.00
04907              -2.80    32800.00
04908              -3.20    32000.00
04909               0.40    32800.00
04910              -3.40    32800.00
04911              -2.80    32800.00
04912              -1.20    32800.00
04913              -3.00    32800.00
04914              -2.60    32800.00
04915              -2.80    32800.00
04916              -2.20    32000.00
04917              -2.20    32000.00
04918              -2.20    32800.00
04919              -2.20    32000.00
04920              -2.00    32800.00
04921              -2.20    31200.00
04922              -3.00    31200.00
04923              -1.40    31200.00
04924              -2.20    31200.00
04925              -3.40    30400.00
04926              -0.60    31200.00
04927              -2.20    30400.00
04928              -3.60    29600.00
04929              -1.00    30400.00
04930              -2.60    29600.00
04931              -2.80    29600.00
04932              -1.20    28800.00
04933              -2.80    29600.00
04934              -2.20    28800.00
04935              -1.80    28000.00
04936              -2.00    28000.00
04937              -1.40    27200.00
04938              -2.20    27200.00
04939              -2.20    27200.00
04940              -1.80    27200.00
04941              -2.40    26400.00
04942              -2.20    25600.00
04943              -1.40    25600.00
04944              -1.80    25600.00
04945              -1.80    24800.00
04946              -1.20    24800.00
04947              -2.20    24000.00
04948              -1.80    24000.00
04949              -1.60    23200.00
04950              -1.40    23200.00
04951              -1.40    22400.00
04952              -2.00    22400.00
04953              -1.20    21600.00
04954              -1.00    21600.00
04955              -2.20    20000.00
04956              -1.60    20000.00
04957              -1.40    20000.00
04958              -1.40    19200.00
04959              -1.00    18400.00
04960              -1.40    18400.00
04961              -1.80    17600.00
04962              -1.20    16000.00
04963              -1.00    16000.00
04964              -1.20    16000.00
04965              -1.40    15200.00
04966              -1.20    15200.00
04967              -1.20    14400.00
04968              -1.20    13600.00
04969              -1.00    12800.00
04970              -1.20    12800.00
04971              -1.20    12000.00
04972              -0.60    12000.00
04973              -1.20    11200.00
04974              -1.00    10400.00
04975              -1.20    10400.00
04976              -0.60     9600.00
04977              -1.20     8800.00
04978              -0.60     8800.00
04979              -0.60     7200.00
04980              -1.40     7200.00
04981              -1.00     7200.00
04982              -0.20     5600.00
04983              -1.20     5600.00
04984              -0.40     4800.00
04985              -0.40     4000.00
04986              -1.00     3200.00
04987              -0.20     3200.00
04988              -0.40     2400.00
04989              -1.00     1600.00
04990               0.00     1600.00
04991              -0.20      800.00
04992              -0.40        0.00
04993               0.60     -800.00
04994               3.60     -800.00
04995              -0.40    -1600.00
04996              -0.60    -1600.00
04997               1.80    -3200.00
04998               1.00    -3200.00
04999              -0.20    -4000.00
05000               3.60    -4000.00
