Unit:(mV)
                     CH1         CH2
Frequency              ? 299.840 kHz
00001             -25.00    -7200.00
00002              10.60    -8000.00
00003              19.40    -8000.00
00004             -25.00    -8800.00
00005               6.80    -8800.00
00006              25.00    -9600.00
00007             -25.00    -9600.00
00008              11.40   -11200.00
00009              25.00   -11200.00
00010             -25.00   -11200.00
00011              22.20   -12800.00
00012               3.00   -12800.00
00013              -5.80   -12800.00
00014              22.40   -14400.00
00015             -25.00   -14400.00
00016              25.00   -14400.00
00017              13.20   -15200.00
00018             -25.00   -16000.00
00019              25.00   -16800.00
00020              15.00   -16800.00
00021             -25.00   -17600.00
00022               7.40   -17600.00
00023              25.00   -18400.00
00024             -25.00   -19200.00
00025              10.20   -19200.00
00026              20.60   -20000.00
00027             -21.20   -20000.00
00028               9.20   -20800.00
00029               1.00   -20800.00
00030              -8.60   -22400.00
00031               4.60   -22400.00
00032               0.80   -22400.00
00033              -3.20   -23200.00
00034               9.00   -23200.00
00035              -5.20   -24000.00
00036              -3.80   -24000.00
00037              10.60   -24000.00
00038              -9.80   -24800.00
00039               1.80   -26400.00
00040               7.40   -25600.00
00041              -5.80   -26400.00
00042              -0.40   -26400.00
00043               4.00   -26400.00
00044              -2.80   -27200.00
00045              -0.60   -28000.00
00046               4.60   -27200.00
00047              -2.60   -28000.00
00048               0.20   -28000.00
00049               2.60   -28800.00
00050              -2.00   -28800.00
00051               2.00   -28800.00
00052               2.60   -29600.00
00053              -1.20   -29600.00
00054               2.80   -29600.00
00055               1.00   -29600.00
00056              -1.20   -29600.00
00057               2.60   -30400.00
00058               0.80   -30400.00
00059               1.80   -30400.00
00060               2.80   -30400.00
00061               1.40   -31200.00
00062               1.80   -31200.00
00063               2.60   -31200.00
00064               2.80   -32000.00
00065               3.00   -32000.00
00066               4.40   -32000.00
00067               3.80   -32000.00
00068               4.60   -32000.00
00069               6.20   -32000.00
00070               4.60   -32000.00
00071               6.80   -31200.00
00072               8.00   -32000.00
00073               7.60   -31200.00
00074              10.20   -32000.00
00075              10.00   -32000.00
00076              10.60   -32000.00
00077              12.40   -32000.00
00078              12.80   -32000.00
00079              13.20   -31200.00
00080              13.80   -32000.00
00081              15.00   -31200.00
00082              17.00   -31200.00
00083              20.60   -30400.00
00084              21.20   -31200.00
00085              11.00   -30400.00
00086               6.80   -30400.00
00087              11.60   -29600.00
00088               9.80   -30400.00
00089               5.80   -29600.00
00090               6.60   -29600.00
00091               8.00   -29600.00
00092               5.20   -29600.00
00093               3.00   -28800.00
00094               5.80   -28800.00
00095               4.40   -28800.00
00096               2.00   -28000.00
00097               3.40   -27200.00
00098               3.60   -28000.00
00099               1.00   -27200.00
00100               1.40   -27200.00
00101               3.40   -27200.00
00102               0.60   -27200.00
00103               0.40   -26400.00
00104               2.20   -26400.00
00105               0.20   -25600.00
00106               0.20   -25600.00
00107               0.60   -24800.00
00108               0.20   -24000.00
00109               0.40   -24000.00
00110               0.40   -24000.00
00111              -0.20   -23200.00
00112               0.00   -22400.00
00113               0.20   -22400.00
00114              -0.20   -22400.00
00115              -0.20   -21600.00
00116               0.00   -20800.00
00117              -0.20   -20800.00
00118              -0.20   -20800.00
00119              -0.20   -19200.00
00120              -0.60   -19200.00
00121              -0.40   -18400.00
00122              -0.60   -18400.00
00123              -0.40   -17600.00
00124               0.00   -17600.00
00125              -1.00   -16800.00
00126              -0.40   -16000.00
00127              -0.40   -16000.00
00128              -0.60   -14400.00
00129               0.20   -14400.00
00130              -0.60   -14400.00
00131              -0.60   -13600.00
00132              -0.60   -13600.00
00133              -0.60   -12800.00
00134              -0.80   -12800.00
00135              -0.40   -11200.00
00136              -0.40   -11200.00
00137              -1.00   -11200.00
00138              -0.40    -9600.00
00139              -0.40    -9600.00
00140              -1.00    -8000.00
00141              -0.20    -8800.00
00142              -0.20    -7200.00
00143              -1.00    -7200.00
00144               0.20    -6400.00
00145              -0.20    -6400.00
00146              -0.60    -5600.00
00147               0.40    -4000.00
00148              -1.00    -4000.00
00149              -0.60    -3200.00
00150               0.40    -3200.00
00151              -1.20    -1600.00
00152              -0.20    -1600.00
00153              -0.40    -1600.00
00154              -1.20     -800.00
00155               0.20        0.00
00156               0.40      800.00
00157              -0.20     1600.00
00158               2.60     2400.00
00159               2.00     1600.00
00160              -2.80     2400.00
00161               0.40     3200.00
00162               1.40     4000.00
00163              -1.20     4000.00
00164               4.60     4800.00
00165              25.00     6400.00
00166               5.40     8000.00
00167             -25.00     8000.00
00168               1.80     8000.00
00169              24.20     8000.00
00170             -25.00     8800.00
00171              25.00     9600.00
00172              25.00     9600.00
00173             -25.00     9600.00
00174              25.00    11200.00
00175               2.00    11200.00
00176             -25.00    12000.00
00177              25.00    12800.00
00178             -25.00    12800.00
00179              25.00    14400.00
00180              24.60    13600.00
00181             -25.00    14400.00
00182              25.00    15200.00
00183             -25.00    15200.00
00184             -25.00    16000.00
00185              25.00    16000.00
00186             -15.00    16800.00
00187             -25.00    17600.00
00188              25.00    18400.00
00189               9.60    19200.00
00190             -25.00    19200.00
00191              25.00    20800.00
00192              -1.20    20000.00
00193             -15.00    21600.00
00194              22.20    20800.00
00195             -21.00    21600.00
00196               4.20    22400.00
00197               5.00    22400.00
00198             -10.80    23200.00
00199               5.20    24000.00
00200              11.40    24000.00
00201             -16.60    24000.00
00202               5.60    24800.00
00203               8.20    24800.00
00204             -18.80    25600.00
00205              10.60    25600.00
00206               1.40    25600.00
00207              -7.20    27200.00
00208               3.60    27200.00
00209               1.40    27200.00
00210              -5.40    27200.00
00211               1.00    28000.00
00212               2.80    28000.00
00213              -5.80    28000.00
00214               1.00    28000.00
00215              -0.60    28800.00
00216              -4.20    28800.00
00217               2.60    29600.00
00218              -1.40    30400.00
00219              -3.00    30400.00
00220               2.60    30400.00
00221              -3.80    31200.00
00222              -2.00    30400.00
00223              -0.20    30400.00
00224              -4.20    31200.00
00225              -0.60    31200.00
00226              -1.00    31200.00
00227              -2.80    32000.00
00228              -3.00    31200.00
00229              -2.80    32000.00
00230              -3.00    32000.00
00231              -3.80    32000.00
00232              -2.80    32800.00
00233              -5.40    32000.00
00234              -4.60    31200.00
00235              -3.80    32000.00
00236              -7.40    32800.00
00237              -5.40    32000.00
00238              -7.60    32800.00
00239              -8.20    32000.00
00240              -7.40    32000.00
00241             -11.60    32800.00
00242             -11.40    32000.00
00243             -11.60    32000.00
00244             -13.00    32800.00
00245             -13.40    32000.00
00246             -14.40    32000.00
00247             -14.60    32000.00
00248             -15.80    32000.00
00249             -17.20    32000.00
00250             -21.20    31200.00
00251             -22.00    31200.00
00252             -10.60    31200.00
00253              -7.40    31200.00
00254             -12.20    31200.00
00255              -9.80    30400.00
00256              -6.80    31200.00
00257              -7.20    30400.00
00258              -8.40    30400.00
00259              -6.00    30400.00
00260              -4.40    29600.00
00261              -6.20    30400.00
00262              -4.60    28800.00
00263              -2.80    28800.00
00264              -3.80    28800.00
00265              -4.20    28000.00
00266              -1.80    28800.00
00267              -1.80    28000.00
00268              -3.20    27200.00
00269              -1.40    27200.00
00270              -1.20    27200.00
00271              -2.80    26400.00
00272              -0.80    26400.00
00273              -1.40    25600.00
00274              -2.20    25600.00
00275              -0.40    24800.00
00276              -0.60    24800.00
00277              -0.60    24000.00
00278              -1.20    24000.00
00279              -0.60    24000.00
00280              -0.40    22400.00
00281              -0.60    22400.00
00282              -0.40    22400.00
00283              -0.60    21600.00
00284              -0.60    21600.00
00285              -0.20    20800.00
00286              -0.60    20800.00
00287              -0.80    20000.00
00288              -1.00    19200.00
00289              -0.40    19200.00
00290              -0.20    18400.00
00291              -0.60    17600.00
00292              -0.40    17600.00
00293              -0.60    16000.00
00294              -0.40    16800.00
00295              -0.20    16000.00
00296              -0.40    15200.00
00297              -0.40    15200.00
00298              -0.40    14400.00
00299              -0.20    13600.00
00300              -0.60    12800.00
00301              -0.60    12000.00
00302              -0.40    12000.00
00303              -0.60    11200.00
00304              -0.60    11200.00
00305              -0.40    11200.00
00306              -1.00     9600.00
00307              -0.20     8800.00
00308              -0.60     8800.00
00309              -0.60     8000.00
00310              -0.20     8000.00
00311              -0.60     7200.00
00312              -0.40     6400.00
00313               0.40     6400.00
00314              -0.80     4800.00
00315              -0.40     4800.00
00316              -0.40     3200.00
00317              -0.60     3200.00
00318              -0.40     3200.00
00319              -0.40     2400.00
00320              -0.60     1600.00
00321              -0.60     1600.00
00322               0.40      800.00
00323              -0.20        0.00
00324              -0.20     -800.00
00325               4.20    -1600.00
00326              -0.60    -1600.00
00327              -1.40    -1600.00
00328               1.80    -2400.00
00329               1.20    -3200.00
00330              -0.60    -3200.00
00331               3.80    -4000.00
00332              17.80    -4800.00
00333              21.00    -6400.00
00334             -25.00    -7200.00
00335             -22.60    -8000.00
00336              25.00    -8000.00
00337             -10.60    -8000.00
00338             -25.00    -8000.00
00339              25.00    -9600.00
00340              14.00    -9600.00
00341             -25.00   -10400.00
00342              25.00   -11200.00
00343              -7.00   -11200.00
00344             -25.00   -12800.00
00345              25.00   -12800.00
00346             -25.00   -12800.00
00347              23.00   -13600.00
00348             -13.20   -14400.00
00349             -17.80   -14400.00
00350              25.00   -15200.00
00351             -25.00   -15200.00
00352             -10.60   -16000.00
00353              25.00   -16000.00
00354             -15.40   -17600.00
00355             -23.00   -17600.00
00356              25.00   -17600.00
00357              -5.80   -19200.00
00358             -24.60   -19200.00
00359              25.00   -20000.00
00360              -6.20   -20000.00
00361             -10.20   -20000.00
00362              13.20   -20800.00
00363              -8.40   -21600.00
00364              -1.20   -22400.00
00365               5.00   -22400.00
00366              -4.20   -22400.00
00367               2.60   -23200.00
00368               5.60   -24000.00
00369             -10.60   -24000.00
00370               7.20   -24000.00
00371               1.80   -24000.00
00372              -9.40   -25600.00
00373               9.00   -25600.00
00374              -0.20   -25600.00
00375              -4.60   -26400.00
00376               4.00   -26400.00
00377               1.60   -26400.00
00378              -3.60   -27200.00
00379               2.80   -27200.00
00380               1.80   -28000.00
00381              -3.60   -28800.00
00382               2.80   -28800.00
00383               0.20   -28800.00
00384              -1.20   -28800.00
00385               3.40   -28800.00
00386               0.20   -29600.00
00387               0.00   -29600.00
00388               3.00   -29600.00
00389              -0.60   -29600.00
00390               1.00   -30400.00
00391               2.20   -30400.00
00392               0.40   -30400.00
00393               2.80   -31200.00
00394               2.00   -31200.00
00395               1.40   -31200.00
00396               2.20   -30400.00
00397               3.00   -31200.00
00398               2.80   -31200.00
00399               3.60   -32000.00
00400               4.20   -32000.00
00401               3.60   -32000.00
00402               6.00   -32000.00
00403               5.40   -32000.00
00404               5.40   -31200.00
00405               8.20   -31200.00
00406               7.40   -31200.00
00407               9.00   -32000.00
00408              10.80   -32000.00
00409              10.00   -31200.00
00410              12.00   -32000.00
00411              12.80   -31200.00
00412              12.60   -32000.00
00413              13.40   -31200.00
00414              14.60   -30400.00
00415              15.40   -31200.00
00416              18.20   -30400.00
00417              22.20   -31200.00
00418              17.20   -30400.00
00419               6.80   -30400.00
00420               9.60   -30400.00
00421              11.60   -29600.00
00422               7.00   -29600.00
00423               5.80   -29600.00
00424               7.80   -29600.00
00425               7.00   -28800.00
00426               4.20   -28800.00
00427               4.40   -28800.00
00428               5.20   -28800.00
00429               2.80   -28800.00
00430               2.00   -28800.00
00431               3.60   -27200.00
00432               2.40   -27200.00
00433               0.60   -27200.00
00434               2.60   -27200.00
00435               1.60   -27200.00
00436               0.00   -26400.00
00437               1.40   -26400.00
00438               1.80   -25600.00
00439               0.00   -25600.00
00440               0.40   -24800.00
00441               0.40   -24000.00
00442               0.20   -24000.00
00443               0.40   -23200.00
00444               0.20   -24000.00
00445               0.20   -23200.00
00446              -0.20   -22400.00
00447               0.00   -22400.00
00448              -0.20   -22400.00
00449              -0.20   -20800.00
00450              -0.20   -20800.00
00451              -0.20   -20800.00
00452               0.00   -20000.00
00453              -0.20   -19200.00
00454              -0.60   -18400.00
00455              -0.40   -19200.00
00456              -0.40   -17600.00
00457              -0.40   -17600.00
00458              -0.20   -16800.00
00459              -0.60   -16800.00
00460              -0.40   -16000.00
00461              -0.40   -16000.00
00462              -0.60   -16000.00
00463              -0.40   -14400.00
00464              -0.40   -14400.00
00465              -0.40   -13600.00
00466              -0.40   -13600.00
00467              -0.20   -12800.00
00468              -0.40   -12000.00
00469              -0.40   -11200.00
00470              -0.20   -11200.00
00471              -0.40   -10400.00
00472              -1.00    -9600.00
00473              -0.20    -8800.00
00474              -0.60    -8800.00
00475              -0.40    -8000.00
00476              -0.20    -7200.00
00477              -0.60    -6400.00
00478              -0.20    -6400.00
00479              -0.40    -6400.00
00480              -0.20    -5600.00
00481              -0.40    -4000.00
00482              -0.60    -4000.00
00483              -0.40    -3200.00
00484              -0.20    -2400.00
00485              -0.60    -1600.00
00486              -0.60    -1600.00
00487              -0.60     -800.00
00488              -0.60        0.00
00489              -0.40        0.00
00490              -0.20     1600.00
00491               0.60      800.00
00492               3.40     1600.00
00493              -1.60     2400.00
00494              -1.00     3200.00
00495               1.20     3200.00
00496               0.20     4000.00
00497              -0.60     4800.00
00498              13.00     5600.00
00499              25.00     7200.00
00500             -25.00     7200.00
00501             -25.00     8000.00
00502              25.00     8800.00
00503              -6.00     8000.00
00504             -25.00     8800.00
00505              25.00     9600.00
00506             -25.00     9600.00
00507             -18.80    11200.00
00508              25.00    11200.00
00509             -25.00    11200.00
00510              25.00    12800.00
00511              14.20    12800.00
00512             -25.00    13600.00
00513              25.00    13600.00
00514             -25.00    14400.00
00515               8.60    15200.00
00516              25.00    15200.00
00517             -25.00    16000.00
00518              25.00    16000.00
00519              25.00    16000.00
00520             -25.00    17600.00
00521              -5.00    18400.00
00522              25.00    18400.00
00523             -25.00    19200.00
00524              -7.60    19200.00
00525              25.00    20800.00
00526             -25.00    20800.00
00527              13.80    21600.00
00528               0.40    21600.00
00529             -15.60    21600.00
00530              13.80    22400.00
00531              -5.20    23200.00
00532              -5.80    23200.00
00533              12.80    24000.00
00534              -2.80    24000.00
00535             -14.20    24800.00
00536              17.40    24800.00
00537             -10.60    24800.00
00538              -5.40    25600.00
00539              12.40    25600.00
00540              -8.20    26400.00
00541              -1.80    27200.00
00542               3.80    27200.00
00543              -2.20    27200.00
00544              -4.20    27200.00
00545               5.20    28000.00
00546              -2.60    28000.00
00547              -3.60    28800.00
00548               2.60    28800.00
00549              -3.80    28800.00
00550              -0.80    28800.00
00551               2.60    28800.00
00552              -4.40    29600.00
00553              -0.20    30400.00
00554              -0.20    30400.00
00555              -4.80    30400.00
00556               1.00    30400.00
00557              -2.20    30400.00
00558              -2.20    31200.00
00559               0.00    31200.00
00560              -2.60    31200.00
00561              -3.40    32800.00
00562              -3.40    32000.00
00563              -2.60    32000.00
00564              -3.80    32000.00
00565              -3.40    32000.00
00566              -3.60    32800.00
00567              -6.20    32000.00
00568              -3.60    32800.00
00569              -6.20    32000.00
00570              -6.80    32000.00
00571              -5.80    32000.00
00572              -9.40    32000.00
00573              -7.00    32800.00
00574              -9.20    32000.00
00575             -11.80    32800.00
00576             -10.20    32000.00
00577             -12.20    32000.00
00578             -13.00    32800.00
00579             -14.00    32000.00
00580             -14.60    32000.00
00581             -15.20    32000.00
00582             -16.60    32000.00
00583             -18.80    32000.00
00584             -23.40    32000.00
00585             -17.00    31200.00
00586              -7.00    31200.00
00587             -10.20    31200.00
00588             -11.60    31200.00
00589              -7.60    30400.00
00590              -6.20    31200.00
00591              -7.60    30400.00
00592              -7.40    30400.00
00593              -4.40    30400.00
00594              -5.20    29600.00
00595              -6.20    29600.00
00596              -3.20    28800.00
00597              -3.00    28800.00
00598              -5.00    28800.00
00599              -2.80    28000.00
00600              -1.20    28000.00
00601              -3.00    27200.00
00602              -2.40    28000.00
00603              -0.60    27200.00
00604              -2.40    27200.00
00605              -1.80    26400.00
00606              -0.60    25600.00
00607              -2.00    25600.00
00608              -1.20    25600.00
00609              -0.60    24800.00
00610              -1.00    24000.00
00611              -1.00    24000.00
00612              -1.20    24000.00
00613              -0.60    23200.00
00614              -0.60    22400.00
00615              -0.60    22400.00
00616              -0.60    22400.00
00617              -1.00    21600.00
00618               0.00    20800.00
00619              -0.60    20800.00
00620              -0.60    20000.00
00621              -0.60    19200.00
00622              -0.60    19200.00
00623               0.20    18400.00
00624              -0.40    18400.00
00625              -0.60    17600.00
00626              -0.20    16800.00
00627              -0.60    16000.00
00628              -0.20    16000.00
00629              -0.60    15200.00
00630              -1.00    15200.00
00631              -0.60    14400.00
00632              -1.00    14400.00
00633              -0.20    13600.00
00634              -1.00    12800.00
00635              -1.00    12800.00
00636               0.20    12000.00
00637              -0.40    11200.00
00638              -0.60    11200.00
00639              -0.60    10400.00
00640              -0.40     9600.00
00641              -0.40     9600.00
00642              -1.00     8800.00
00643              -0.20     8000.00
00644              -1.00     7200.00
00645              -1.00     6400.00
00646              -0.20     6400.00
00647              -0.40     5600.00
00648              -0.40     4800.00
00649              -0.60     4800.00
00650               0.20     3200.00
00651              -0.20     3200.00
00652              -0.60     2400.00
00653              -0.60     1600.00
00654              -0.20     1600.00
00655              -0.40      800.00
00656               0.20        0.00
00657               0.40     -800.00
00658               1.80     -800.00
00659               2.40    -1600.00
00660              -1.80    -1600.00
00661               0.20    -2400.00
00662               1.20    -3200.00
00663               0.20    -3200.00
00664               0.00    -4000.00
00665               8.60    -4000.00
00666              25.00    -6400.00
00667              -8.20    -7200.00
00668             -25.00    -7200.00
00669               8.40    -7200.00
00670              21.00    -8000.00
00671             -25.00    -8000.00
00672               2.00    -8000.00
00673              25.00    -9600.00
00674             -25.00    -9600.00
00675               3.80   -10400.00
00676              25.00   -11200.00
00677             -25.00   -11200.00
00678              18.00   -12800.00
00679               7.60   -12800.00
00680              -9.20   -12800.00
00681              24.20   -13600.00
00682             -25.00   -14400.00
00683              25.00   -15200.00
00684              16.60   -14400.00
00685             -25.00   -16000.00
00686              24.80   -16800.00
00687              17.20   -16800.00
00688             -25.00   -17600.00
00689               4.20   -17600.00
00690              25.00   -19200.00
00691             -25.00   -19200.00
00692               6.80   -20000.00
00693              22.60   -20000.00
00694             -21.40   -20000.00
00695               8.00   -20800.00
00696               2.20   -21600.00
00697              -9.00   -22400.00
00698               4.40   -22400.00
00699               1.20   -22400.00
00700              -3.80   -23200.00
00701               8.40   -24000.00
00702              -4.40   -24000.00
00703              -5.40   -24000.00
00704              10.60   -24800.00
00705              -9.20   -25600.00
00706               0.40   -25600.00
00707               7.80   -25600.00
00708              -5.40   -26400.00
00709              -0.60   -26400.00
00710               4.40   -27200.00
00711              -2.40   -27200.00
00712              -0.80   -27200.00
00713               5.00   -28000.00
00714              -2.40   -28000.00
00715              -0.40   -28000.00
00716               2.80   -28800.00
00717              -2.00   -28800.00
00718               1.40   -28800.00
00719               2.80   -28800.00
00720              -1.40   -29600.00
00721               2.60   -29600.00
00722               1.40   -29600.00
00723              -1.00   -30400.00
00724               2.60   -30400.00
00725               1.20   -30400.00
00726               1.40   -30400.00
00727               2.60   -30400.00
00728               1.60   -30400.00
00729               2.00   -31200.00
00730               2.60   -31200.00
00731               2.80   -31200.00
00732               3.20   -32000.00
00733               4.20   -31200.00
00734               3.60   -32000.00
00735               4.60   -31200.00
00736               6.00   -32000.00
00737               4.60   -31200.00
00738               6.80   -32000.00
00739               8.00   -32000.00
00740               7.60   -32000.00
00741              10.00   -32000.00
00742              10.20   -32000.00
00743              10.80   -32000.00
00744              12.60   -32000.00
00745              12.40   -32000.00
00746              13.40   -32000.00
00747              14.00   -32000.00
00748              15.00   -32000.00
00749              16.60   -32000.00
00750              20.60   -30400.00
00751              21.40   -30400.00
00752              11.40   -31200.00
00753               6.60   -30400.00
00754              11.40   -30400.00
00755              10.00   -30400.00
00756               5.80   -29600.00
00757               6.80   -29600.00
00758               8.20   -29600.00
00759               5.20   -28800.00
00760               3.40   -28800.00
00761               5.40   -28800.00
00762               4.20   -28800.00
00763               2.20   -28800.00
00764               2.80   -28800.00
00765               3.40   -28000.00
00766               1.00   -27200.00
00767               1.00   -27200.00
00768               2.80   -26400.00
00769               0.40   -26400.00
00770               0.20   -26400.00
00771               1.80   -25600.00
00772               0.20   -25600.00
00773               0.40   -25600.00
00774               0.80   -25600.00
00775               0.20   -24800.00
00776               0.40   -24000.00
00777               0.40   -24000.00
00778              -0.40   -24000.00
00779               0.20   -22400.00
00780              -0.40   -23200.00
00781              -0.40   -22400.00
00782              -0.20   -21600.00
00783              -0.20   -21600.00
00784              -0.60   -20800.00
00785               0.20   -20800.00
00786               0.00   -19200.00
00787              -0.40   -19200.00
00788               0.00   -18400.00
00789              -0.40   -18400.00
00790              -0.40   -17600.00
00791               0.00   -16800.00
00792              -0.80   -16800.00
00793              -0.60   -16000.00
00794               0.00   -16000.00
00795              -0.60   -16000.00
00796              -0.40   -14400.00
00797              -0.20   -14400.00
00798              -0.60   -14400.00
00799              -0.40   -13600.00
00800              -0.40   -12800.00
00801              -0.60   -12800.00
00802              -0.40   -12000.00
00803               0.20   -11200.00
00804              -0.20   -10400.00
00805              -0.60   -10400.00
00806              -0.20    -9600.00
00807              -0.40    -8800.00
00808              -0.60    -8800.00
00809               0.40    -8000.00
00810               0.40    -7200.00
00811              -5.40    -7200.00
00812               4.60    -6400.00
00813              -3.00    -5600.00
00814              -4.40    -4800.00
00815               3.40    -4000.00
00816              -1.00    -4000.00
00817               6.20    -3200.00
00818              -5.40    -1600.00
00819               2.20    -1600.00
00820               1.00    -1600.00
00821              -6.00     -800.00
00822               0.20        0.00
00823              -2.00      800.00
00824               1.20     1600.00
00825               2.00     1600.00
00826               4.40     2400.00
00827              -2.00     2400.00
00828              -1.40     3200.00
00829               4.20     3200.00
00830              -3.40     4000.00
00831               0.60     4800.00
00832              25.00     6400.00
00833               9.80     7200.00
00834             -25.00     8000.00
00835              -1.00     8000.00
00836              25.00     8800.00
00837             -25.00     8000.00
00838              25.00     9600.00
00839              25.00     9600.00
00840             -25.00     9600.00
00841              25.00    12000.00
00842               8.20    11200.00
00843             -25.00    12000.00
00844              25.00    12000.00
00845             -25.00    12800.00
00846              25.00    14400.00
00847              25.00    14400.00
00848             -25.00    14400.00
00849              25.00    15200.00
00850             -16.60    15200.00
00851             -25.00    16000.00
00852              25.00    16000.00
00853             -11.40    17600.00
00854             -25.00    17600.00
00855              25.00    18400.00
00856              12.60    19200.00
00857             -25.00    19200.00
00858              25.00    20000.00
00859               1.20    20000.00
00860             -19.00    20800.00
00861              23.40    21600.00
00862             -20.40    22400.00
00863               3.40    22400.00
00864               7.60    22400.00
00865              -9.80    23200.00
00866               4.40    24000.00
00867              12.20    24000.00
00868             -16.60    24000.00
00869               3.00    24800.00
00870               9.80    24800.00
00871             -19.00    25600.00
00872               9.80    25600.00
00873               3.00    26400.00
00874              -7.80    27200.00
00875               3.40    27200.00
00876               2.00    27200.00
00877              -5.80    27200.00
00878               0.40    28000.00
00879               3.00    28000.00
00880              -5.80    28800.00
00881               1.00    28800.00
00882               0.20    28800.00
00883              -4.40    29600.00
00884               3.00    29600.00
00885              -0.60    29600.00
00886              -3.60    29600.00
00887               2.00    30400.00
00888              -4.20    30400.00
00889              -2.80    30400.00
00890               0.00    31200.00
00891              -4.60    31200.00
00892              -0.60    31200.00
00893              -0.60    31200.00
00894              -2.80    31200.00
00895              -2.80    31200.00
00896              -2.60    32000.00
00897              -3.40    32800.00
00898              -4.40    32000.00
00899              -2.80    32000.00
00900              -5.40    32800.00
00901              -5.00    31200.00
00902              -3.60    32000.00
00903              -7.40    32800.00
00904              -5.40    32000.00
00905              -7.60    32000.00
00906              -8.80    32000.00
00907              -7.60    32800.00
00908             -11.60    32000.00
00909             -11.40    32000.00
00910             -11.60    32800.00
00911             -12.60    32000.00
00912             -12.80    32000.00
00913             -14.00    32800.00
00914             -14.20    32000.00
00915             -15.80    31200.00
00916             -17.20    31200.00
00917             -21.40    32000.00
00918             -22.20    32000.00
00919             -11.00    31200.00
00920              -7.00    31200.00
00921             -12.40    31200.00
00922             -10.20    31200.00
00923              -6.60    31200.00
00924              -7.00    30400.00
00925              -8.40    30400.00
00926              -5.80    29600.00
00927              -4.40    30400.00
00928              -6.00    30400.00
00929              -4.60    28800.00
00930              -2.20    29600.00
00931              -3.80    28800.00
00932              -3.80    28000.00
00933              -2.00    28800.00
00934              -2.00    28000.00
00935              -3.40    28000.00
00936              -1.60    27200.00
00937              -1.20    27200.00
00938              -2.60    27200.00
00939              -0.80    25600.00
00940              -1.00    26400.00
00941              -1.80    25600.00
00942              -0.60    24800.00
00943              -0.60    24800.00
00944              -1.00    24000.00
00945              -1.00    24000.00
00946              -1.20    24000.00
00947              -0.60    23200.00
00948              -0.40    22400.00
00949              -0.80    21600.00
00950              -0.60    21600.00
00951              -0.60    21600.00
00952              -0.60    20800.00
00953              -1.00    20800.00
00954              -0.60    20000.00
00955              -1.00    19200.00
00956              -0.40    18400.00
00957              -0.20    18400.00
00958              -0.60    17600.00
00959              -0.40    17600.00
00960              -0.60    17600.00
00961              -0.60    16800.00
00962              -0.20    16000.00
00963              -1.00    15200.00
00964              -0.60    15200.00
00965              -0.40    14400.00
00966              -0.60    12800.00
00967              -0.60    12800.00
00968              -0.60    12800.00
00969              -0.60    12000.00
00970              -0.20    12000.00
00971              -0.60    11200.00
00972              -0.60    10400.00
00973              -0.40     9600.00
00974               0.00     8800.00
00975              -0.60     8800.00
00976              -0.40     8000.00
00977              -0.40     8000.00
00978              -0.60     7200.00
00979              -0.40     6400.00
00980               0.20     6400.00
00981              -0.80     5600.00
00982              -0.60     4800.00
00983              -0.60     4000.00
00984              -0.20     4000.00
00985              -0.20     3200.00
00986              -0.60     2400.00
00987              -0.60     1600.00
00988               0.20      800.00
00989               0.20        0.00
00990               0.20        0.00
00991               1.00     -800.00
00992               3.40     -800.00
00993              -0.20    -1600.00
00994              -1.20    -1600.00
00995               1.00    -3200.00
00996               1.00    -3200.00
00997              -0.60    -3200.00
00998               3.40    -4000.00
00999              17.00    -4800.00
01000              22.20    -6400.00
01001             -25.00    -7200.00
01002             -24.60    -7200.00
01003              25.00    -8000.00
01004              -7.00    -8000.00
01005             -25.00    -8000.00
01006              25.00    -9600.00
01007              21.00   -10400.00
01008             -25.00   -10400.00
01009              25.00   -11200.00
01010               0.20   -11200.00
01011             -25.00   -12000.00
01012              25.00   -12800.00
01013             -25.00   -12800.00
01014              21.00   -14400.00
01015              -9.80   -13600.00
01016             -21.00   -14400.00
01017              25.00   -14400.00
01018             -25.00   -15200.00
01019             -13.80   -16800.00
01020              25.00   -16800.00
01021             -13.40   -16800.00
01022             -24.60   -17600.00
01023              25.00   -17600.00
01024              -2.80   -19200.00
01025             -25.00   -18400.00
01026              25.00   -20000.00
01027              -4.40   -20000.00
01028             -12.20   -20000.00
01029              13.40   -21600.00
01030              -7.80   -21600.00
01031              -2.00   -22400.00
01032               5.00   -22400.00
01033              -4.00   -22400.00
01034               2.00   -23200.00
01035               6.00   -23200.00
01036             -10.00   -24000.00
01037               6.60   -24800.00
01038               2.60   -24800.00
01039             -10.20   -24800.00
01040               8.40   -25600.00
01041               0.20   -25600.00
01042              -5.00   -26400.00
01043               4.00   -26400.00
01044               1.40   -27200.00
01045              -3.80   -27200.00
01046               3.20   -27200.00
01047               2.00   -27200.00
01048              -3.60   -28000.00
01049               3.40   -28800.00
01050               0.40   -28800.00
01051              -1.40   -28800.00
01052               3.60   -29600.00
01053               0.20   -29600.00
01054              -0.20   -29600.00
01055               3.00   -29600.00
01056              -0.40   -29600.00
01057               1.00   -30400.00
01058               2.00   -30400.00
01059               0.40   -30400.00
01060               3.20   -30400.00
01061               1.40   -30400.00
01062               2.00   -31200.00
01063               2.60   -32000.00
01064               2.40   -31200.00
01065               3.40   -32000.00
01066               3.80   -32000.00
01067               4.20   -32000.00
01068               3.80   -32000.00
01069               6.00   -31200.00
01070               5.20   -32000.00
01071               5.40   -32000.00
01072               8.40   -31200.00
01073               7.00   -31200.00
01074               9.00   -32000.00
01075              10.80   -32000.00
01076              10.00   -32000.00
01077              11.60   -31200.00
01078              12.60   -32000.00
01079              13.00   -31200.00
01080              13.80   -31200.00
01081              14.80   -31200.00
01082              15.80   -31200.00
01083              18.00   -31200.00
01084              21.80   -31200.00
01085              17.40   -30400.00
01086               7.00   -30400.00
01087               9.00   -30400.00
01088              11.40   -30400.00
01089               7.40   -30400.00
01090               5.20   -29600.00
01091               7.40   -29600.00
01092               7.40   -29600.00
01093               4.20   -28800.00
01094               4.20   -28800.00
01095               5.80   -28800.00
01096               2.60   -28800.00
01097               1.40   -28000.00
01098               4.00   -28000.00
01099               2.80   -28000.00
01100               0.20   -27200.00
01101               2.60   -27200.00
01102               2.00   -27200.00
01103              -0.60   -26400.00
01104               1.40   -25600.00
01105               1.80   -25600.00
01106               0.20   -25600.00
01107               0.60   -24800.00
01108               0.40   -24800.00
01109               0.40   -24000.00
01110               0.40   -24000.00
01111              -0.60   -23200.00
01112               1.20   -23200.00
01113               0.80   -22400.00
01114              -1.40   -22400.00
01115               0.20   -22400.00
01116               1.00   -21600.00
01117              -1.40   -20800.00
01118              -1.20   -20000.00
01119               1.80   -20800.00
01120              -0.60   -19200.00
01121              -2.00   -19200.00
01122               0.60   -18400.00
01123               0.40   -17600.00
01124              -1.40   -17600.00
01125               0.20   -16800.00
01126               1.20   -16800.00
01127              -1.20   -16000.00
01128              -1.20   -15200.00
01129               1.60   -15200.00
01130              -1.00   -14400.00
01131              -1.80   -14400.00
01132               1.80   -13600.00
01133               0.20   -12800.00
01134              -2.00   -12800.00
01135               0.20   -12000.00
01136               0.20   -12000.00
01137              -1.40   -11200.00
01138              -0.60   -10400.00
01139               0.40    -9600.00
01140              -0.60    -9600.00
01141              -0.60    -8800.00
01142               0.20    -8000.00
01143              -0.20    -7200.00
01144              -0.60    -6400.00
01145               0.00    -6400.00
01146              -0.20    -6400.00
01147              -0.80    -5600.00
01148              -0.60    -4000.00
01149              -0.60    -4000.00
01150              -0.60    -3200.00
01151              -0.60    -2400.00
01152              -0.80    -1600.00
01153              -0.40    -1600.00
01154              -0.60     -800.00
01155              -0.80        0.00
01156               0.20        0.00
01157              -0.20     1600.00
01158               0.20     1600.00
01159               3.60     1600.00
01160              -1.20     2400.00
01161              -1.60     2400.00
01162               1.20     3200.00
01163               0.20     4800.00
01164              -1.40     4800.00
01165              12.00     5600.00
01166              25.00     6400.00
01167             -25.00     7200.00
01168             -25.00     8000.00
01169              24.60     8000.00
01170              -2.60     8800.00
01171             -25.00     8800.00
01172              25.00     9600.00
01173             -25.00     9600.00
01174             -25.00    11200.00
01175              25.00    11200.00
01176             -25.00    11200.00
01177              23.60    12800.00
01178              21.00    12000.00
01179             -25.00    12800.00
01180              25.00    14400.00
01181             -25.00    14400.00
01182               0.40    15200.00
01183              25.00    15200.00
01184             -25.00    16000.00
01185              25.00    16800.00
01186              25.00    17600.00
01187             -25.00    18400.00
01188              -7.40    18400.00
01189              25.00    18400.00
01190             -25.00    19200.00
01191             -11.20    20000.00
01192              25.00    20800.00
01193             -25.00    20800.00
01194              11.60    21600.00
01195               2.60    21600.00
01196             -17.00    22400.00
01197              13.60    22400.00
01198              -5.00    22400.00
01199              -6.60    24000.00
01200              12.40    24000.00
01201              -1.40    24800.00
01202             -15.00    24800.00
01203              17.20    25600.00
01204              -9.20    25600.00
01205              -7.00    25600.00
01206              13.00    26400.00
01207              -7.40    27200.00
01208              -2.20    27200.00
01209               4.20    27200.00
01210              -2.00    27200.00
01211              -5.00    28000.00
01212               4.40    28000.00
01213              -2.20    28800.00
01214              -3.80    28800.00
01215               2.40    28800.00
01216              -3.40    28800.00
01217              -1.40    29600.00
01218               2.60    29600.00
01219              -4.40    30400.00
01220              -0.40    30400.00
01221               0.40    31200.00
01222              -5.00    30400.00
01223               0.40    31200.00
01224              -2.40    31200.00
01225              -3.00    31200.00
01226              -0.20    31200.00
01227              -2.60    32000.00
01228              -3.40    32000.00
01229              -3.20    31200.00
01230              -2.80    32800.00
01231              -3.60    32000.00
01232              -3.40    32800.00
01233              -3.80    32000.00
01234              -6.00    32800.00
01235              -3.00    32000.00
01236              -5.80    32800.00
01237              -7.40    32000.00
01238              -5.80    32800.00
01239              -8.60    32800.00
01240              -6.80    32800.00
01241              -9.80    32800.00
01242             -11.80    32000.00
01243             -10.20    32800.00
01244             -13.20    32000.00
01245             -12.40    32800.00
01246             -13.40    32000.00
01247             -15.00    32000.00
01248             -14.80    32800.00
01249             -16.00    32000.00
01250             -19.00    32000.00
01251             -22.60    32000.00
01252             -17.20    31200.00
01253              -7.00    31200.00
01254              -9.80    31200.00
01255             -11.80    31200.00
01256              -7.80    30400.00
01257              -6.00    30400.00
01258              -8.40    30400.00
01259              -7.40    30400.00
01260              -4.20    30400.00
01261              -6.00    29600.00
01262              -5.20    29600.00
01263              -3.20    29600.00
01264              -3.40    28800.00
01265              -3.60    28800.00
01266              -3.40    28800.00
01267              -2.00    28000.00
01268              -2.00    28000.00
01269              -2.80    27200.00
01270              -1.20    27200.00
01271              -1.20    27200.00
01272              -2.20    25600.00
01273              -0.60    25600.00
01274              -1.80    25600.00
01275              -2.20    25600.00
01276              -0.40    24800.00
01277              -0.20    24800.00
01278              -1.40    24000.00
01279              -0.60    24000.00
01280              -0.40    24000.00
01281              -1.40    24000.00
01282              -0.20    22400.00
01283              -0.20    22400.00
01284              -1.60    21600.00
01285              -0.20    20800.00
01286              -0.60    20800.00
01287              -1.40    20000.00
01288              -0.60    19200.00
01289              -1.00    19200.00
01290              -0.60    18400.00
01291              -0.60    18400.00
01292              -1.00    17600.00
01293              -0.40    17600.00
01294              -0.60    16800.00
01295              -0.20    16000.00
01296              -0.60    15200.00
01297              -0.40    15200.00
01298              -0.60    14400.00
01299              -0.60    14400.00
01300              -0.20    14400.00
01301              -0.80    12800.00
01302              -1.00    12000.00
01303               0.00    12000.00
01304              -0.60    11200.00
01305              -0.60    11200.00
01306              -0.40    10400.00
01307              -0.40     9600.00
01308              -0.80     9600.00
01309              -0.20     8800.00
01310              -0.20     8000.00
01311              -0.60     8000.00
01312              -0.20     6400.00
01313              -0.20     5600.00
01314              -0.60     6400.00
01315               0.00     4800.00
01316              -0.40     4800.00
01317              -0.60     3200.00
01318              -0.20     3200.00
01319              -0.60     2400.00
01320              -0.60     2400.00
01321               0.00     1600.00
01322              -0.40      800.00
01323               0.20        0.00
01324               0.40        0.00
01325               1.60     -800.00
01326               2.80    -1600.00
01327              -1.40    -1600.00
01328               0.20    -2400.00
01329               1.20    -3200.00
01330               0.60    -3200.00
01331               0.40    -4000.00
01332               8.20    -4000.00
01333              25.00    -6400.00
01334              -5.00    -7200.00
01335             -25.00    -8000.00
01336               5.80    -8000.00
01337              22.80    -8000.00
01338             -25.00    -8000.00
01339              -3.00    -8800.00
01340              25.00    -9600.00
01341             -25.00    -9600.00
01342              -3.80   -10400.00
01343              25.00   -11200.00
01344             -25.00   -12000.00
01345              13.80   -12800.00
01346              11.40   -12800.00
01347             -11.80   -13600.00
01348              25.00   -14400.00
01349             -25.00   -14400.00
01350              22.40   -14400.00
01351              20.40   -15200.00
01352             -25.00   -15200.00
01353              22.20   -16000.00
01354              19.40   -16800.00
01355             -25.00   -17600.00
01356               1.80   -17600.00
01357              25.00   -17600.00
01358             -25.00   -19200.00
01359               4.20   -19200.00
01360              24.40   -20000.00
01361             -20.60   -20000.00
01362               6.40   -20800.00
01363               3.00   -20800.00
01364              -9.40   -21600.00
01365               4.40   -22400.00
01366               1.20   -22400.00
01367              -3.80   -23200.00
01368               8.20   -23200.00
01369              -4.00   -24000.00
01370              -5.80   -24000.00
01371              11.20   -24000.00
01372              -8.60   -24800.00
01373               0.00   -26400.00
01374               8.40   -25600.00
01375              -5.40   -26400.00
01376              -1.00   -26400.00
01377               4.60   -26400.00
01378              -2.20   -27200.00
01379              -1.20   -27200.00
01380               4.60   -27200.00
01381              -2.00   -28800.00
01382              -0.40   -28000.00
01383               2.60   -28800.00
01384              -1.80   -28000.00
01385               1.80   -28800.00
01386               3.00   -28800.00
01387              -1.20   -29600.00
01388               2.60   -29600.00
01389               1.80   -29600.00
01390              -0.40   -29600.00
01391               2.20   -30400.00
01392               1.20   -30400.00
01393               2.20   -30400.00
01394               2.40   -30400.00
01395               1.40   -31200.00
01396               2.00   -30400.00
01397               2.20   -31200.00
01398               3.00   -30400.00
01399               3.40   -32000.00
01400               3.80   -31200.00
01401               4.20   -32000.00
01402               4.60   -30400.00
01403               6.20   -32000.00
01404               5.00   -31200.00
01405               6.80   -32000.00
01406               8.60   -32000.00
01407               7.40   -32000.00
01408              10.00   -31200.00
01409              10.20   -32000.00
01410              10.60   -32000.00
01411              12.20   -32000.00
01412              13.00   -32000.00
01413              13.20   -31200.00
01414              13.40   -32000.00
01415              15.40   -31200.00
01416              16.40   -31200.00
01417              19.80   -30400.00
01418              22.00   -30400.00
01419              11.60   -30400.00
01420               6.40   -30400.00
01421              11.80   -30400.00
01422               9.40   -30400.00
01423               5.80   -29600.00
01424               6.80   -29600.00
01425               7.60   -29600.00
01426               5.40   -29600.00
01427               3.60   -28800.00
01428               5.00   -28000.00
01429               4.40   -28800.00
01430               2.00   -28000.00
01431               3.00   -28000.00
01432               3.60   -27200.00
01433               1.00   -27200.00
01434               1.40   -27200.00
01435               3.00   -27200.00
01436               0.00   -26400.00
01437               0.60   -26400.00
01438               2.20   -25600.00
01439               0.20   -25600.00
01440               1.00   -25600.00
01441               1.20   -24800.00
01442              -0.60   -24000.00
01443               0.60   -24000.00
01444               0.40   -24000.00
01445              -0.60   -23200.00
01446               0.20   -23200.00
01447               0.40   -22400.00
01448               0.20   -22400.00
01449              -0.20   -21600.00
01450              -0.20   -21600.00
01451              -0.20   -20800.00
01452               0.20   -20800.00
01453               0.20   -20000.00
01454               0.20   -19200.00
01455              -0.40   -18400.00
01456              -0.40   -18400.00
01457               0.20   -17600.00
01458              -0.20   -17600.00
01459              -0.60   -17600.00
01460              -0.40   -16000.00
01461              -0.40   -16000.00
01462              -0.40   -15200.00
01463               0.20   -16000.00
01464              -0.60   -14400.00
01465              -0.20   -14400.00
01466               0.20   -12800.00
01467              -0.60   -12800.00
01468              -0.40   -12000.00
01469              -0.40   -11200.00
01470              -0.60   -11200.00
01471              -0.40   -11200.00
01472              -0.60   -10400.00
01473              -0.40    -9600.00
01474              -0.40    -8800.00
01475              -1.20    -8000.00
01476               0.00    -8000.00
01477              -0.60    -7200.00
01478              -0.60    -7200.00
01479              -0.60    -5600.00
01480              -0.40    -5600.00
01481               0.20    -4800.00
01482              -0.40    -4000.00
01483              -1.00    -3200.00
01484               0.20    -3200.00
01485              -0.40    -2400.00
01486              -1.20    -1600.00
01487              -0.40    -1600.00
01488              -0.60     -800.00
01489              -1.20        0.00
01490               0.20        0.00
01491               0.20     1600.00
01492               1.60     1600.00
01493               2.20     2400.00
01494              -2.20     2400.00
01495               0.00     3200.00
01496               0.60     3200.00
01497              -2.20     4000.00
01498               4.40     4800.00
01499              25.00     6400.00
01500              11.00     7200.00
01501             -25.00     7200.00
01502              -4.20     8000.00
01503              25.00     8000.00
01504             -25.00     8000.00
01505              20.20     9600.00
01506              25.00     9600.00
01507             -25.00     9600.00
01508              25.00    11200.00
01509              17.80    11200.00
01510             -25.00    12000.00
01511              25.00    12800.00
01512             -25.00    12800.00
01513              25.00    14400.00
01514              25.00    14400.00
01515             -25.00    15200.00
01516              25.00    15200.00
01517              -9.40    16000.00
01518             -25.00    16000.00
01519              25.00    16800.00
01520              -7.20    16800.00
01521             -25.00    17600.00
01522              21.80    18400.00
01523              16.00    18400.00
01524             -25.00    19200.00
01525              25.00    20000.00
01526               6.40    20000.00
01527             -19.80    21600.00
01528              23.40    21600.00
01529             -19.00    22400.00
01530               1.40    22400.00
01531               7.40    22400.00
01532             -10.20    24000.00
01533               3.20    24000.00
01534              12.60    24000.00
01535             -15.60    24000.00
01536               2.00    24800.00
01537              11.40    24800.00
01538             -18.80    25600.00
01539               9.00    25600.00
01540               3.80    26400.00
01541              -8.60    27200.00
01542               2.60    27200.00
01543               2.00    27200.00
01544              -5.80    28000.00
01545              -0.20    27200.00
01546               3.80    28000.00
01547              -5.60    28800.00
01548               0.00    28000.00
01549               0.20    28800.00
01550              -5.00    29600.00
01551               2.00    29600.00
01552              -0.60    29600.00
01553              -4.40    30400.00
01554               2.00    30400.00
01555              -3.00    31200.00
01556              -2.80    30400.00
01557               0.40    31200.00
01558              -3.80    31200.00
01559              -1.00    31200.00
01560              -0.60    31200.00
01561              -3.00    31200.00
01562              -3.60    32000.00
01563              -2.80    32000.00
01564              -3.00    32800.00
01565              -4.20    32000.00
01566              -2.80    32000.00
01567              -5.00    32800.00
01568              -4.80    32000.00
01569              -4.00    32000.00
01570              -7.60    32800.00
01571              -5.40    32800.00
01572              -7.60    32000.00
01573              -8.40    32000.00
01574              -7.20    32800.00
01575             -11.20    32000.00
01576             -10.80    32800.00
01577             -11.00    32000.00
01578             -12.80    32800.00
01579             -13.00    32000.00
01580             -14.00    32000.00
01581             -14.40    32800.00
01582             -15.60    32000.00
01583             -17.20    31200.00
01584             -21.00    32000.00
01585             -22.00    31200.00
01586             -11.40    31200.00
01587              -6.60    31200.00
01588             -11.80    31200.00
01589             -10.20    30400.00
01590              -6.80    31200.00
01591              -6.80    30400.00
01592              -8.40    30400.00
01593              -5.80    30400.00
01594              -4.20    29600.00
01595              -6.20    29600.00
01596              -4.40    29600.00
01597              -2.60    28800.00
01598              -4.20    28800.00
01599              -4.40    28800.00
01600              -1.80    28000.00
01601              -2.00    28000.00
01602              -3.40    28000.00
01603              -1.40    27200.00
01604              -1.20    27200.00
01605              -2.60    27200.00
01606              -0.80    25600.00
01607              -1.40    25600.00
01608              -2.20    25600.00
01609              -0.80    24800.00
01610              -0.80    24800.00
01611              -1.00    24000.00
01612              -1.20    24800.00
01613              -1.00    24000.00
01614              -0.60    23200.00
01615              -0.60    22400.00
01616              -0.60    22400.00
01617              -1.00    22400.00
01618              -0.60    21600.00
01619              -0.40    20800.00
01620              -0.60    20000.00
01621              -0.60    20000.00
01622              -1.00    19200.00
01623              -0.40    18400.00
01624              -0.20    18400.00
01625              -1.00    17600.00
01626              -0.40    17600.00
01627              -0.60    16800.00
01628              -1.00    16000.00
01629               0.20    15200.00
01630              -0.40    15200.00
01631              -0.60    15200.00
01632              -0.40    14400.00
01633              -0.20    14400.00
01634              -0.60    13600.00
01635              -0.60    12800.00
01636              -0.60    12000.00
01637              -0.40    11200.00
01638              -0.20    11200.00
01639              -0.40    10400.00
01640              -0.60     9600.00
01641               0.20     8800.00
01642              -0.80     9600.00
01643              -0.20     8800.00
01644              -0.40     8000.00
01645              -0.60     7200.00
01646              -0.40     6400.00
01647               0.20     5600.00
01648              -0.60     4800.00
01649               0.00     4800.00
01650              -0.40     4000.00
01651              -0.20     3200.00
01652               0.20     3200.00
01653              -0.60     2400.00
01654              -0.60     1600.00
01655               0.20     1600.00
01656              -0.40        0.00
01657              -0.20        0.00
01658               0.80     -800.00
01659               3.40     -800.00
01660              -0.40    -1600.00
01661              -1.20    -1600.00
01662               1.00    -2400.00
01663               1.00    -2400.00
01664              -0.40    -3200.00
01665               2.80    -4000.00
01666              16.60    -4800.00
01667              23.40    -6400.00
01668             -25.00    -8000.00
01669             -25.00    -8000.00
01670              25.00    -8000.00
01671              -4.60    -8000.00
01672             -25.00    -8000.00
01673              25.00    -9600.00
01674              25.00    -9600.00
01675             -25.00    -9600.00
01676              25.00   -11200.00
01677               6.20   -11200.00
01678             -25.00   -12000.00
01679              25.00   -12800.00
01680             -24.20   -12800.00
01681              19.00   -13600.00
01682              -6.20   -14400.00
01683             -24.20   -14400.00
01684              25.00   -15200.00
01685             -24.80   -15200.00
01686             -16.60   -16000.00
01687              25.00   -16800.00
01688             -11.20   -17600.00
01689             -25.00   -17600.00
01690              25.00   -17600.00
01691               0.20   -18400.00
01692             -25.00   -19200.00
01693              25.00   -18400.00
01694              -2.00   -20000.00
01695             -13.60   -20800.00
01696              13.80   -21600.00
01697              -7.40   -21600.00
01698              -2.20   -22400.00
01699               5.20   -22400.00
01700              -3.60   -22400.00
01701               1.60   -23200.00
01702               6.60   -24000.00
01703             -10.20   -24000.00
01704               5.40   -24800.00
01705               3.20   -24800.00
01706             -10.80   -25600.00
01707               8.20   -25600.00
01708               1.00   -25600.00
01709              -5.00   -26400.00
01710               3.80   -26400.00
01711               2.20   -27200.00
01712              -3.60   -26400.00
01713               3.00   -27200.00
01714               2.20   -28000.00
01715              -3.60   -28000.00
01716               2.80   -28800.00
01717               0.40   -28800.00
01718              -1.20   -28800.00
01719               3.40   -28800.00
01720               0.20   -29600.00
01721               0.20   -28800.00
01722               2.80   -29600.00
01723              -0.60   -29600.00
01724               1.80   -29600.00
01725               1.80   -30400.00
01726               1.00   -30400.00
01727               3.00   -30400.00
01728               1.40   -30400.00
01729               2.60   -30400.00
01730               1.40   -30400.00
01731               2.80   -30400.00
01732               4.40   -31200.00
01733               1.80   -32000.00
01734               4.60   -31200.00
01735               5.40   -32000.00
01736               3.40   -32000.00
01737               5.80   -32000.00
01738               6.60   -32000.00
01739               6.00   -32000.00
01740               7.60   -32000.00
01741              10.20   -32000.00
01742               9.00   -32000.00
01743              10.20   -32000.00
01744              12.60   -31200.00
01745              10.60   -32000.00
01746              14.00   -31200.00
01747              14.00   -32000.00
01748              12.80   -30400.00
01749              16.20   -32000.00
01750              17.40   -30400.00
01751              21.00   -30400.00
01752              19.20   -30400.00
01753               7.00   -30400.00
01754               7.80   -30400.00
01755              12.40   -30400.00
01756               6.80   -29600.00
01757               5.00   -29600.00
01758               8.80   -29600.00
01759               7.40   -28800.00
01760               4.00   -28800.00
01761               4.60   -28800.00
01762               5.00   -28800.00
01763               2.80   -28800.00
01764               2.00   -28000.00
01765               3.60   -28000.00
01766               2.60   -27200.00
01767               0.60   -27200.00
01768               2.60   -27200.00
01769               1.60   -27200.00
01770               0.20   -26400.00
01771               1.80   -26400.00
01772               2.00   -26400.00
01773              -0.20   -25600.00
01774               1.00   -25600.00
01775               0.40   -24800.00
01776               0.20   -24000.00
01777               0.60   -23200.00
01778               0.40   -24000.00
01779              -0.20   -23200.00
01780               0.20   -23200.00
01781              -0.20   -22400.00
01782              -0.40   -22400.00
01783               0.00   -20800.00
01784              -0.20   -20800.00
01785               0.20   -20800.00
01786               0.40   -20000.00
01787              -0.20   -18400.00
01788               0.00   -19200.00
01789               0.20   -18400.00
01790              -0.40   -17600.00
01791               0.00   -17600.00
01792               0.20   -16800.00
01793              -0.40   -16800.00
01794              -0.40   -16000.00
01795              -0.20   -15200.00
01796              -0.20   -15200.00
01797              -0.40   -14400.00
01798              -0.60   -14400.00
01799              -0.40   -13600.00
01800              -0.60   -13600.00
01801              -0.60   -12800.00
01802              -0.20   -12800.00
01803              -0.60   -11200.00
01804              -0.40   -10400.00
01805               0.20   -10400.00
01806              -0.60    -9600.00
01807              -0.60    -9600.00
01808              -0.40    -9600.00
01809              -1.00    -8000.00
01810              -0.80    -7200.00
01811              -0.40    -7200.00
01812              -0.60    -6400.00
01813              -0.40    -6400.00
01814              -0.60    -4800.00
01815              -0.40    -4800.00
01816              -0.20    -4000.00
01817              -1.00    -3200.00
01818              -0.40    -3200.00
01819              -0.20    -2400.00
01820              -1.40    -1600.00
01821              -0.40     -800.00
01822               0.40     -800.00
01823              -1.00        0.00
01824              -0.40      800.00
01825               1.40     1600.00
01826               2.60     1600.00
01827              -1.40     2400.00
01828              -1.00     2400.00
01829               0.40     4000.00
01830               0.20     4000.00
01831              -0.40     4000.00
01832              11.40     5600.00
01833              25.00     7200.00
01834             -25.00     7200.00
01835             -25.00     8000.00
01836              23.00     8800.00
01837               1.00     8000.00
01838             -25.00     8800.00
01839              25.00     9600.00
01840             -22.20     9600.00
01841             -25.00    11200.00
01842              25.00    11200.00
01843             -25.00    12000.00
01844              17.20    12000.00
01845              25.00    12800.00
01846             -25.00    12800.00
01847              25.00    14400.00
01848             -25.00    14400.00
01849              -7.40    15200.00
01850              25.00    15200.00
01851             -25.00    16000.00
01852              20.60    16800.00
01853              25.00    16000.00
01854             -25.00    17600.00
01855              -9.80    17600.00
01856              25.00    18400.00
01857             -22.80    19200.00
01858             -14.60    20000.00
01859              25.00    20000.00
01860             -25.00    20800.00
01861               9.20    21600.00
01862               5.20    21600.00
01863             -18.00    21600.00
01864              13.20    22400.00
01865              -3.80    22400.00
01866              -7.60    23200.00
01867              11.80    24000.00
01868               0.00    24000.00
01869             -15.80    24800.00
01870              16.60    24800.00
01871              -7.60    24800.00
01872              -8.60    25600.00
01873              13.00    25600.00
01874              -7.60    26400.00
01875              -3.00    27200.00
01876               4.20    27200.00
01877              -2.20    27200.00
01878              -4.80    28000.00
01879               4.40    28000.00
01880              -2.20    28000.00
01881              -3.80    28800.00
01882               2.60    28800.00
01883              -3.80    29600.00
01884              -1.40    28800.00
01885               2.20    28800.00
01886              -4.20    30400.00
01887              -0.60    30400.00
01888               0.20    30400.00
01889              -5.40    30400.00
01890               0.40    31200.00
01891              -2.20    31200.00
01892              -3.40    31200.00
01893               0.20    31200.00
01894              -2.20    32000.00
01895              -3.20    32800.00
01896              -2.60    32000.00
01897              -2.80    32000.00
01898              -3.60    32000.00
01899              -3.60    32800.00
01900              -3.00    32800.00
01901              -5.80    32000.00
01902              -4.00    32000.00
01903              -5.80    32800.00
01904              -7.00    32800.00
01905              -5.40    32800.00
01906              -9.00    32000.00
01907              -7.00    32800.00
01908              -9.20    32800.00
01909             -11.80    32800.00
01910             -10.00    32000.00
01911             -12.40    32800.00
01912             -12.40    32000.00
01913             -13.20    32800.00
01914             -14.40    32000.00
01915             -14.80    32800.00
01916             -16.40    31200.00
01917             -18.40    32000.00
01918             -22.80    32000.00
01919             -18.00    32000.00
01920              -7.00    31200.00
01921              -9.80    31200.00
01922             -12.00    30400.00
01923              -7.80    31200.00
01924              -6.00    30400.00
01925              -7.80    30400.00
01926              -7.40    30400.00
01927              -4.40    30400.00
01928              -5.40    30400.00
01929              -6.00    28800.00
01930              -3.00    28800.00
01931              -3.00    28800.00
01932              -4.40    28800.00
01933              -3.20    28000.00
01934              -1.60    28000.00
01935              -3.00    27200.00
01936              -2.80    28000.00
01937              -1.00    27200.00
01938              -2.20    26400.00
01939              -2.00    26400.00
01940              -0.40    26400.00
01941              -2.00    25600.00
01942              -1.40    25600.00
01943              -0.40    24800.00
01944              -1.00    24800.00
01945              -1.20    24800.00
01946              -0.60    24000.00
01947              -0.60    24000.00
01948              -1.00    22400.00
01949              -0.60    22400.00
01950              -0.60    22400.00
01951              -1.20    21600.00
01952              -0.40    21600.00
01953              -1.00    20800.00
01954              -1.00    20800.00
01955              -0.60    20000.00
01956              -1.00    19200.00
01957               0.20    19200.00
01958              -0.40    17600.00
01959              -0.60    17600.00
01960              -0.20    17600.00
01961              -0.60    16800.00
01962               0.20    16000.00
01963              -0.60    15200.00
01964              -0.60    15200.00
01965              -0.40    14400.00
01966              -0.60    14400.00
01967              -0.40    14400.00
01968              -0.20    12800.00
01969              -1.20    12800.00
01970               0.20    12000.00
01971               0.20    12000.00
01972              -0.20    11200.00
01973              -0.60    10400.00
01974               0.20     9600.00
01975              -0.60     9600.00
01976              -0.20     8800.00
01977               0.20     8000.00
01978              -0.60     8000.00
01979              -1.00     6400.00
01980               0.20     6400.00
01981              -0.40     5600.00
01982              -0.40     5600.00
01983              -0.40     4800.00
01984              -0.40     4000.00
01985              -0.20     3200.00
01986              -0.60     3200.00
01987              -0.40     1600.00
01988               0.20     1600.00
01989              -0.20      800.00
01990               0.20        0.00
01991               0.40        0.00
01992               1.80     -800.00
01993               2.80    -1600.00
01994              -1.80    -1600.00
01995              -0.20    -2400.00
01996               1.20    -3200.00
01997               0.40    -3200.00
01998              -0.60    -4000.00
01999               7.60    -4800.00
02000              25.00    -5600.00
02001              -2.60    -7200.00
02002             -25.00    -7200.00
02003               3.60    -8000.00
02004              23.40    -8000.00
02005             -25.00    -8000.00
02006              -6.80    -8800.00
02007              25.00    -9600.00
02008             -25.00    -9600.00
02009             -10.00   -10400.00
02010              25.00   -11200.00
02011             -25.00   -11200.00
02012              10.00   -12800.00
02013              14.40   -12800.00
02014             -14.80   -13600.00
02015              25.00   -13600.00
02016             -25.00   -14400.00
02017              19.00   -14400.00
02018              23.60   -15200.00
02019             -25.00   -16000.00
02020              19.80   -16800.00
02021              21.80   -16800.00
02022             -25.00   -17600.00
02023              -0.60   -17600.00
02024              25.00   -18400.00
02025             -25.00   -19200.00
02026               1.80   -19200.00
02027              25.00   -20000.00
02028             -20.40   -20000.00
02029               5.40   -20800.00
02030               4.20   -20800.00
02031              -9.20   -21600.00
02032               3.60   -22400.00
02033               2.00   -22400.00
02034              -3.80   -22400.00
02035               7.80   -23200.00
02036              -2.80   -24000.00
02037              -6.20   -24000.00
02038              10.80   -24000.00
02039              -7.60   -24800.00
02040              -0.60   -25600.00
02041               8.40   -25600.00
02042              -5.00   -25600.00
02043              -1.00   -26400.00
02044               4.20   -26400.00
02045              -2.00   -27200.00
02046              -0.80   -27200.00
02047               4.80   -27200.00
02048              -2.00   -28000.00
02049              -0.40   -28800.00
02050               3.40   -28800.00
02051              -1.80   -28800.00
02052               1.80   -28800.00
02053               2.80   -28800.00
02054              -1.80   -29600.00
02055               2.20   -29600.00
02056               1.80   -29600.00
02057              -1.00   -29600.00
02058               2.60   -29600.00
02059               1.20   -30400.00
02060               1.40   -30400.00
02061               2.80   -31200.00
02062               1.20   -31200.00
02063               2.00   -31200.00
02064               2.20   -31200.00
02065               2.60   -32000.00
02066               3.00   -30400.00
02067               4.20   -31200.00
02068               3.80   -32000.00
02069               4.20   -32000.00
02070               6.00   -32000.00
02071               4.60   -31200.00
02072               6.60   -32000.00
02073               7.80   -32000.00
02074               7.00   -32000.00
02075               9.80   -32000.00
02076              10.20   -31200.00
02077              10.60   -31200.00
02078              12.20   -32000.00
02079              12.60   -31200.00
02080              13.60   -31200.00
02081              13.20   -31200.00
02082              14.80   -30400.00
02083              17.00   -31200.00
02084              19.60   -31200.00
02085              22.00   -30400.00
02086              11.80   -30400.00
02087               6.20   -30400.00
02088              11.80   -30400.00
02089               9.20   -29600.00
02090               5.80   -29600.00
02091               6.80   -29600.00
02092               6.80   -29600.00
02093               6.00   -28800.00
02094               4.00   -28800.00
02095               5.00   -28800.00
02096               5.40   -28800.00
02097               2.60   -28800.00
02098               2.60   -28800.00
02099               3.60   -27200.00
02100               1.80   -27200.00
02101               1.00   -27200.00
02102               3.40   -27200.00
02103               0.80   -26400.00
02104              -0.20   -26400.00
02105               2.20   -25600.00
02106               0.60   -25600.00
02107               0.40   -25600.00
02108               1.00   -24800.00
02109               0.40   -24800.00
02110               0.40   -24000.00
02111               0.80   -24000.00
02112               0.40   -23200.00
02113               0.60   -22400.00
02114               0.20   -22400.00
02115              -0.40   -22400.00
02116              -0.20   -22400.00
02117              -0.20   -20800.00
02118              -0.20   -20800.00
02119               0.40   -20000.00
02120               0.40   -20000.00
02121              -0.40   -18400.00
02122              -0.60   -18400.00
02123              -0.60   -18400.00
02124              -0.60   -17600.00
02125               0.20   -17600.00
02126              -0.20   -17600.00
02127              -0.60   -16000.00
02128              -0.40   -16000.00
02129              -0.40   -16000.00
02130              -0.20   -14400.00
02131              -0.20   -14400.00
02132              -0.40   -14400.00
02133              -0.40   -12800.00
02134              -0.60   -12800.00
02135              -0.60   -12800.00
02136              -1.00   -11200.00
02137              -0.20   -11200.00
02138               0.40   -10400.00
02139              -0.60    -9600.00
02140              -0.40    -9600.00
02141              -0.60    -8800.00
02142              -1.00    -8000.00
02143              -0.40    -8000.00
02144              -0.60    -7200.00
02145               0.00    -6400.00
02146               0.20    -6400.00
02147              -0.60    -5600.00
02148              -0.40    -4800.00
02149              -1.00    -4800.00
02150              -1.00    -3200.00
02151              -0.20    -3200.00
02152              -0.40    -2400.00
02153              -0.60    -1600.00
02154              -0.40    -1600.00
02155              -0.40     -800.00
02156              -0.20        0.00
02157               0.40      800.00
02158               0.20      800.00
02159               1.80     1600.00
02160               2.60     2400.00
02161              -2.40     3200.00
02162              -0.20     3200.00
02163               1.40     3200.00
02164              -1.00     4800.00
02165               3.00     4800.00
02166              25.00     6400.00
02167              15.40     7200.00
02168             -25.00     8000.00
02169              -6.80     8000.00
02170              25.00     8000.00
02171             -25.00     8800.00
02172              15.00     9600.00
02173              25.00     9600.00
02174             -25.00     9600.00
02175              25.00    11200.00
02176              25.00    11200.00
02177             -25.00    12000.00
02178              25.00    12000.00
02179             -25.00    12800.00
02180              21.80    13600.00
02181              25.00    14400.00
02182             -25.00    14400.00
02183              25.00    15200.00
02184              -3.60    16000.00
02185             -25.00    16000.00
02186              25.00    16800.00
02187              -5.00    17600.00
02188             -25.00    17600.00
02189              19.80    18400.00
02190              17.80    19200.00
02191             -25.00    19200.00
02192              24.60    20000.00
02193               8.80    20000.00
02194             -21.80    21600.00
02195              23.60    21600.00
02196             -18.20    21600.00
02197              -0.40    22400.00
02198               8.20    23200.00
02199             -10.60    23200.00
02200               2.20    24000.00
02201              13.20    24000.00
02202             -15.00    24000.00
02203               0.40    24800.00
02204              12.20    24800.00
02205             -18.60    25600.00
02206               8.00    26400.00
02207               4.20    25600.00
02208              -8.60    27200.00
02209               2.20    27200.00
02210               2.00    27200.00
02211              -5.80    28000.00
02212              -0.40    27200.00
02213               3.40    28000.00
02214              -5.80    28000.00
02215               0.40    28800.00
02216               0.20    28800.00
02217              -4.60    28800.00
02218               2.60    29600.00
02219              -0.60    30400.00
02220              -4.00    29600.00
02221               2.20    30400.00
02222              -3.60    30400.00
02223              -2.80    30400.00
02224               0.60    31200.00
02225              -4.40    31200.00
02226              -0.60    31200.00
02227              -0.60    32000.00
02228              -3.40    31200.00
02229              -3.00    32000.00
02230              -3.00    32000.00
02231              -2.80    32000.00
02232              -4.20    32800.00
02233              -2.80    32000.00
02234              -4.40    32800.00
02235              -5.00    32000.00
02236              -4.40    32800.00
02237              -6.80    32000.00
02238              -5.40    32000.00
02239              -7.60    32800.00
02240              -8.60    32800.00
02241              -6.60    32000.00
02242             -11.80    32800.00
02243             -11.00    32800.00
02244             -10.60    32000.00
02245             -13.20    32800.00
02246             -13.00    32000.00
02247             -14.00    32000.00
02248             -14.60    32000.00
02249             -15.60    32000.00
02250             -17.00    32000.00
02251             -20.60    32000.00
02252             -22.60    31200.00
02253             -11.60    31200.00
02254              -7.00    31200.00
02255             -11.80    31200.00
02256             -10.60    31200.00
02257              -7.00    31200.00
02258              -7.00    30400.00
02259              -8.00    30400.00
02260              -6.20    30400.00
02261              -4.60    29600.00
02262              -6.00    29600.00
02263              -4.60    28800.00
02264              -2.60    28800.00
02265              -3.80    28800.00
02266              -4.00    28800.00
02267              -2.00    28000.00
02268              -2.00    28000.00
02269              -3.20    28000.00
02270              -1.80    27200.00
02271              -1.20    27200.00
02272              -2.40    27200.00
02273              -1.00    26400.00
02274              -1.20    25600.00
02275              -2.20    25600.00
02276              -1.00    25600.00
02277              -1.20    24800.00
02278              -1.20    24000.00
02279              -1.00    24800.00
02280              -0.60    24000.00
02281              -0.60    24000.00
02282              -0.60    22400.00
02283              -0.40    22400.00
02284              -0.60    21600.00
02285              -0.60    21600.00
02286              -0.60    20800.00
02287              -0.80    20800.00
02288              -1.00    20000.00
02289              -1.20    19200.00
02290              -0.60    19200.00
02291               0.20    18400.00
02292              -1.00    18400.00
02293              -0.20    17600.00
02294              -0.20    16800.00
02295              -0.40    16000.00
02296               0.20    16000.00
02297               0.20    15200.00
02298              -0.40    15200.00
02299              -0.40    14400.00
02300              -0.20    13600.00
02301              -0.40    13600.00
02302              -0.80    12800.00
02303              -0.40    12000.00
02304               0.20    12000.00
02305              -0.40    11200.00
02306              -0.60    10400.00
02307              -0.40     9600.00
02308              -0.20     9600.00
02309              -0.60     8800.00
02310               0.20     8800.00
02311              -0.40     8000.00
02312              -0.60     7200.00
02313              -0.20     6400.00
02314               0.00     5600.00
02315              -0.60     5600.00
02316              -0.40     4800.00
02317              -0.40     4800.00
02318              -0.20     4000.00
02319              -0.20     3200.00
02320              -1.00     2400.00
02321              -0.40     1600.00
02322              -0.40     1600.00
02323              -0.40      800.00
02324               0.20        0.00
02325               0.40     -800.00
02326               3.40     -800.00
02327              -0.20    -1600.00
02328              -1.20    -1600.00
02329               1.20    -2400.00
02330               1.20    -3200.00
02331              -0.40    -3200.00
02332               2.60    -4000.00
02333              15.40    -4800.00
02334              24.40    -6400.00
02335             -25.00    -7200.00
02336             -25.00    -7200.00
02337              25.00    -7200.00
02338              -2.00    -8800.00
02339             -25.00    -8000.00
02340              25.00    -8800.00
02341              25.00    -9600.00
02342             -25.00    -9600.00
02343              25.00   -11200.00
02344              11.80   -10400.00
02345             -25.00   -11200.00
02346              25.00   -12800.00
02347             -23.00   -12800.00
02348              17.40   -13600.00
02349              -2.80   -13600.00
02350             -25.00   -14400.00
02351              25.00   -14400.00
02352             -22.00   -16000.00
02353             -19.60   -16000.00
02354              25.00   -16800.00
02355              -8.60   -17600.00
02356             -25.00   -17600.00
02357              25.00   -17600.00
02358               2.80   -18400.00
02359             -25.00   -19200.00
02360              25.00   -19200.00
02361               0.20   -20000.00
02362             -14.60   -20800.00
02363              13.80   -20800.00
02364              -7.00   -21600.00
02365              -3.40   -22400.00
02366               5.20   -22400.00
02367              -2.80   -23200.00
02368               1.00   -23200.00
02369               6.80   -23200.00
02370              -9.60   -24000.00
02371               5.00   -24000.00
02372               4.40   -24800.00
02373             -10.20   -24800.00
02374               8.20   -25600.00
02375               1.80   -25600.00
02376              -5.00   -25600.00
02377               3.20   -27200.00
02378               2.00   -26400.00
02379              -3.60   -26400.00
02380               2.40   -27200.00
02381               2.80   -28000.00
02382              -3.60   -27200.00
02383               2.60   -28800.00
02384               1.00   -28800.00
02385              -1.40   -28800.00
02386               3.00   -28800.00
02387               0.60   -28800.00
02388              -0.60   -29600.00
02389               3.40   -29600.00
02390              -0.40   -29600.00
02391               0.80   -30400.00
02392               2.60   -30400.00
02393               0.60   -30400.00
02394               2.60   -30400.00
02395               1.80   -30400.00
02396               1.20   -30400.00
02397               2.00   -31200.00
02398               2.60   -31200.00
02399               2.80   -31200.00
02400               3.40   -32000.00
02401               4.20   -32000.00
02402               3.40   -32000.00
02403               5.20   -32000.00
02404               5.80   -31200.00
02405               5.20   -32000.00
02406               7.60   -31200.00
02407               7.40   -32000.00
02408               8.40   -32000.00
02409              10.20   -32000.00
02410               9.80   -31200.00
02411              11.60   -32000.00
02412              12.60   -32000.00
02413              13.00   -31200.00
02414              13.20   -31200.00
02415              14.00   -30400.00
02416              15.80   -30400.00
02417              18.00   -31200.00
02418              22.00   -30400.00
02419              18.60   -30400.00
02420               7.40   -30400.00
02421               8.60   -30400.00
02422              11.80   -30400.00
02423               7.60   -29600.00
02424               5.40   -29600.00
02425               7.60   -29600.00
02426               7.40   -29600.00
02427               4.40   -28800.00
02428               3.80   -28800.00
02429               5.80   -28800.00
02430               3.40   -28000.00
02431               1.80   -28800.00
02432               4.20   -28000.00
02433               2.80   -27200.00
02434               0.40   -27200.00
02435               2.60   -27200.00
02436               2.00   -26400.00
02437               0.20   -26400.00
02438               1.40   -26400.00
02439               1.80   -25600.00
02440               0.00   -25600.00
02441               0.60   -25600.00
02442               0.40   -24800.00
02443               0.00   -24000.00
02444               0.40   -24000.00
02445               0.40   -23200.00
02446               0.40   -23200.00
02447              -0.20   -22400.00
02448              -0.20   -22400.00
02449               0.20   -22400.00
02450              -0.20   -20800.00
02451               0.00   -20800.00
02452              -0.20   -20000.00
02453              -0.20   -20000.00
02454               0.20   -20000.00
02455              -0.40   -19200.00
02456              -0.40   -18400.00
02457              -0.40   -18400.00
02458              -0.40   -17600.00
02459              -0.20   -16800.00
02460              -0.60   -16800.00
02461              -0.60   -16000.00
02462              -0.40   -16000.00
02463              -0.20   -14400.00
02464              -0.60   -14400.00
02465              -0.60   -14400.00
02466              -0.20   -13600.00
02467              -0.40   -12800.00
02468              -0.40   -12800.00
02469              -0.60   -11200.00
02470              -0.80   -11200.00
02471               0.20   -11200.00
02472              -0.60   -10400.00
02473              -0.60    -9600.00
02474              -0.60    -9600.00
02475              -1.00    -9600.00
02476              -0.40    -8000.00
02477              -0.60    -7200.00
02478              -1.00    -7200.00
02479              -0.20    -6400.00
02480              -0.40    -4800.00
02481              -0.60    -4800.00
02482              -0.20    -4000.00
02483              -0.40    -4000.00
02484              -0.60    -4000.00
02485               0.00    -2400.00
02486              -0.60    -1600.00
02487              -0.60    -1600.00
02488              -0.40     -800.00
02489              -0.60        0.00
02490              -0.40        0.00
02491               0.40      800.00
02492               0.20     1600.00
02493               3.60     1600.00
02494              -0.40     2400.00
02495              -1.60     3200.00
02496               1.20     3200.00
02497               0.60     3200.00
02498              -1.20     4800.00
02499              11.00     5600.00
02500              25.00     7200.00
02501             -25.00     8000.00
02502             -25.00     8000.00
02503              22.20     8000.00
02504               3.40     8000.00
02505             -25.00     8800.00
02506              25.00     9600.00
02507             -15.80     9600.00
02508             -25.00    11200.00
02509              25.00    11200.00
02510             -25.00    11200.00
02511              10.80    12800.00
02512              25.00    12000.00
02513             -25.00    12800.00
02514              25.00    14400.00
02515             -25.00    14400.00
02516             -15.20    14400.00
02517              25.00    16000.00
02518             -25.00    15200.00
02519              15.80    16000.00
02520              25.00    16800.00
02521             -25.00    17600.00
02522             -12.20    18400.00
02523              25.00    18400.00
02524             -20.00    19200.00
02525             -17.60    19200.00
02526              25.00    20000.00
02527             -25.00    20800.00
02528               7.00    21600.00
02529               6.80    21600.00
02530             -18.80    21600.00
02531              13.00    22400.00
02532              -3.00    23200.00
02533              -8.20    24000.00
02534              11.00    24800.00
02535               1.00    24800.00
02536             -16.60    24800.00
02537              16.20    24800.00
02538              -6.20    25600.00
02539             -10.00    25600.00
02540              13.00    26400.00
02541              -6.60    27200.00
02542              -3.00    27200.00
02543               4.20    27200.00
02544              -1.60    27200.00
02545              -5.00    28000.00
02546               4.60    28000.00
02547              -2.00    28800.00
02548              -4.40    28000.00
02549               2.60    28800.00
02550              -3.60    28800.00
02551              -2.20    28800.00
02552               2.80    29600.00
02553              -4.40    30400.00
02554              -0.60    30400.00
02555               1.00    30400.00
02556              -5.40    30400.00
02557               0.60    31200.00
02558              -2.00    31200.00
02559              -3.40    31200.00
02560               0.00    32000.00
02561              -2.20    32800.00
02562              -3.40    32000.00
02563              -3.00    32000.00
02564              -2.80    32800.00
02565              -3.60    32000.00
02566              -3.40    32000.00
02567              -3.40    32800.00
02568              -5.80    32800.00
02569              -3.40    32800.00
02570              -5.80    32000.00
02571              -7.00    32800.00
02572              -5.40    32800.00
02573              -8.60    32000.00
02574              -7.00    32800.00
02575              -8.60    32800.00
02576             -11.60    32000.00
02577             -10.20    32000.00
02578             -12.40    32800.00
02579             -12.40    32800.00
02580             -14.00    32000.00
02581             -14.60    32800.00
02582             -15.00    32000.00
02583             -16.40    31200.00
02584             -18.60    32800.00
02585             -22.80    31200.00
02586             -18.80    32000.00
02587              -7.00    31200.00
02588              -9.20    31200.00
02589             -12.40    31200.00
02590              -8.40    31200.00
02591              -6.60    30400.00
02592              -7.80    30400.00
02593              -7.60    30400.00
02594              -4.60    29600.00
02595              -5.20    29600.00
02596              -6.20    29600.00
02597              -3.60    28800.00
02598              -3.00    28800.00
02599              -4.40    29600.00
02600              -3.60    28000.00
02601              -1.40    28000.00
02602              -2.80    28000.00
02603              -2.80    27200.00
02604              -1.00    27200.00
02605              -2.00    27200.00
02606              -2.20    26400.00
02607              -0.60    25600.00
02608              -2.00    25600.00
02609              -1.80    25600.00
02610              -0.60    24800.00
02611              -1.00    24800.00
02612              -1.00    24000.00
02613              -1.20    24000.00
02614              -0.60    24000.00
02615              -1.00    22400.00
02616              -0.60    22400.00
02617              -0.60    22400.00
02618              -0.60    21600.00
02619              -0.60    21600.00
02620              -0.40    20000.00
02621              -0.40    20800.00
02622              -0.60    19200.00
02623              -0.60    19200.00
02624               0.20    18400.00
02625              -0.40    18400.00
02626              -0.60    17600.00
02627              -0.40    17600.00
02628              -0.60    16800.00
02629               0.20    16000.00
02630              -0.40    16000.00
02631              -0.60    15200.00
02632              -0.40    14400.00
02633              -0.40    13600.00
02634              -0.60    13600.00
02635              -0.40    12800.00
02636              -0.60    12800.00
02637              -0.40    12000.00
02638               1.00    11200.00
02639              -0.60    11200.00
02640              -1.00     9600.00
02641               0.60     9600.00
02642              -0.60     8800.00
02643              -1.20     8800.00
02644               0.40     8000.00
02645              -0.60     8000.00
02646              -1.20     6400.00
02647               0.40     6400.00
02648              -0.60     5600.00
02649              -0.60     5600.00
02650               0.20     4800.00
02651              -0.60     4000.00
02652              -0.40     3200.00
02653               0.20     3200.00
02654              -1.00     1600.00
02655              -0.20     1600.00
02656               0.00      800.00
02657              -0.60        0.00
02658               0.20     -800.00
02659               1.80     -800.00
02660               2.60    -1600.00
02661              -1.40    -1600.00
02662               0.00    -2400.00
02663               1.00    -2400.00
02664               0.40    -3200.00
02665              -0.40    -3200.00
02666               7.00    -4000.00
02667              25.00    -6400.00
02668               0.60    -7200.00
02669             -25.00    -7200.00
02670               1.20    -8000.00
02671              24.80    -8000.00
02672             -25.00    -8000.00
02673             -10.00    -8000.00
02674              25.00    -9600.00
02675             -25.00    -9600.00
02676             -16.20   -10400.00
02677              25.00   -11200.00
02678             -25.00   -11200.00
02679               6.80   -12000.00
02680              17.40   -12800.00
02681             -17.00   -12800.00
02682              25.00   -13600.00
02683             -25.00   -14400.00
02684              16.20   -15200.00
02685              25.00   -15200.00
02686             -25.00   -16000.00
02687              17.20   -16000.00
02688              23.80   -16800.00
02689             -25.00   -17600.00
02690              -3.00   -17600.00
02691              25.00   -18400.00
02692             -25.00   -18400.00
02693              -0.60   -19200.00
02694              25.00   -20000.00
02695             -19.80   -20000.00
02696               4.60   -20800.00
02697               5.00   -20800.00
02698              -9.80   -21600.00
02699               4.20   -22400.00
02700               2.20   -22400.00
02701              -4.40   -23200.00
02702               7.80   -23200.00
02703              -2.00   -24000.00
02704              -7.00   -24000.00
02705              10.80   -24000.00
02706              -7.00   -24800.00
02707              -1.80   -25600.00
02708               8.60   -25600.00
02709              -4.60   -25600.00
02710              -1.20   -26400.00
02711               4.40   -26400.00
02712              -1.40   -27200.00
02713              -1.20   -27200.00
02714               4.40   -28000.00
02715              -1.80   -28000.00
02716              -1.20   -28000.00
02717               2.80   -28000.00
02718              -2.00   -28800.00
02719               1.00   -28800.00
02720               3.40   -28800.00
02721              -1.40   -29600.00
02722               1.80   -29600.00
02723               1.80   -30400.00
02724              -1.20   -29600.00
02725               2.20   -29600.00
02726               1.60   -30400.00
02727               1.40   -30400.00
02728               2.80   -30400.00
02729               1.80   -30400.00
02730               2.00   -30400.00
02731               2.20   -31200.00
02732               2.80   -31200.00
02733               2.80   -30400.00
02734               3.80   -31200.00
02735               3.80   -30400.00
02736               4.20   -32000.00
02737               6.00   -31200.00
02738               4.60   -32000.00
02739               6.40   -31200.00
02740               8.20   -32000.00
02741               7.00   -32000.00
02742              10.00   -31200.00
02743              10.20   -32000.00
02744              10.40   -31200.00
02745              12.60   -32000.00
02746              12.60   -32000.00
02747              13.00   -32000.00
02748              13.80   -32000.00
02749              15.00   -30400.00
02750              16.40   -31200.00
02751              20.20   -30400.00
02752              21.80   -30400.00
02753              12.60   -31200.00
02754               6.60   -30400.00
02755              11.20   -30400.00
02756              10.00   -30400.00
02757               6.20   -29600.00
02758               6.60   -29600.00
02759               8.20   -28800.00
02760               5.80   -28800.00
02761               3.40   -28800.00
02762               5.20   -28800.00
02763               5.20   -28800.00
02764               2.00   -28800.00
02765               2.60   -28000.00
02766               3.60   -27200.00
02767               1.00   -27200.00
02768               1.00   -27200.00
02769               3.00   -27200.00
02770               1.00   -26400.00
02771               0.20   -25600.00
02772               1.80   -25600.00
02773               0.60   -25600.00
02774               0.40   -24800.00
02775               1.00   -24800.00
02776               0.40   -24000.00
02777               0.20   -24000.00
02778               0.20   -24000.00
02779               0.60   -23200.00
02780               0.00   -23200.00
02781              -0.40   -22400.00
02782               0.20   -22400.00
02783              -0.20   -22400.00
02784              -0.20   -20800.00
02785              -0.20   -20800.00
02786              -0.40   -20000.00
02787               0.20   -20000.00
02788              -0.20   -19200.00
02789              -0.60   -19200.00
02790              -0.40   -18400.00
02791              -0.20   -17600.00
02792              -0.40   -17600.00
02793              -0.60   -16800.00
02794              -0.40   -16800.00
02795              -0.40   -16000.00
02796              -0.60   -16000.00
02797              -0.40   -15200.00
02798              -1.00   -14400.00
02799              -0.60   -13600.00
02800              -0.40   -13600.00
02801              -0.60   -12800.00
02802              -0.40   -12800.00
02803              -0.60   -11200.00
02804              -0.20   -11200.00
02805              -0.20   -10400.00
02806              -0.60    -9600.00
02807              -0.20    -9600.00
02808              -0.60    -8800.00
02809              -1.00    -8800.00
02810              -0.40    -8000.00
02811              -0.60    -7200.00
02812              -0.60    -6400.00
02813              -0.40    -6400.00
02814              -0.40    -4800.00
02815              -0.40    -4000.00
02816              -0.20    -4000.00
02817              -0.60    -3200.00
02818              -0.20    -3200.00
02819              -0.40    -2400.00
02820              -0.60    -1600.00
02821              -0.20    -1600.00
02822              -0.60     -800.00
02823              -0.60        0.00
02824               0.20        0.00
02825               0.20      800.00
02826               2.00     1600.00
02827               2.60     2400.00
02828              -2.40     2400.00
02829              -0.40     3200.00
02830               1.40     3200.00
02831              -0.80     4000.00
02832               2.60     4800.00
02833              23.80     6400.00
02834              18.20     7200.00
02835             -25.00     8000.00
02836              -9.80     8000.00
02837              25.00     8000.00
02838             -25.00     8000.00
02839              10.40     9600.00
02840              25.00     9600.00
02841             -25.00    10400.00
02842              25.00    11200.00
02843              25.00    11200.00
02844             -25.00    11200.00
02845              25.00    12800.00
02846             -25.00    12800.00
02847              15.00    13600.00
02848              25.00    14400.00
02849             -25.00    14400.00
02850              25.00    15200.00
02851               3.40    15200.00
02852             -25.00    16800.00
02853              25.00    16000.00
02854              -1.20    17600.00
02855             -25.00    17600.00
02856              17.20    18400.00
02857              20.40    19200.00
02858             -25.00    19200.00
02859              22.20    19200.00
02860              11.60    20800.00
02861             -23.20    20800.00
02862              23.80    21600.00
02863             -17.00    21600.00
02864              -2.00    22400.00
02865               9.00    22400.00
02866             -10.00    24000.00
02867               1.20    24000.00
02868              13.40    24000.00
02869             -14.00    24000.00
02870              -1.20    24800.00
02871              13.20    24800.00
02872             -18.80    25600.00
02873               6.80    25600.00
02874               5.20    25600.00
02875              -8.60    27200.00
02876               2.20    27200.00
02877               2.40    27200.00
02878              -5.20    28000.00
02879              -0.60    27200.00
02880               4.40    28000.00
02881              -5.40    28800.00
02882               0.20    28800.00
02883               1.00    28800.00
02884              -5.00    28800.00
02885               2.00    28800.00
02886              -0.40    30400.00
02887              -4.20    29600.00
02888               2.00    30400.00
02889              -3.00    31200.00
02890              -3.40    31200.00
02891               0.40    31200.00
02892              -4.20    31200.00
02893              -1.00    31200.00
02894              -0.80    31200.00
02895              -2.80    32800.00
02896              -2.80    32000.00
02897              -3.00    32800.00
02898              -2.80    32000.00
02899              -3.80    32000.00
02900              -2.80    32800.00
02901              -5.00    32000.00
02902              -4.60    32800.00
02903              -3.80    32000.00
02904              -7.40    32800.00
02905              -5.80    32000.00
02906              -7.20    32800.00
02907              -8.60    32000.00
02908              -7.00    32000.00
02909             -11.00    32800.00
02910             -10.80    32000.00
02911             -11.40    32800.00
02912             -12.60    32800.00
02913             -12.40    32800.00
02914             -14.80    32000.00
02915             -14.60    31200.00
02916             -15.00    32800.00
02917             -17.20    32000.00
02918             -20.60    32000.00
02919             -23.00    32000.00
02920             -12.40    31200.00
02921              -6.60    31200.00
02922             -12.40    31200.00
02923             -10.80    31200.00
02924              -6.60    31200.00
02925              -7.60    30400.00
02926              -7.80    30400.00
02927              -5.80    30400.00
02928              -5.00    29600.00
02929              -5.60    28800.00
02930              -5.00    28800.00
02931              -3.40    28800.00
02932              -3.60    28800.00
02933              -4.40    28800.00
02934              -2.80    28000.00
02935              -1.40    28000.00
02936              -3.20    27200.00
02937              -2.00    27200.00
02938              -1.20    27200.00
02939              -2.40    27200.00
02940              -1.00    26400.00
02941              -1.00    25600.00
02942              -2.00    25600.00
02943              -0.60    24800.00
02944              -0.60    24800.00
02945              -1.00    24800.00
02946              -0.60    24000.00
02947              -0.60    24000.00
02948              -0.60    23200.00
02949              -0.60    23200.00
02950              -0.60    22400.00
02951              -1.00    22400.00
02952              -0.60    21600.00
02953               0.00    20800.00
02954              -0.60    20800.00
02955              -0.60    20000.00
02956              -0.60    19200.00
02957              -0.60    19200.00
02958               0.20    18400.00
02959              -0.20    18400.00
02960              -0.40    17600.00
02961              -0.40    17600.00
02962              -0.20    16000.00
02963              -0.20    16000.00
02964              -0.60    15200.00
02965              -0.20    15200.00
02966              -0.60    14400.00
02967              -0.60    14400.00
02968              -0.40    13600.00
02969              -0.60    12800.00
02970              -0.40    12800.00
02971               0.20    12000.00
02972              -0.60    11200.00
02973              -0.20    11200.00
02974              -0.60    10400.00
02975               0.00     9600.00
02976              -0.40     9600.00
02977              -0.60     8000.00
02978              -0.60     8000.00
02979              -0.20     7200.00
02980              -0.60     6400.00
02981              -0.60     5600.00
02982              -0.40     4800.00
02983              -0.60     4800.00
02984              -0.80     4800.00
02985               0.20     3200.00
02986              -0.20     2400.00
02987              -0.60     2400.00
02988              -0.20     2400.00
02989              -0.20     1600.00
02990              -0.60      800.00
02991               0.40        0.00
02992               0.40     -800.00
02993               2.80     -800.00
02994               0.40    -1600.00
02995              -1.80    -1600.00
02996               1.00    -2400.00
02997               1.00    -3200.00
02998              -0.60    -4000.00
02999               2.60    -4000.00
03000              14.60    -4800.00
03001              25.00    -6400.00
03002             -25.00    -7200.00
03003             -25.00    -7200.00
03004              24.20    -7200.00
03005               1.00    -8000.00
03006             -25.00    -8000.00
03007              25.00    -9600.00
03008              25.00    -9600.00
03009             -25.00    -9600.00
03010              25.00   -11200.00
03011              16.60   -11200.00
03012             -25.00   -12000.00
03013              25.00   -12800.00
03014             -21.80   -12800.00
03015              14.60   -13600.00
03016               1.20   -13600.00
03017             -25.00   -14400.00
03018              25.00   -14400.00
03019             -19.00   -16000.00
03020             -19.80   -16000.00
03021              25.00   -16800.00
03022              -7.20   -16800.00
03023             -25.00   -17600.00
03024              23.80   -17600.00
03025               3.60   -18400.00
03026             -25.00   -19200.00
03027              25.00   -20000.00
03028               0.20   -20000.00
03029             -14.00   -20000.00
03030              15.40   -20800.00
03031              -7.80   -20800.00
03032              -3.40   -22400.00
03033               6.20   -22400.00
03034              -4.20   -22400.00
03035               0.20   -22400.00
03036               8.60   -23200.00
03037              -9.20   -24000.00
03038               3.60   -24000.00
03039               5.20   -24800.00
03040             -10.80   -25600.00
03041               6.80   -25600.00
03042               1.80   -25600.00
03043              -4.60   -26400.00
03044               2.20   -26400.00
03045               2.00   -27200.00
03046              -3.00   -27200.00
03047               2.00   -27200.00
03048               2.40   -27200.00
03049              -3.00   -28000.00
03050               2.60   -28800.00
03051               0.60   -28800.00
03052              -1.60   -28800.00
03053               3.00   -28800.00
03054               0.60   -29600.00
03055              -0.60   -29600.00
03056               3.20   -29600.00
03057               0.00   -29600.00
03058               0.40   -30400.00
03059               2.20   -30400.00
03060               0.40   -30400.00
03061               2.60   -30400.00
03062               1.80   -30400.00
03063               1.80   -30400.00
03064               2.20   -31200.00
03065               2.80   -30400.00
03066               3.40   -30400.00
03067               3.40   -31200.00
03068               4.20   -32000.00
03069               3.60   -32000.00
03070               5.80   -32000.00
03071               5.40   -32000.00
03072               4.40   -32000.00
03073               7.80   -32000.00
03074               7.20   -32000.00
03075               8.40   -32000.00
03076              11.00   -32000.00
03077               9.80   -31200.00
03078              11.60   -32000.00
03079              13.00   -32000.00
03080              12.60   -31200.00
03081              13.40   -32000.00
03082              14.60   -31200.00
03083              15.40   -32000.00
03084              17.80   -31200.00
03085              22.20   -30400.00
03086              18.80   -31200.00
03087               8.20   -30400.00
03088               8.40   -29600.00
03089              11.60   -29600.00
03090               7.60   -29600.00
03091               5.40   -29600.00
03092               7.40   -29600.00
03093               7.60   -28800.00
03094               4.40   -28800.00
03095               3.80   -28800.00
03096               6.00   -28800.00
03097               3.00   -28800.00
03098               1.80   -28000.00
03099               4.20   -27200.00
03100               2.80   -27200.00
03101               0.40   -27200.00
03102               2.20   -26400.00
03103               2.00   -26400.00
03104              -0.20   -26400.00
03105               1.00   -26400.00
03106               2.00   -25600.00
03107              -0.20   -25600.00
03108               0.60   -24800.00
03109               0.40   -24000.00
03110               0.20   -24000.00
03111               0.40   -24000.00
03112               0.40   -23200.00
03113               0.20   -23200.00
03114              -0.20   -23200.00
03115              -0.40   -22400.00
03116              -0.20   -22400.00
03117              -0.40   -21600.00
03118              -0.60   -20800.00
03119              -0.40   -20800.00
03120               0.00   -20800.00
03121              -0.40   -20000.00
03122              -0.60   -18400.00
03123              -0.20   -18400.00
03124              -0.60   -18400.00
03125              -0.40   -17600.00
03126              -0.20   -17600.00
03127              -0.60   -17600.00
03128              -0.20   -16000.00
03129              -0.20   -16000.00
03130              -0.60   -15200.00
03131              -0.40   -15200.00
03132              -0.40   -14400.00
03133              -0.20   -13600.00
03134              -0.40   -12800.00
03135              -0.40   -12800.00
03136              -0.60   -11200.00
03137              -0.60   -11200.00
03138              -0.20   -10400.00
03139              -0.60   -10400.00
03140              -0.40    -9600.00
03141               0.20    -9600.00
03142              -0.60    -8000.00
03143              -0.20    -8000.00
03144              -0.20    -7200.00
03145              -0.60    -7200.00
03146               0.00    -6400.00
03147              -0.40    -5600.00
03148              -0.60    -4800.00
03149              -0.40    -4800.00
03150              -0.60    -4000.00
03151              -0.60    -3200.00
03152              -0.20    -2400.00
03153              -0.40    -1600.00
03154              -0.60     -800.00
03155              -0.40    -1600.00
03156              -0.40        0.00
03157              -0.20        0.00
03158               0.40      800.00
03159               0.40     1600.00
03160               3.60     1600.00
03161              -0.20     2400.00
03162              -1.40     3200.00
03163               1.20     3200.00
03164               0.40     3200.00
03165              -1.40     4800.00
03166              10.00     5600.00
03167              25.00     7200.00
03168             -23.60     8000.00
03169             -25.00     8000.00
03170              20.20     8000.00
03171               6.20     8000.00
03172             -25.00     8800.00
03173              25.00     9600.00
03174              -9.40     9600.00
03175             -25.00    10400.00
03176              25.00    11200.00
03177             -25.00    11200.00
03178               4.40    12000.00
03179              25.00    12800.00
03180             -25.00    12800.00
03181              25.00    14400.00
03182             -25.00    14400.00
03183             -22.00    15200.00
03184              25.00    15200.00
03185             -25.00    16000.00
03186              12.00    16800.00
03187              25.00    16800.00
03188             -25.00    16800.00
03189             -13.60    17600.00
03190              25.00    18400.00
03191             -17.20    19200.00
03192             -20.20    19200.00
03193              25.00    20000.00
03194             -23.80    20800.00
03195               5.20    21600.00
03196               9.00    22400.00
03197             -19.80    22400.00
03198              12.60    22400.00
03199              -2.20    22400.00
03200              -8.20    22400.00
03201              10.60    24000.00
03202               2.20    24000.00
03203             -16.60    24800.00
03204              15.80    25600.00
03205              -5.00    25600.00
03206             -10.80    25600.00
03207              13.40    26400.00
03208              -6.00    27200.00
03209              -3.60    27200.00
03210               4.20    27200.00
03211              -1.20    27200.00
03212              -5.20    27200.00
03213               4.20    28000.00
03214              -1.20    28000.00
03215              -4.40    28800.00
03216               2.60    28800.00
03217              -3.00    28800.00
03218              -2.00    28800.00
03219               3.00    29600.00
03220              -3.80    30400.00
03221              -0.60    30400.00
03222               1.00    30400.00
03223              -5.20    31200.00
03224               0.20    30400.00
03225              -1.80    31200.00
03226              -3.40    31200.00
03227               0.20    31200.00
03228              -2.20    31200.00
03229              -3.00    32000.00
03230              -3.00    32000.00
03231              -2.80    32000.00
03232              -3.40    32000.00
03233              -3.60    32800.00
03234              -3.20    32000.00
03235              -5.80    32800.00
03236              -3.80    32000.00
03237              -5.40    32800.00
03238              -7.00    32800.00
03239              -5.60    32000.00
03240              -8.60    32000.00
03241              -7.60    32800.00
03242              -8.60    32000.00
03243             -12.20    32800.00
03244             -10.60    32000.00
03245             -12.40    32000.00
03246             -12.60    32800.00
03247             -13.80    32000.00
03248             -14.80    32000.00
03249             -15.00    32000.00
03250             -16.40    32800.00
03251             -18.20    32800.00
03252             -22.80    32000.00
03253             -19.00    31200.00
03254              -7.40    31200.00
03255              -9.40    31200.00
03256             -12.40    31200.00
03257              -8.60    30400.00
03258              -6.60    31200.00
03259              -7.60    30400.00
03260              -7.80    30400.00
03261              -5.00    30400.00
03262              -4.60    30400.00
03263              -6.00    29600.00
03264              -3.20    28800.00
03265              -2.80    28800.00
03266              -4.40    28800.00
03267              -3.40    28000.00
03268              -1.20    28000.00
03269              -2.80    28000.00
03270              -2.80    27200.00
03271              -0.60    27200.00
03272              -2.20    27200.00
03273              -2.20    26400.00
03274              -0.40    27200.00
03275              -2.00    25600.00
03276              -1.40    25600.00
03277              -0.60    24800.00
03278              -1.00    24800.00
03279              -0.60    24000.00
03280              -1.20    24000.00
03281              -1.00    24000.00
03282              -0.60    22400.00
03283              -0.60    23200.00
03284              -0.60    22400.00
03285              -1.00    21600.00
03286              -0.40    21600.00
03287              -0.40    20800.00
03288              -0.60    20000.00
03289              -1.00    19200.00
03290              -0.60    19200.00
03291              -0.20    19200.00
03292              -0.60    18400.00
03293              -0.60    17600.00
03294              -0.40    17600.00
03295              -0.60    16800.00
03296               0.20    16000.00
03297              -0.40    16000.00
03298              -0.60    15200.00
03299              -0.20    14400.00
03300              -0.60    13600.00
03301              -0.60    13600.00
03302               0.20    12800.00
03303              -1.20    12800.00
03304              -0.60    12000.00
03305              -0.20    11200.00
03306              -0.40    11200.00
03307              -1.20    11200.00
03308               0.20     9600.00
03309              -0.40     8800.00
03310              -0.60     8000.00
03311               0.20     8000.00
03312              -0.40     7200.00
03313              -0.80     7200.00
03314              -0.20     6400.00
03315              -0.60     5600.00
03316              -0.20     4800.00
03317              -0.60     4800.00
03318              -0.60     4000.00
03319               0.00     3200.00
03320              -0.40     3200.00
03321              -1.20     2400.00
03322              -0.40     1600.00
03323              -0.20      800.00
03324              -0.40        0.00
03325               0.40     -800.00
03326               1.80        0.00
03327               2.80    -1600.00
03328              -1.40    -1600.00
03329               0.40    -2400.00
03330               0.60    -3200.00
03331               0.40    -3200.00
03332              -0.20    -4000.00
03333               6.40    -4000.00
03334              24.60    -5600.00
03335               3.40    -7200.00
03336             -25.00    -7200.00
03337              -0.60    -8000.00
03338              25.00    -8000.00
03339             -25.00    -8000.00
03340             -13.80    -8000.00
03341              25.00    -9600.00
03342             -25.00    -9600.00
03343             -22.00   -10400.00
03344              25.00   -11200.00
03345             -25.00   -11200.00
03346               2.80   -12000.00
03347              19.80   -12800.00
03348             -18.60   -12800.00
03349              25.00   -13600.00
03350             -25.00   -14400.00
03351              13.20   -15200.00
03352              25.00   -15200.00
03353             -25.00   -16000.00
03354              15.60   -16000.00
03355              25.00   -16800.00
03356             -25.00   -17600.00
03357              -5.00   -17600.00
03358              25.00   -18400.00
03359             -25.00   -18400.00
03360              -2.80   -19200.00
03361              25.00   -20000.00
03362             -18.80   -20000.00
03363               3.00   -20800.00
03364               6.00   -20800.00
03365             -10.20   -22400.00
03366               3.40   -22400.00
03367               2.40   -22400.00
03368              -4.40   -22400.00
03369               7.00   -23200.00
03370              -1.40   -24000.00
03371              -7.60   -24000.00
03372              10.60   -24000.00
03373              -6.00   -24800.00
03374              -2.80   -25600.00
03375               9.00   -25600.00
03376              -4.40   -25600.00
03377              -2.20   -26400.00
03378               4.20   -26400.00
03379              -1.20   -27200.00
03380              -2.20   -27200.00
03381               4.20   -27200.00
03382              -1.20   -27200.00
03383              -1.20   -28800.00
03384               3.00   -28800.00
03385              -1.80   -28800.00
03386               0.40   -28800.00
03387               3.40   -28800.00
03388              -1.20   -29600.00
03389               2.00   -29600.00
03390               2.40   -30400.00
03391              -1.00   -29600.00
03392               2.20   -30400.00
03393               1.80   -30400.00
03394               1.20   -30400.00
03395               2.80   -31200.00
03396               1.80   -30400.00
03397               1.80   -30400.00
03398               2.20   -31200.00
03399               3.00   -31200.00
03400               3.00   -31200.00
03401               4.20   -32000.00
03402               4.20   -32000.00
03403               4.40   -31200.00
03404               6.00   -32000.00
03405               4.60   -32000.00
03406               6.60   -32000.00
03407               8.20   -32000.00
03408               7.20   -32000.00
03409              10.00   -32000.00
03410              10.20   -32000.00
03411              10.20   -32000.00
03412              12.40   -32000.00
03413              12.40   -31200.00
03414              13.00   -32000.00
03415              13.80   -31200.00
03416              14.80   -32000.00
03417              16.40   -31200.00
03418              19.80   -30400.00
03419              22.00   -30400.00
03420              13.80   -31200.00
03421               6.60   -30400.00
03422              10.80   -29600.00
03423              10.60   -30400.00
03424               6.00   -30400.00
03425               6.20   -29600.00
03426               8.20   -29600.00
03427               5.80   -29600.00
03428               3.00   -28800.00
03429               5.20   -28800.00
03430               5.20   -28800.00
03431               2.00   -28800.00
03432               2.80   -27200.00
03433               3.60   -28000.00
03434               1.20   -27200.00
03435               1.20   -27200.00
03436               3.40   -26400.00
03437               0.80   -26400.00
03438               0.20   -26400.00
03439               1.80   -25600.00
03440               0.60   -25600.00
03441               0.40   -25600.00
03442               0.60   -24000.00
03443              -0.20   -24000.00
03444               0.20   -24000.00
03445               0.20   -24000.00
03446               0.20   -23200.00
03447              -0.20   -23200.00
03448              -0.20   -22400.00
03449              -0.20   -22400.00
03450               0.20   -21600.00
03451              -0.20   -20800.00
03452              -0.40   -20800.00
03453              -0.20   -20000.00
03454               0.00   -20000.00
03455              -0.40   -19200.00
03456              -0.60   -18400.00
03457              -0.20   -17600.00
03458              -0.40   -17600.00
03459              -0.20   -17600.00
03460              -0.60   -16800.00
03461              -0.60   -16800.00
03462              -0.20   -16000.00
03463              -0.80   -15200.00
03464              -0.40   -14400.00
03465              -0.40   -14400.00
03466              -0.40   -14400.00
03467              -0.20   -13600.00
03468              -0.40   -12800.00
03469              -0.20   -12800.00
03470              -0.60   -11200.00
03471              -0.40   -11200.00
03472              -0.20   -10400.00
03473              -0.60    -9600.00
03474              -0.60    -9600.00
03475              -1.00    -9600.00
03476              -0.60    -8000.00
03477              -0.20    -7200.00
03478              -0.60    -7200.00
03479              -0.40    -6400.00
03480              -0.40    -6400.00
03481              -0.60    -4800.00
03482               0.20    -4800.00
03483              -0.40    -4000.00
03484              -0.80    -3200.00
03485              -0.20    -3200.00
03486              -0.40    -3200.00
03487              -0.60    -1600.00
03488              -0.60    -1600.00
03489              -0.60     -800.00
03490              -0.60        0.00
03491               0.20        0.00
03492               0.40      800.00
03493               1.40     1600.00
03494               2.80     1600.00
03495              -2.20     1600.00
03496              -0.60     3200.00
03497               1.40     4000.00
03498              -1.00     3200.00
03499               2.00     5600.00
03500              22.60     5600.00
03501              20.40     7200.00
03502             -25.00     7200.00
03503             -13.00     8000.00
03504              25.00     8000.00
03505             -25.00     8000.00
03506               5.40     9600.00
03507              25.00     9600.00
03508             -25.00     9600.00
03509              25.00    11200.00
03510              25.00    12000.00
03511             -25.00    12000.00
03512              25.00    12800.00
03513             -25.00    12800.00
03514               9.80    14400.00
03515              25.00    14400.00
03516             -25.00    14400.00
03517              25.00    15200.00
03518               9.80    15200.00
03519             -25.00    16000.00
03520              25.00    16800.00
03521               1.80    17600.00
03522             -25.00    17600.00
03523              15.60    18400.00
03524              22.60    18400.00
03525             -25.00    19200.00
03526              19.80    19200.00
03527              14.60    20800.00
03528             -24.00    20800.00
03529              23.80    21600.00
03530             -16.20    21600.00
03531              -2.60    22400.00
03532               9.80    22400.00
03533             -10.00    22400.00
03534               1.00    24000.00
03535              13.80    24000.00
03536             -13.20    24000.00
03537              -2.00    24800.00
03538              13.80    24800.00
03539             -18.20    25600.00
03540               6.00    25600.00
03541               6.40    26400.00
03542              -8.60    26400.00
03543               2.00    27200.00
03544               2.40    27200.00
03545              -4.60    27200.00
03546              -0.80    27200.00
03547               4.20    28800.00
03548              -5.20    28800.00
03549               0.00    28800.00
03550               0.60    28800.00
03551              -5.00    28800.00
03552               2.00    29600.00
03553               0.20    30400.00
03554              -4.40    30400.00
03555               1.80    30400.00
03556              -3.00    30400.00
03557              -3.40    31200.00
03558               1.00    31200.00
03559              -4.20    31200.00
03560              -1.20    30400.00
03561              -0.40    32000.00
03562              -3.00    32800.00
03563              -3.00    32000.00
03564              -2.80    32000.00
03565              -3.00    32000.00
03566              -4.20    32000.00
03567              -3.00    32800.00
03568              -4.60    32000.00
03569              -5.20    32000.00
03570              -3.40    32800.00
03571              -7.20    32000.00
03572              -6.00    32000.00
03573              -7.00    32800.00
03574              -8.80    32000.00
03575              -6.80    32000.00
03576             -11.00    32800.00
03577             -11.40    32000.00
03578             -11.00    32000.00
03579             -13.00    32000.00
03580             -13.00    32000.00
03581             -14.20    32000.00
03582             -14.40    32000.00
03583             -15.80    32800.00
03584             -16.60    32000.00
03585             -20.60    31200.00
03586             -23.00    32000.00
03587             -12.40    31200.00
03588              -6.60    32000.00
03589             -11.40    31200.00
03590             -10.20    31200.00
03591              -6.80    30400.00
03592              -7.00    30400.00
03593              -8.20    30400.00
03594              -6.60    30400.00
03595              -4.40    30400.00
03596              -6.00    28800.00
03597              -5.40    28800.00
03598              -2.20    28800.00
03599              -3.60    28800.00
03600              -4.40    28800.00
03601              -2.20    28000.00
03602              -1.80    28000.00
03603              -3.40    27200.00
03604              -1.40    27200.00
03605              -1.00    26400.00
03606              -2.80    27200.00
03607              -1.00    26400.00
03608              -0.40    25600.00
03609              -2.20    25600.00
03610              -1.00    25600.00
03611              -0.20    24800.00
03612              -1.60    24800.00
03613              -1.20    24000.00
03614              -0.40    24000.00
03615              -1.20    23200.00
03616              -0.20    22400.00
03617              -0.20    22400.00
03618              -1.20    22400.00
03619               0.20    21600.00
03620              -1.20    20800.00
03621              -0.40    20800.00
03622               0.20    20000.00
03623              -2.80    19200.00
03624               1.00    18400.00
03625               0.40    18400.00
03626              -2.80    18400.00
03627               0.60    17600.00
03628              -0.20    17600.00
03629              -2.60    16000.00
03630               1.20    16000.00
03631               0.20    15200.00
03632              -2.60    14400.00
03633               0.60    14400.00
03634              -0.40    13600.00
03635              -2.20    13600.00
03636               0.80    12800.00
03637              -0.60    12000.00
03638              -1.00    11200.00
03639               0.20    11200.00
03640              -1.00    10400.00
03641              -1.20    10400.00
03642               1.20     9600.00
03643              -1.20     8800.00
03644              -0.80     8000.00
03645               0.20     8000.00
03646              -1.20     8000.00
03647              -1.00     7200.00
03648               0.60     6400.00
03649              -1.00     5600.00
03650              -0.40     4800.00
03651               0.00     3200.00
03652              -1.00     3200.00
03653              -0.20     3200.00
03654              -0.20     2400.00
03655              -0.80     1600.00
03656              -0.20      800.00
03657               0.40      800.00
03658              -0.60        0.00
03659               0.20     -800.00
03660               3.40     -800.00
03661              -0.20     -800.00
03662              -1.40    -1600.00
03663               1.40    -2400.00
03664               0.60    -3200.00
03665              -0.20    -4000.00
03666               2.20    -4000.00
03667              14.20    -4800.00
03668              25.00    -6400.00
03669             -25.00    -7200.00
03670             -25.00    -7200.00
03671              23.40    -8000.00
03672               2.60    -8000.00
03673             -25.00    -8000.00
03674              25.00    -8800.00
03675              25.00    -9600.00
03676             -25.00    -9600.00
03677              25.00   -11200.00
03678              22.60   -11200.00
03679             -25.00   -11200.00
03680              25.00   -12800.00
03681             -19.80   -12800.00
03682              14.00   -13600.00
03683               3.40   -13600.00
03684             -25.00   -14400.00
03685              25.00   -14400.00
03686             -15.60   -15200.00
03687             -24.60   -16000.00
03688              25.00   -16800.00
03689              -4.40   -16800.00
03690             -25.00   -17600.00
03691              23.40   -17600.00
03692               7.60   -19200.00
03693             -25.00   -18400.00
03694              25.00   -20000.00
03695               4.20   -20000.00
03696             -16.40   -20800.00
03697              13.80   -20800.00
03698              -6.00   -21600.00
03699              -4.20   -22400.00
03700               5.20   -22400.00
03701              -3.00   -23200.00
03702               0.20   -22400.00
03703               7.80   -24000.00
03704              -9.60   -23200.00
03705               3.00   -24000.00
03706               5.80   -25600.00
03707             -11.40   -24800.00
03708               6.60   -25600.00
03709               3.00   -25600.00
03710              -5.40   -26400.00
03711               2.60   -26400.00
03712               2.60   -27200.00
03713              -3.60   -27200.00
03714               1.80   -27200.00
03715               3.20   -28000.00
03716              -3.40   -28000.00
03717               2.00   -28800.00
03718               1.20   -28800.00
03719              -1.80   -28800.00
03720               3.40   -28800.00
03721               1.00   -29600.00
03722              -1.00   -29600.00
03723               3.40   -29600.00
03724               0.20   -29600.00
03725               0.40   -29600.00
03726               2.20   -30400.00
03727               0.60   -29600.00
03728               3.00   -31200.00
03729               2.00   -30400.00
03730               2.00   -31200.00
03731               2.60   -31200.00
03732               2.20   -31200.00
03733               2.80   -31200.00
03734               3.60   -31200.00
03735               3.80   -31200.00
03736               3.80   -32000.00
03737               5.80   -32000.00
03738               5.80   -30400.00
03739               5.00   -31200.00
03740               7.80   -32000.00
03741               7.80   -32000.00
03742               8.40   -32000.00
03743               9.80   -32000.00
03744              10.60   -32000.00
03745              11.80   -32000.00
03746              11.60   -32000.00
03747              13.40   -31200.00
03748              14.20   -31200.00
03749              13.40   -32000.00
03750              16.40   -30400.00
03751              19.00   -30400.00
03752              20.60   -30400.00
03753              19.40   -30400.00
03754               9.00   -30400.00
03755               6.60   -30400.00
03756              11.00   -30400.00
03757               8.00   -30400.00
03758               4.40   -29600.00
03759               7.40   -29600.00
03760               9.00   -29600.00
03761               5.20   -28800.00
03762               3.80   -28800.00
03763               6.00   -28800.00
03764               2.60   -28000.00
03765               0.60   -28000.00
03766               2.60   -27200.00
03767               2.80   -28000.00
03768              -0.40   -27200.00
03769               2.60   -27200.00
03770               3.40   -26400.00
03771               0.40   -27200.00
03772               1.80   -26400.00
03773               2.20   -25600.00
03774              -1.20   -25600.00
03775               0.40   -25600.00
03776              -0.20   -24800.00
03777              -0.60   -24800.00
03778               1.00   -24000.00
03779               1.00   -23200.00
03780               0.20   -23200.00
03781               0.60   -22400.00
03782               0.20   -22400.00
03783              -0.20   -22400.00
03784              -0.20   -21600.00
03785              -1.00   -20800.00
03786              -0.60   -20000.00
03787               0.20   -20000.00
03788              -0.40   -19200.00
03789               0.00   -19200.00
03790               1.00   -18400.00
03791              -0.40   -17600.00
03792               0.20   -17600.00
03793               0.00   -17600.00
03794              -1.40   -16800.00
03795              -0.60   -16000.00
03796              -0.60   -16000.00
03797              -0.60   -15200.00
03798               0.20   -14400.00
03799               0.00   -14400.00
03800               0.20   -13600.00
03801               0.20   -12800.00
03802              -0.60   -12800.00
03803              -0.60   -11200.00
03804              -0.60   -11200.00
03805              -0.60   -11200.00
03806              -0.60   -10400.00
03807              -0.40    -9600.00
03808              -0.20    -9600.00
03809              -0.40    -8000.00
03810              -0.20    -8000.00
03811              -0.20    -7200.00
03812              -0.20    -7200.00
03813              -0.60    -6400.00
03814              -1.00    -6400.00
03815              -0.40    -4800.00
03816              -0.60    -4800.00
03817              -0.60    -4000.00
03818              -0.20    -3200.00
03819              -0.40    -3200.00
03820              -0.40    -2400.00
03821              -0.20    -1600.00
03822              -0.60     -800.00
03823              -1.00        0.00
03824              -0.60        0.00
03825              -0.40        0.00
03826              -0.20     1600.00
03827               3.40     1600.00
03828              -0.40     2400.00
03829              -1.80     2400.00
03830               1.20     3200.00
03831               0.60     4000.00
03832              -1.40     4000.00
03833               8.80     5600.00
03834              25.00     6400.00
03835             -21.00     7200.00
03836             -25.00     8000.00
03837              19.00     8000.00
03838               9.00     8000.00
03839             -25.00     8000.00
03840              25.00     9600.00
03841              -2.80     9600.00
03842             -25.00    11200.00
03843              25.00    11200.00
03844             -25.00    11200.00
03845              -1.80    12000.00
03846              25.00    12800.00
03847             -25.00    12800.00
03848              25.00    13600.00
03849             -25.00    14400.00
03850             -25.00    15200.00
03851              25.00    15200.00
03852             -25.00    16000.00
03853               7.40    16000.00
03854              25.00    17600.00
03855             -25.00    17600.00
03856             -15.60    17600.00
03857              25.00    18400.00
03858             -14.00    19200.00
03859             -23.00    19200.00
03860              25.00    20800.00
03861             -22.00    20800.00
03862               2.80    21600.00
03863              10.60    22400.00
03864             -20.40    22400.00
03865              12.40    22400.00
03866              -1.20    22400.00
03867              -8.20    24000.00
03868              10.40    24000.00
03869               3.60    24000.00
03870             -16.60    24800.00
03871              14.80    24800.00
03872              -3.80    25600.00
03873             -12.20    25600.00
03874              13.80    25600.00
03875              -5.40    26400.00
03876              -3.80    27200.00
03877               4.60    27200.00
03878              -1.00    28000.00
03879              -5.40    28000.00
03880               3.60    28000.00
03881              -0.60    28800.00
03882              -5.00    28800.00
03883               2.60    28800.00
03884              -2.60    28800.00
03885              -2.60    28800.00
03886               3.40    30400.00
03887              -3.80    29600.00
03888              -1.20    30400.00
03889               1.00    30400.00
03890              -5.40    30400.00
03891              -0.20    31200.00
03892              -2.00    30400.00
03893              -3.60    32000.00
03894              -0.20    32000.00
03895              -2.00    32000.00
03896              -3.40    32000.00
03897              -3.00    31200.00
03898              -2.80    32800.00
03899              -3.60    32000.00
03900              -3.80    32000.00
03901              -3.00    32800.00
03902              -6.00    32000.00
03903              -4.00    32800.00
03904              -5.20    32000.00
03905              -7.40    32800.00
03906              -5.40    32000.00
03907              -8.60    32800.00
03908              -7.60    32000.00
03909              -8.60    32000.00
03910             -11.80    32800.00
03911             -10.60    32000.00
03912             -11.80    32800.00
03913             -12.60    32000.00
03914             -13.40    32800.00
03915             -14.60    32000.00
03916             -14.60    32800.00
03917             -16.20    32000.00
03918             -18.00    31200.00
03919             -22.60    31200.00
03920             -19.60    31200.00
03921              -7.60    32000.00
03922              -9.20    30400.00
03923             -11.80    31200.00
03924              -9.00    30400.00
03925              -6.20    31200.00
03926              -7.40    30400.00
03927              -8.20    30400.00
03928              -4.40    30400.00
03929              -4.60    30400.00
03930              -6.60    29600.00
03931              -3.60    29600.00
03932              -2.60    28800.00
03933              -4.60    28800.00
03934              -3.80    28000.00
03935              -1.20    28000.00
03936              -2.80    28000.00
03937              -3.00    28000.00
03938              -1.00    27200.00
03939              -1.80    27200.00
03940              -2.20    27200.00
03941              -0.80    25600.00
03942              -1.40    25600.00
03943              -1.40    25600.00
03944              -0.60    25600.00
03945              -0.40    24800.00
03946              -0.60    24800.00
03947              -1.40    24000.00
03948              -0.60    24000.00
03949              -0.60    23200.00
03950              -1.20    22400.00
03951              -0.60    22400.00
03952              -1.20    21600.00
03953              -0.60    20800.00
03954              -0.60    20800.00
03955              -1.00    20800.00
03956              -0.80    20000.00
03957              -0.80    19200.00
03958              -0.40    19200.00
03959              -0.60    18400.00
03960              -0.60    17600.00
03961              -0.40    17600.00
03962              -0.60    17600.00
03963              -0.20    16000.00
03964              -0.40    16000.00
03965              -0.60    15200.00
03966              -0.60    14400.00
03967              -0.60    14400.00
03968              -0.40    13600.00
03969              -0.60    12800.00
03970              -1.00    12800.00
03971               0.00    12000.00
03972              -0.20    11200.00
03973              -0.40    11200.00
03974              -0.60    10400.00
03975              -0.40     9600.00
03976              -0.40     9600.00
03977              -0.40     8000.00
03978              -0.20     8000.00
03979              -0.40     7200.00
03980              -0.60     7200.00
03981              -0.40     6400.00
03982              -0.40     6400.00
03983              -0.60     4800.00
03984              -0.60     4800.00
03985              -0.40     4000.00
03986              -0.40     3200.00
03987              -0.20     2400.00
03988              -0.60     2400.00
03989              -0.20     1600.00
03990               0.20      800.00
03991               0.20        0.00
03992               0.20        0.00
03993               1.40     -800.00
03994               3.60     -800.00
03995              -1.80    -1600.00
03996              -0.20    -1600.00
03997               1.40    -2400.00
03998               0.40    -3200.00
03999              -0.60    -4000.00
04000               6.80    -4000.00
04001              24.00    -6400.00
04002               5.20    -7200.00
04003             -25.00    -7200.00
04004              -2.80    -8000.00
04005              25.00    -8000.00
04006             -25.00    -8000.00
04007             -16.60    -8800.00
04008              25.00    -9600.00
04009             -25.00    -9600.00
04010             -25.00   -10400.00
04011              25.00   -11200.00
04012             -25.00   -11200.00
04013              -1.20   -12800.00
04014              21.80   -12800.00
04015             -20.20   -12800.00
04016              25.00   -14400.00
04017             -25.00   -14400.00
04018              10.20   -14400.00
04019              25.00   -14400.00
04020             -25.00   -16000.00
04021              12.60   -16000.00
04022              25.00   -16800.00
04023             -25.00   -16800.00
04024              -6.80   -18400.00
04025              25.00   -18400.00
04026             -25.00   -18400.00
04027              -5.00   -19200.00
04028              25.00   -20000.00
04029             -19.00   -20000.00
04030               2.40   -20800.00
04031               6.00   -20800.00
04032             -10.20   -21600.00
04033               3.80   -22400.00
04034               1.80   -22400.00
04035              -4.40   -22400.00
04036               7.60   -23200.00
04037              -1.00   -24000.00
04038              -8.40   -24000.00
04039              11.00   -24000.00
04040              -6.00   -24800.00
04041              -3.80   -25600.00
04042               9.40   -25600.00
04043              -4.40   -26400.00
04044              -2.20   -26400.00
04045               5.00   -26400.00
04046              -1.20   -27200.00
04047              -2.00   -27200.00
04048               4.60   -27200.00
04049              -1.00   -27200.00
04050              -1.20   -28000.00
04051               3.00   -28800.00
04052              -1.60   -28800.00
04053               1.20   -28800.00
04054               3.60   -29600.00
04055              -0.80   -29600.00
04056               2.00   -29600.00
04057               1.80   -29600.00
04058              -1.80   -29600.00
04059               2.20   -30400.00
04060               1.80   -30400.00
04061               1.80   -30400.00
04062               3.60   -31200.00
04063               1.40   -30400.00
04064               1.20   -31200.00
04065               2.20   -30400.00
04066               3.00   -31200.00
04067               3.40   -31200.00
04068               4.20   -32000.00
04069               4.40   -31200.00
04070               4.40   -32000.00
04071               6.00   -32000.00
04072               4.60   -31200.00
04073               6.60   -31200.00
04074               8.40   -32000.00
04075               6.80   -32000.00
04076               9.80   -32000.00
04077               9.80   -32000.00
04078              10.00   -32000.00
04079              13.00   -32000.00
04080              12.80   -32000.00
04081              13.00   -32000.00
04082              14.00   -32000.00
04083              14.40   -32000.00
04084              15.60   -30400.00
04085              19.80   -31200.00
04086              21.80   -30400.00
04087              13.20   -31200.00
04088               6.60   -30400.00
04089              10.60   -30400.00
04090              10.20   -29600.00
04091               6.00   -29600.00
04092               5.80   -29600.00
04093               8.00   -29600.00
04094               6.00   -29600.00
04095               3.00   -28800.00
04096               5.20   -28800.00
04097               5.00   -29600.00
04098               2.20   -28800.00
04099               2.80   -28800.00
04100               4.00   -28000.00
04101               1.00   -27200.00
04102               1.00   -27200.00
04103               2.80   -27200.00
04104               0.80   -26400.00
04105               0.20   -25600.00
04106               2.00   -25600.00
04107               0.60   -25600.00
04108               0.20   -24800.00
04109               0.60   -25600.00
04110               0.20   -24000.00
04111               0.40   -24000.00
04112               0.40   -24000.00
04113              -0.20   -24000.00
04114               0.20   -23200.00
04115              -0.20   -23200.00
04116              -0.40   -22400.00
04117               0.40   -21600.00
04118              -0.40   -20800.00
04119              -0.20   -20000.00
04120               0.40   -20800.00
04121              -0.20   -20000.00
04122              -0.60   -19200.00
04123               0.20   -18400.00
04124              -0.60   -18400.00
04125              -0.40   -17600.00
04126               0.20   -16800.00
04127              -0.60   -16800.00
04128              -0.40   -16800.00
04129               0.00   -16000.00
04130              -0.60   -15200.00
04131              -0.40   -14400.00
04132               0.20   -14400.00
04133              -0.40   -13600.00
04134               0.00   -13600.00
04135              -0.40   -12800.00
04136              -0.60   -12000.00
04137              -0.40   -12000.00
04138              -0.60   -11200.00
04139              -0.60   -10400.00
04140              -0.20   -10400.00
04141              -0.40    -9600.00
04142              -0.60    -8800.00
04143              -0.40    -8000.00
04144              -0.20    -8000.00
04145              -0.40    -7200.00
04146              -0.40    -7200.00
04147              -0.60    -6400.00
04148              -1.00    -4800.00
04149              -0.20    -4800.00
04150              -0.20    -4000.00
04151              -1.00    -4000.00
04152              -0.40    -3200.00
04153              -0.60    -2400.00
04154              -1.00    -1600.00
04155              -1.00     -800.00
04156              -0.80     -800.00
04157              -0.20        0.00
04158              -0.20        0.00
04159               0.40      800.00
04160               1.40     1600.00
04161               2.60     2400.00
04162              -2.80     2400.00
04163              -0.40     2400.00
04164               1.40     3200.00
04165              -1.20     4000.00
04166               1.80     4800.00
04167              21.00     5600.00
04168              22.80     7200.00
04169             -25.00     8000.00
04170             -15.80     8000.00
04171              25.00     8000.00
04172             -25.00     8000.00
04173               1.00     9600.00
04174              25.00     9600.00
04175             -25.00     9600.00
04176              25.00    11200.00
04177              25.00    11200.00
04178             -25.00    12000.00
04179              25.00    12800.00
04180             -25.00    12800.00
04181               2.20    13600.00
04182              25.00    13600.00
04183             -25.00    14400.00
04184              25.00    15200.00
04185              15.40    16000.00
04186             -25.00    16000.00
04187              25.00    16000.00
04188               4.00    17600.00
04189             -25.00    17600.00
04190              13.80    18400.00
04191              23.60    19200.00
04192             -25.00    19200.00
04193              17.60    19200.00
04194              17.20    20800.00
04195             -25.00    20800.00
04196              23.40    20800.00
04197             -14.80    21600.00
04198              -4.40    22400.00
04199              10.40    22400.00
04200              -9.80    22400.00
04201               0.20    23200.00
04202              13.80    24000.00
04203             -12.20    24800.00
04204              -3.40    24800.00
04205              15.00    24800.00
04206             -18.20    25600.00
04207               5.20    25600.00
04208               7.00    25600.00
04209              -9.20    27200.00
04210               1.80    27200.00
04211               2.20    27200.00
04212              -5.00    27200.00
04213              -1.20    28000.00
04214               4.20    28000.00
04215              -5.00    28000.00
04216              -0.60    28800.00
04217               0.60    28800.00
04218              -5.20    29600.00
04219               1.80    28800.00
04220               0.20    29600.00
04221              -4.20    30400.00
04222               2.00    30400.00
04223              -2.60    30400.00
04224              -3.80    31200.00
04225               1.00    31200.00
04226              -3.80    31200.00
04227              -1.80    31200.00
04228              -0.60    31200.00
04229              -3.00    32000.00
04230              -3.40    32000.00
04231              -3.00    31200.00
04232              -3.00    32000.00
04233              -4.00    32000.00
04234              -3.00    32800.00
04235              -4.60    32000.00
04236              -5.00    32800.00
04237              -3.60    32000.00
04238              -7.40    32800.00
04239              -5.20    32000.00
04240              -7.00    32800.00
04241              -8.80    32000.00
04242              -6.60    32800.00
04243             -11.00    32800.00
04244             -11.60    32000.00
04245             -10.80    32800.00
04246             -12.60    32800.00
04247             -13.20    32000.00
04248             -14.00    32800.00
04249             -14.00    32000.00
04250             -15.40    32000.00
04251             -17.00    32000.00
04252             -20.20    32000.00
04253             -22.60    31200.00
04254             -13.20    31200.00
04255              -6.40    31200.00
04256             -11.20    31200.00
04257             -10.80    30400.00
04258              -7.00    31200.00
04259              -6.60    31200.00
04260              -8.20    30400.00
04261              -6.80    30400.00
04262              -4.20    29600.00
04263              -5.80    30400.00
04264              -5.20    29600.00
04265              -2.20    28800.00
04266              -3.40    28800.00
04267              -4.40    28800.00
04268              -2.20    28000.00
04269              -1.20    28000.00
04270              -3.00    27200.00
04271              -2.00    27200.00
04272              -0.60    27200.00
04273              -2.20    27200.00
04274              -1.20    26400.00
04275              -0.80    25600.00
04276              -2.60    25600.00
04277              -1.20    24800.00
04278              -0.60    24800.00
04279              -1.00    24000.00
04280              -1.20    24000.00
04281              -0.60    24000.00
04282              -0.60    24000.00
04283              -0.60    22400.00
04284              -0.60    22400.00
04285              -1.20    22400.00
04286              -1.00    21600.00
04287              -0.20    20800.00
04288              -1.00    20800.00
04289              -1.00    20000.00
04290              -0.80    19200.00
04291              -1.00    19200.00
04292              -0.40    18400.00
04293              -0.60    18400.00
04294              -0.60    17600.00
04295              -0.60    16800.00
04296              -0.40    16800.00
04297              -0.20    16000.00
04298              -0.60    15200.00
04299              -0.40    15200.00
04300              -0.60    14400.00
04301              -0.40    13600.00
04302              -0.20    13600.00
04303              -0.60    12800.00
04304              -1.00    12000.00
04305              -0.20    12000.00
04306              -0.60    11200.00
04307              -0.40    10400.00
04308              -0.60    10400.00
04309               0.20     9600.00
04310              -1.00     8800.00
04311              -0.60     8000.00
04312              -0.20     8000.00
04313              -0.60     7200.00
04314              -0.60     6400.00
04315               0.20     6400.00
04316              -0.40     5600.00
04317              -0.40     4800.00
04318              -0.60     4800.00
04319               0.20     3200.00
04320               0.00     3200.00
04321              -0.60     2400.00
04322              -0.60     1600.00
04323               0.20     1600.00
04324              -0.20      800.00
04325               0.20        0.00
04326               0.40     -800.00
04327               3.00     -800.00
04328               0.60    -1600.00
04329              -1.20    -1600.00
04330               1.00    -2400.00
04331               1.00    -3200.00
04332              -0.40    -3200.00
04333               2.00    -4000.00
04334              13.40    -4800.00
04335              25.00    -6400.00
04336             -25.00    -7200.00
04337             -25.00    -7200.00
04338              21.80    -8000.00
04339               5.80    -8000.00
04340             -25.00    -8000.00
04341              25.00    -9600.00
04342              25.00    -9600.00
04343             -25.00   -10400.00
04344              25.00   -11200.00
04345              25.00   -11200.00
04346             -25.00   -11200.00
04347              25.00   -12800.00
04348             -18.00   -12800.00
04349              11.60   -13600.00
04350               6.20   -13600.00
04351             -25.00   -14400.00
04352              25.00   -15200.00
04353             -12.40   -16000.00
04354             -25.00   -16000.00
04355              25.00   -16800.00
04356              -2.00   -16800.00
04357             -25.00   -17600.00
04358              21.60   -17600.00
04359              10.40   -19200.00
04360             -25.00   -18400.00
04361              23.60   -20000.00
04362               6.20   -20000.00
04363             -17.40   -20000.00
04364              13.40   -20800.00
04365              -5.20   -21600.00
04366              -4.60   -22400.00
04367               5.00   -22400.00
04368              -2.60   -23200.00
04369              -0.40   -23200.00
04370               8.00   -24000.00
04371              -9.00   -24000.00
04372               2.20   -24000.00
04373               6.60   -24800.00
04374             -11.40   -25600.00
04375               6.60   -25600.00
04376               3.60   -25600.00
04377              -5.40   -26400.00
04378               2.60   -26400.00
04379               2.80   -26400.00
04380              -3.80   -26400.00
04381               1.20   -27200.00
04382               3.40   -27200.00
04383              -3.40   -28000.00
04384               2.00   -28800.00
04385               1.40   -28800.00
04386              -1.80   -28800.00
04387               3.00   -28800.00
04388               1.20   -28800.00
04389              -0.60   -28800.00
04390               3.60   -29600.00
04391               0.20   -29600.00
04392               0.40   -30400.00
04393               2.80   -30400.00
04394               0.40   -31200.00
04395               2.60   -30400.00
04396               2.60   -30400.00
04397               1.60   -30400.00
04398               2.00   -30400.00
04399               2.80   -30400.00
04400               2.80   -32000.00
04401               2.80   -30400.00
04402               4.80   -31200.00
04403               4.00   -31200.00
04404               5.00   -32000.00
04405               6.20   -32000.00
04406               5.20   -32000.00
04407               7.60   -32000.00
04408               7.60   -32000.00
04409               8.40   -32000.00
04410              10.60   -32000.00
04411               9.80   -31200.00
04412              11.60   -32000.00
04413              12.60   -31200.00
04414              12.40   -32000.00
04415              13.20   -32000.00
04416              14.00   -32000.00
04417              15.00   -30400.00
04418              17.20   -31200.00
04419              21.80   -31200.00
04420              19.60   -30400.00
04421               8.00   -30400.00
04422               8.20   -30400.00
04423              11.80   -30400.00
04424               7.80   -29600.00
04425               5.60   -29600.00
04426               7.40   -29600.00
04427               7.40   -29600.00
04428               4.60   -28800.00
04429               3.80   -28800.00
04430               5.60   -28800.00
04431               3.40   -28800.00
04432               1.60   -28800.00
04433               3.60   -28000.00
04434               3.00   -27200.00
04435               0.60   -27200.00
04436               2.00   -27200.00
04437               2.20   -26400.00
04438               0.40   -26400.00
04439               1.00   -26400.00
04440               2.00   -25600.00
04441               0.20   -25600.00
04442               0.60   -25600.00
04443               0.60   -24000.00
04444               0.20   -24800.00
04445               0.40   -24000.00
04446               0.40   -24000.00
04447               0.40   -23200.00
04448              -0.20   -23200.00
04449              -0.20   -22400.00
04450               0.20   -22400.00
04451               0.00   -20800.00
04452               0.20   -20800.00
04453               0.20   -20800.00
04454               0.00   -20000.00
04455              -0.20   -20000.00
04456              -0.40   -19200.00
04457              -0.20   -18400.00
04458              -0.40   -17600.00
04459              -0.20   -17600.00
04460               0.20   -17600.00
04461              -0.60   -16000.00
04462              -0.20   -16800.00
04463              -0.20   -16000.00
04464              -0.60   -15200.00
04465              -0.20   -14400.00
04466              -0.40   -13600.00
04467              -0.20   -14400.00
04468              -0.40   -12800.00
04469              -0.40   -12800.00
04470              -0.40   -12000.00
04471              -0.80   -11200.00
04472              -0.40   -11200.00
04473              -0.60   -10400.00
04474              -0.60    -9600.00
04475              -0.60    -9600.00
04476              -0.80    -8000.00
04477              -0.60    -8000.00
04478              -0.40    -7200.00
04479              -0.60    -7200.00
04480              -0.60    -6400.00
04481              -0.60    -5600.00
04482              -0.60    -5600.00
04483              -0.20    -4000.00
04484              -0.60    -4000.00
04485              -0.60    -3200.00
04486              -0.20    -3200.00
04487              -0.60    -3200.00
04488              -1.00    -1600.00
04489              -0.60    -1600.00
04490              -0.60        0.00
04491              -0.40        0.00
04492              -0.20     1600.00
04493               0.20     1600.00
04494               3.20     1600.00
04495               0.00     2400.00
04496              -2.00     3200.00
04497               1.00     3200.00
04498               1.00     3200.00
04499              -1.20     4000.00
04500               8.80     4800.00
04501              25.00     7200.00
04502             -17.20     7200.00
04503             -25.00     8000.00
04504              17.00     8000.00
04505              10.80     8000.00
04506             -25.00     8800.00
04507              25.00     9600.00
04508               3.60     9600.00
04509             -25.00    11200.00
04510              25.00    11200.00
04511             -25.00    11200.00
04512              -7.80    12000.00
04513              25.00    12000.00
04514             -25.00    12800.00
04515              25.00    14400.00
04516             -25.00    14400.00
04517             -25.00    14400.00
04518              25.00    15200.00
04519             -25.00    16000.00
04520               2.60    16000.00
04521              25.00    16000.00
04522             -25.00    17600.00
04523             -17.40    17600.00
04524              25.00    18400.00
04525             -11.40    19200.00
04526             -25.00    19200.00
04527              25.00    20800.00
04528             -19.80    20800.00
04529               0.60    21600.00
04530              13.00    21600.00
04531             -21.00    22400.00
04532              11.60    22400.00
04533              -0.60    22400.00
04534              -9.40    22400.00
04535               9.80    23200.00
04536               4.60    24000.00
04537             -17.80    24800.00
04538              13.80    24800.00
04539              -2.20    24800.00
04540             -13.40    25600.00
04541              13.20    26400.00
04542              -4.60    26400.00
04543              -4.60    27200.00
04544               3.80    27200.00
04545              -0.60    27200.00
04546              -5.60    28000.00
04547               3.40    28000.00
04548              -0.40    28000.00
04549              -5.20    28800.00
04550               2.00    28800.00
04551              -2.80    28800.00
04552              -2.80    28800.00
04553               2.60    29600.00
04554              -3.60    30400.00
04555              -1.40    30400.00
04556               1.00    30400.00
04557              -5.00    31200.00
04558              -0.40    31200.00
04559              -1.20    31200.00
04560              -3.80    31200.00
04561              -0.20    31200.00
04562              -2.00    31200.00
04563              -3.00    32800.00
04564              -3.00    32000.00
04565              -2.80    31200.00
04566              -3.40    31200.00
04567              -3.60    32000.00
04568              -3.40    32800.00
04569              -6.00    32000.00
04570              -3.80    32000.00
04571              -5.20    32000.00
04572              -7.20    32000.00
04573              -5.40    32800.00
04574              -8.60    32800.00
04575              -7.40    32800.00
04576              -8.20    32000.00
04577             -11.80    32800.00
04578             -10.20    32800.00
04579             -11.80    32000.00
04580             -13.00    32800.00
04581             -13.40    32000.00
04582             -14.60    32800.00
04583             -14.80    32000.00
04584             -16.20    32000.00
04585             -18.00    31200.00
04586             -22.20    31200.00
04587             -19.60    32000.00
04588              -8.00    31200.00
04589              -8.40    32000.00
04590             -12.20    31200.00
04591              -8.60    30400.00
04592              -6.20    31200.00
04593              -7.40    30400.00
04594              -7.60    30400.00
04595              -4.60    30400.00
04596              -4.60    30400.00
04597              -6.20    28800.00
04598              -3.80    28800.00
04599              -2.80    28800.00
04600              -4.40    28800.00
04601              -3.80    28800.00
04602              -1.80    28000.00
04603              -2.20    27200.00
04604              -3.20    27200.00
04605              -1.20    27200.00
04606              -1.80    26400.00
04607              -2.20    27200.00
04608              -1.00    25600.00
04609              -1.40    25600.00
04610              -2.00    24800.00
04611              -0.80    24800.00
04612              -1.00    24000.00
04613              -1.00    24000.00
04614              -1.20    24000.00
04615              -0.60    23200.00
04616              -0.60    22400.00
04617              -1.00    22400.00
04618              -0.40    21600.00
04619              -0.80    21600.00
04620              -0.40    20800.00
04621              -0.40    20800.00
04622              -0.60    20000.00
04623              -0.60    19200.00
04624              -1.00    19200.00
04625              -0.20    18400.00
04626              -0.40    18400.00
04627              -1.00    17600.00
04628              -0.20    17600.00
04629              -0.60    16800.00
04630              -0.40    16000.00
04631              -0.60    16000.00
04632              -0.40    14400.00
04633              -0.60    14400.00
04634              -0.60    14400.00
04635              -0.20    13600.00
04636              -0.40    12800.00
04637              -0.80    12800.00
04638              -0.40    12000.00
04639               0.20    11200.00
04640              -0.40    11200.00
04641              -0.60     9600.00
04642               0.00     9600.00
04643              -0.40     8800.00
04644              -0.60     8800.00
04645               0.00     8000.00
04646              -0.60     8000.00
04647              -1.00     6400.00
04648              -0.20     6400.00
04649              -0.40     5600.00
04650              -0.40     4800.00
04651              -0.20     4800.00
04652              -0.20     4000.00
04653              -0.20     3200.00
04654              -0.20     3200.00
04655              -0.80     1600.00
04656              -0.20     1600.00
04657              -0.20     1600.00
04658              -0.40        0.00
04659               0.40        0.00
04660               1.20     -800.00
04661               3.40     -800.00
04662              -1.40    -1600.00
04663              -0.40    -1600.00
04664               1.20    -3200.00
04665               0.40    -3200.00
04666              -0.60    -4000.00
04667               6.20    -4000.00
04668              23.40    -4800.00
04669               7.60    -7200.00
04670             -25.00    -8000.00
04671              -5.40    -8000.00
04672              25.00    -8000.00
04673             -25.00    -8000.00
04674             -20.60    -8000.00
04675              25.00    -9600.00
04676             -25.00    -9600.00
04677             -25.00   -10400.00
04678              25.00   -11200.00
04679             -25.00   -11200.00
04680              -6.20   -12000.00
04681              25.00   -12800.00
04682             -22.60   -12800.00
04683              25.00   -14400.00
04684             -25.00   -14400.00
04685               6.00   -14400.00
04686              25.00   -14400.00
04687             -25.00   -16000.00
04688               9.40   -16000.00
04689              25.00   -16800.00
04690             -25.00   -17600.00
04691              -9.80   -17600.00
04692              25.00   -18400.00
04693             -23.80   -18400.00
04694              -8.40   -19200.00
04695              25.00   -20000.00
04696             -17.40   -20000.00
04697               0.20   -20800.00
04698               8.20   -21600.00
04699             -10.00   -20800.00
04700               3.00   -22400.00
04701               3.40   -22400.00
04702              -5.00   -23200.00
04703               6.60   -23200.00
04704               0.20   -24000.00
04705              -9.20   -24000.00
04706              10.60   -24800.00
04707              -4.40   -24800.00
04708              -4.60   -25600.00
04709               9.20   -25600.00
04710              -3.80   -25600.00
04711              -2.80   -26400.00
04712               4.60   -27200.00
04713              -0.60   -27200.00
04714              -2.20   -27200.00
04715               4.20   -27200.00
04716              -0.20   -28000.00
04717              -1.80   -28000.00
04718               2.80   -28800.00
04719              -0.60   -28800.00
04720               0.40   -28800.00
04721               3.20   -29600.00
04722              -1.20   -29600.00
04723               1.80   -29600.00
04724               2.20   -29600.00
04725              -1.20   -29600.00
04726               2.20   -30400.00
04727               2.00   -30400.00
04728               1.00   -30400.00
04729               2.80   -31200.00
04730               2.00   -30400.00
04731               1.80   -31200.00
04732               2.20   -31200.00
04733               3.00   -30400.00
04734               3.00   -31200.00
04735               3.60   -32000.00
04736               4.20   -31200.00
04737               4.00   -32000.00
04738               5.60   -32000.00
04739               5.00   -31200.00
04740               6.00   -32000.00
04741               7.80   -32000.00
04742               7.00   -32000.00
04743               9.80   -32000.00
04744              10.00   -32000.00
04745              10.60   -32000.00
04746              12.40   -32000.00
04747              12.40   -32000.00
04748              13.00   -31200.00
04749              13.80   -31200.00
04750              14.60   -32000.00
04751              15.80   -32000.00
04752              19.60   -31200.00
04753              21.80   -30400.00
04754              14.00   -31200.00
04755               5.80   -30400.00
04756              10.60   -30400.00
04757              10.80   -30400.00
04758               6.20   -29600.00
04759               6.20   -29600.00
04760               8.20   -29600.00
04761               6.20   -29600.00
04762               3.60   -28800.00
04763               5.20   -28800.00
04764               5.40   -28800.00
04765               2.00   -28000.00
04766               2.20   -28000.00
04767               4.00   -28000.00
04768               1.40   -27200.00
04769               0.60   -27200.00
04770               3.40   -26400.00
04771               1.00   -26400.00
04772              -0.20   -26400.00
04773               2.00   -26400.00
04774               1.20   -25600.00
04775               0.20   -25600.00
04776               1.20   -24800.00
04777               0.60   -24000.00
04778               0.40   -24000.00
04779               0.60   -23200.00
04780               0.20   -24000.00
04781               0.00   -23200.00
04782              -0.20   -22400.00
04783              -0.40   -22400.00
04784               0.00   -22400.00
04785              -0.20   -20800.00
04786              -0.40   -20800.00
04787               0.20   -20800.00
04788               0.20   -20000.00
04789              -0.20   -20000.00
04790               0.20   -19200.00
04791              -0.40   -18400.00
04792              -0.20   -17600.00
04793               0.40   -17600.00
04794              -0.60   -16800.00
04795              -0.20   -16800.00
04796              -0.40   -16000.00
04797              -1.00   -16000.00
04798               0.00   -16000.00
04799              -0.60   -14400.00
04800              -0.80   -13600.00
04801              -0.20   -13600.00
04802              -0.60   -13600.00
04803              -0.60   -12800.00
04804              -0.60   -12000.00
04805              -0.60   -11200.00
04806              -0.20   -10400.00
04807              -0.60   -10400.00
04808              -0.60    -9600.00
04809              -0.40    -8800.00
04810              -0.80    -8000.00
04811              -0.40    -7200.00
04812              -0.20    -8000.00
04813              -1.00    -6400.00
04814              -0.60    -6400.00
04815              -0.60    -5600.00
04816              -1.00    -4800.00
04817              -0.40    -4000.00
04818              -0.60    -3200.00
04819              -0.60    -3200.00
04820              -0.20    -2400.00
04821              -0.60    -1600.00
04822              -1.00     -800.00
04823              -0.60     -800.00
04824              -0.60        0.00
04825               0.00        0.00
04826               0.20      800.00
04827               1.40     1600.00
04828               2.80     1600.00
04829              -2.80     2400.00
04830              -1.00     3200.00
04831               1.20     3200.00
04832              -0.60     4800.00
04833               1.20     4000.00
04834              19.80     5600.00
04835              25.00     7200.00
04836             -25.00     7200.00
04837             -18.20     8000.00
04838              25.00     8000.00
04839             -25.00     8000.00
04840              -3.60     9600.00
04841              25.00     9600.00
04842             -25.00     9600.00
04843              25.00    11200.00
04844              25.00    11200.00
04845             -25.00    11200.00
04846              25.00    12800.00
04847             -25.00    12800.00
04848              -4.40    13600.00
04849              25.00    14400.00
04850             -25.00    14400.00
04851              25.00    15200.00
04852              22.80    15200.00
04853             -25.00    16000.00
04854              25.00    16800.00
04855               8.20    16800.00
04856             -25.00    18400.00
04857              11.60    18400.00
04858              25.00    19200.00
04859             -25.00    19200.00
04860              14.20    20000.00
04861              20.20    20800.00
04862             -25.00    20800.00
04863              22.80    21600.00
04864             -13.20    21600.00
04865              -6.20    22400.00
04866              11.40    22400.00
04867              -9.20    23200.00
04868              -1.00    24000.00
04869              14.20    24000.00
04870             -11.00    24000.00
04871              -5.60    24800.00
04872              15.60    24800.00
04873             -17.40    25600.00
04874               3.00    25600.00
04875               7.60    26400.00
04876              -9.20    26400.00
04877               1.00    27200.00
04878               2.60    27200.00
04879              -4.40    28000.00
04880              -2.20    28000.00
04881               4.40    28000.00
04882              -5.20    28800.00
04883              -1.00    28800.00
04884               1.40    28800.00
04885              -5.00    28800.00
04886               1.40    28800.00
04887               0.40    29600.00
04888              -5.00    30400.00
04889               2.00    31200.00
04890              -2.40    30400.00
04891              -4.00    31200.00
04892               1.00    31200.00
04893              -4.20    31200.00
04894              -1.80    31200.00
04895              -0.20    30400.00
04896              -3.40    32000.00
04897              -3.00    32000.00
04898              -2.80    31200.00
04899              -2.60    32800.00
04900              -3.80    32000.00
04901              -2.80    32800.00
04902              -4.20    32000.00
04903              -5.00    32800.00
04904              -3.80    32000.00
04905              -7.00    32800.00
04906              -6.00    32800.00
04907              -6.80    32000.00
04908              -9.20    32000.00
04909              -6.60    32800.00
04910             -10.40    32000.00
04911             -11.40    32000.00
04912             -10.60    32000.00
04913             -12.60    32800.00
04914             -12.60    32000.00
04915             -14.00    32000.00
04916             -14.00    32000.00
04917             -15.40    32000.00
04918             -16.60    32000.00
04919             -19.60    32800.00
04920             -22.80    31200.00
04921             -13.40    30400.00
04922              -6.60    31200.00
04923             -11.40    31200.00
04924             -10.80    30400.00
04925              -7.00    31200.00
04926              -6.80    31200.00
04927              -8.20    30400.00
04928              -6.60    30400.00
04929              -4.40    29600.00
04930              -5.80    29600.00
04931              -5.20    28800.00
04932              -2.80    28800.00
04933              -3.40    28800.00
04934              -4.40    28800.00
04935              -2.60    28000.00
04936              -1.80    28000.00
04937              -3.40    28000.00
04938              -2.20    27200.00
04939              -1.20    27200.00
04940              -2.80    27200.00
04941              -1.20    26400.00
04942              -1.00    25600.00
04943              -2.40    25600.00
04944              -0.60    24800.00
04945              -0.40    25600.00
04946              -1.40    24800.00
04947              -0.40    24000.00
04948              -0.60    24000.00
04949              -1.40    24000.00
04950              -0.60    22400.00
04951               0.60    22400.00
04952              -1.40    22400.00
04953              -2.00    21600.00
04954               1.00    21600.00
04955              -1.00    20800.00
04956              -2.20    19200.00
04957               0.00    19200.00
04958               0.60    19200.00
04959              -1.80    18400.00
04960              -0.40    17600.00
04961               1.40    17600.00
04962              -1.80    16800.00
04963              -1.20    16000.00
04964               1.80    16000.00
04965              -1.40    15200.00
04966              -1.80    14400.00
04967               1.40    14400.00
04968              -0.20    13600.00
04969              -1.40    13600.00
04970               0.00    12800.00
04971               0.00    12000.00
04972              -1.20    12000.00
04973              -0.40    11200.00
04974               0.40    11200.00
04975              -0.60     9600.00
04976              -0.20     9600.00
04977               0.20     8800.00
04978              -0.40     8000.00
04979              -0.60     8000.00
04980              -0.20     7200.00
04981              -0.40     6400.00
04982              -0.60     6400.00
04983              -0.40     5600.00
04984               0.00     4800.00
04985              -0.40     4000.00
04986               0.00     3200.00
04987               0.20     3200.00
04988              -0.40     2400.00
04989              -0.60     1600.00
04990              -0.40     1600.00
04991              -0.20      800.00
04992               0.00        0.00
04993               0.20     -800.00
04994               3.00     -800.00
04995               1.20    -1600.00
04996              -2.00    -2400.00
04997               0.60    -1600.00
04998               1.00    -3200.00
04999              -0.60    -3200.00
05000               1.40    -4000.00
