Unit:(mV)
                     CH1         CH2
Frequency              ? 299.818 kHz
00001             -18.20    -8000.00
00002              25.00    -8000.00
00003             -14.20    -8000.00
00004             -25.00    -8000.00
00005              25.00    -9600.00
00006              15.40   -10400.00
00007             -25.00   -10400.00
00008              25.00   -11200.00
00009              -8.40   -12000.00
00010             -25.00   -12000.00
00011              25.00   -12800.00
00012             -25.00   -12800.00
00013              22.00   -13600.00
00014              -5.00   -14400.00
00015             -19.60   -15200.00
00016              25.00   -15200.00
00017             -25.00   -16000.00
00018              -6.80   -16000.00
00019              25.00   -16800.00
00020             -14.00   -17600.00
00021             -16.40   -17600.00
00022              25.00   -18400.00
00023              -9.60   -19200.00
00024             -16.80   -20000.00
00025              25.00   -20800.00
00026             -15.60   -20800.00
00027              -2.20   -20800.00
00028              17.00   -22400.00
00029             -15.60   -22400.00
00030               4.20   -23200.00
00031              10.60   -23200.00
00032              -7.80   -23200.00
00033               3.40   -24000.00
00034              10.80   -24000.00
00035             -12.60   -24800.00
00036               7.60   -24800.00
00037               4.60   -25600.00
00038              -8.60   -26400.00
00039              10.00   -26400.00
00040               0.20   -26400.00
00041              -2.20   -27200.00
00042               5.20   -27200.00
00043               1.00   -27200.00
00044              -1.80   -27200.00
00045               5.20   -28800.00
00046               1.00   -28800.00
00047              -1.40   -28800.00
00048               5.40   -28800.00
00049              -0.60   -29600.00
00050               0.20   -29600.00
00051               5.20   -29600.00
00052              -0.60   -29600.00
00053               1.00   -30400.00
00054               3.80   -30400.00
00055              -1.20   -30400.00
00056               2.20   -31200.00
00057               2.60   -31200.00
00058               0.00   -32000.00
00059               3.40   -32000.00
00060               1.00   -32000.00
00061               1.00   -32000.00
00062               2.00   -32000.00
00063               0.60   -32000.00
00064               1.20   -32000.00
00065               2.20   -32000.00
00066               1.20   -32800.00
00067               0.60   -32000.00
00068               2.80   -32000.00
00069               0.60   -32000.00
00070               0.40   -32800.00
00071               3.40   -32800.00
00072               0.40   -32800.00
00073               2.00   -32800.00
00074               2.40   -32800.00
00075               0.20   -32800.00
00076               2.60   -32000.00
00077               1.80   -32800.00
00078               0.40   -32000.00
00079               1.80   -32800.00
00080               1.20   -32000.00
00081               0.60   -32000.00
00082               1.80   -32000.00
00083               1.60   -32000.00
00084               1.00   -32000.00
00085               2.00   -31200.00
00086               2.00   -31200.00
00087               1.00   -30400.00
00088               1.80   -31200.00
00089               1.20   -30400.00
00090               1.20   -30400.00
00091               2.00   -30400.00
00092               1.40   -30400.00
00093               1.20   -29600.00
00094               1.80   -29600.00
00095               1.00   -29600.00
00096               1.20   -28800.00
00097               1.20   -28800.00
00098               1.40   -28800.00
00099               1.20   -28000.00
00100               1.20   -27200.00
00101               1.00   -27200.00
00102               1.40   -27200.00
00103               1.40   -26400.00
00104               1.40   -26400.00
00105               1.40   -25600.00
00106               1.20   -25600.00
00107               0.40   -25600.00
00108               1.40   -24800.00
00109               1.80   -24000.00
00110               0.60   -24000.00
00111               1.80   -23200.00
00112               1.00   -23200.00
00113               0.60   -23200.00
00114               1.00   -22400.00
00115               0.60   -22400.00
00116               1.00   -20800.00
00117               0.60   -21600.00
00118               1.00   -20800.00
00119               0.60   -20000.00
00120               0.20   -19200.00
00121               1.00   -18400.00
00122               0.20   -18400.00
00123               0.40   -18400.00
00124               1.00   -17600.00
00125              -0.40   -17600.00
00126               0.40   -16800.00
00127               0.20   -16000.00
00128               0.20   -16000.00
00129               0.60   -15200.00
00130               0.20   -14400.00
00131               0.40   -13600.00
00132               0.20   -12800.00
00133               0.20   -13600.00
00134               0.00   -12000.00
00135               0.00   -12800.00
00136               0.40   -11200.00
00137               0.00   -10400.00
00138               0.00    -9600.00
00139               0.20   -10400.00
00140              -0.40    -9600.00
00141               0.20    -8000.00
00142              -0.20    -8000.00
00143              -0.60    -7200.00
00144               0.00    -6400.00
00145              -0.40    -5600.00
00146              -0.20    -4800.00
00147              -0.20    -4000.00
00148              -0.40    -4000.00
00149              -0.20    -3200.00
00150               0.20    -3200.00
00151              -0.60    -3200.00
00152              -0.40    -1600.00
00153              -0.60     -800.00
00154              -1.00     -800.00
00155               0.20      800.00
00156               0.20      800.00
00157              -0.20      800.00
00158               3.40     1600.00
00159              -1.20     3200.00
00160              -2.00     2400.00
00161               1.20     3200.00
00162               0.20     4000.00
00163              -1.20     4800.00
00164              13.60     5600.00
00165              25.00     7200.00
00166             -25.00     8000.00
00167             -25.00     8000.00
00168              25.00     8000.00
00169              -8.60     8800.00
00170             -25.00     8800.00
00171              25.00     9600.00
00172             -25.00     9600.00
00173             -25.00    11200.00
00174              25.00    12000.00
00175             -25.00    11200.00
00176              24.40    12800.00
00177              23.80    12800.00
00178             -25.00    13600.00
00179              25.00    14400.00
00180             -25.00    15200.00
00181               6.20    15200.00
00182              25.00    16000.00
00183             -25.00    16800.00
00184              25.00    17600.00
00185              20.60    17600.00
00186             -25.00    17600.00
00187              -2.20    18400.00
00188              25.00    19200.00
00189             -25.00    20800.00
00190              -1.00    20800.00
00191              25.00    20800.00
00192             -25.00    21600.00
00193              20.20    21600.00
00194              -2.80    22400.00
00195             -21.00    22400.00
00196              15.20    24000.00
00197              -4.20    24000.00
00198              -9.20    24000.00
00199              10.80    24800.00
00200              -2.20    24800.00
00201             -16.20    25600.00
00202              14.00    25600.00
00203             -11.40    25600.00
00204              -4.40    26400.00
00205               9.00    27200.00
00206             -10.60    27200.00
00207               0.40    28000.00
00208               0.60    28000.00
00209              -5.40    28800.00
00210              -2.20    28800.00
00211               2.20    28800.00
00212              -5.40    29600.00
00213              -2.80    28800.00
00214               1.20    30400.00
00215              -6.80    30400.00
00216              -0.40    31200.00
00217               1.60    31200.00
00218              -6.60    31200.00
00219               1.00    31200.00
00220              -1.40    31200.00
00221              -6.00    31200.00
00222               1.00    32800.00
00223              -3.40    32000.00
00224              -2.80    32800.00
00225               1.00    32000.00
00226              -3.80    32800.00
00227              -2.20    32800.00
00228              -1.20    32800.00
00229              -3.60    33600.00
00230              -1.80    33600.00
00231              -0.60    33600.00
00232              -2.60    32800.00
00233              -3.60    33600.00
00234              -0.60    33600.00
00235              -3.40    33600.00
00236              -2.20    33600.00
00237              -1.40    33600.00
00238              -4.40    33600.00
00239               0.40    32800.00
00240              -2.00    33600.00
00241              -4.00    33600.00
00242              -0.40    33600.00
00243              -2.80    33600.00
00244              -2.00    33600.00
00245              -1.20    32800.00
00246              -3.60    32800.00
00247              -2.60    33600.00
00248              -1.20    32800.00
00249              -2.20    32800.00
00250              -2.80    32000.00
00251              -1.20    32800.00
00252              -2.60    32000.00
00253              -3.00    32000.00
00254              -2.20    32000.00
00255              -3.20    31200.00
00256              -1.40    32000.00
00257              -0.60    31200.00
00258              -2.60    31200.00
00259              -2.00    30400.00
00260              -2.20    30400.00
00261              -2.80    30400.00
00262              -2.20    30400.00
00263              -2.80    30400.00
00264              -2.00    29600.00
00265              -1.40    28800.00
00266              -1.80    28800.00
00267              -2.00    28800.00
00268              -2.20    28000.00
00269              -2.00    28000.00
00270              -2.20    27200.00
00271              -2.20    27200.00
00272              -2.20    27200.00
00273              -2.00    26400.00
00274              -1.40    26400.00
00275              -1.00    25600.00
00276              -1.20    25600.00
00277              -1.40    24800.00
00278              -2.60    24800.00
00279              -2.20    24000.00
00280              -2.20    24000.00
00281              -1.60    24000.00
00282              -1.40    22400.00
00283              -1.80    22400.00
00284              -1.00    21600.00
00285              -1.40    21600.00
00286              -1.80    21600.00
00287              -1.80    20800.00
00288              -1.80    20800.00
00289              -1.00    19200.00
00290              -1.40    19200.00
00291              -1.40    18400.00
00292              -1.00    17600.00
00293              -1.40    17600.00
00294              -0.60    16800.00
00295              -1.00    16000.00
00296              -2.00    16000.00
00297              -1.20    14400.00
00298              -1.20    15200.00
00299              -1.20    14400.00
00300              -1.20    13600.00
00301              -0.60    12800.00
00302              -0.40    12000.00
00303              -0.40    12000.00
00304              -0.60    11200.00
00305              -1.60    11200.00
00306              -0.60     9600.00
00307              -1.00     9600.00
00308              -1.40     8800.00
00309               0.40     8000.00
00310              -1.00     8000.00
00311              -1.40     7200.00
00312               0.20     7200.00
00313              -0.80     5600.00
00314              -0.60     5600.00
00315              -1.00     4800.00
00316              -0.60     3200.00
00317               1.00     3200.00
00318              -1.40     2400.00
00319              -1.20     1600.00
00320               1.20     1600.00
00321              -1.20     1600.00
00322              -0.20        0.00
00323               1.40        0.00
00324               1.20     -800.00
00325               3.40     -800.00
00326              -0.80    -1600.00
00327              -1.20    -2400.00
00328               0.60    -3200.00
00329               1.00    -3200.00
00330               0.00    -4000.00
00331              10.00    -4800.00
00332              25.00    -5600.00
00333             -11.00    -7200.00
00334             -25.00    -8000.00
00335              12.40    -8000.00
00336              18.00    -8000.00
00337             -25.00    -8000.00
00338               4.40    -8000.00
00339              25.00   -10400.00
00340             -25.00   -10400.00
00341               3.40   -11200.00
00342              25.00   -11200.00
00343             -25.00   -12000.00
00344              24.60   -12800.00
00345              11.80   -12800.00
00346             -19.00   -13600.00
00347              25.00   -14400.00
00348             -25.00   -15200.00
00349              22.60   -15200.00
00350              17.00   -16000.00
00351             -25.00   -16800.00
00352              23.80   -16800.00
00353              14.00   -17600.00
00354             -25.00   -17600.00
00355               6.80   -17600.00
00356              23.00   -19200.00
00357             -25.00   -20000.00
00358              17.00   -20000.00
00359              16.60   -20800.00
00360             -23.00   -20800.00
00361              18.80   -21600.00
00362              -3.00   -22400.00
00363             -11.80   -22400.00
00364              12.80   -23200.00
00365               1.20   -23200.00
00366              -5.80   -23200.00
00367              14.00   -24000.00
00368              -3.60   -24800.00
00369              -5.80   -24800.00
00370              13.00   -25600.00
00371              -8.60   -25600.00
00372               2.80   -26400.00
00373               7.40   -26400.00
00374              -4.60   -27200.00
00375               3.00   -27200.00
00376               3.80   -27200.00
00377              -1.40   -27200.00
00378               2.20   -28800.00
00379               3.80   -28800.00
00380              -2.20   -28800.00
00381               2.40   -28800.00
00382               3.60   -29600.00
00383              -2.00   -29600.00
00384               4.20   -29600.00
00385               3.00   -29600.00
00386              -2.20   -30400.00
00387               4.00   -30400.00
00388               1.00   -30400.00
00389              -1.80   -30400.00
00390               3.60   -31200.00
00391               0.60   -32000.00
00392               1.40   -31200.00
00393               3.00   -32000.00
00394               0.20   -32000.00
00395               1.20   -32000.00
00396               1.80   -32000.00
00397               1.00   -32000.00
00398               1.60   -32800.00
00399               2.00   -32800.00
00400               0.80   -32800.00
00401               1.40   -32800.00
00402               2.60   -32800.00
00403               0.20   -32800.00
00404               2.00   -32000.00
00405               2.00   -32800.00
00406               0.40   -32800.00
00407               2.40   -32000.00
00408               1.00   -32800.00
00409               1.00   -32800.00
00410               2.80   -32800.00
00411               1.00   -32800.00
00412               1.80   -32800.00
00413               1.40   -32000.00
00414               1.00   -32800.00
00415               1.40   -32000.00
00416               2.00   -32000.00
00417               1.00   -32000.00
00418               1.20   -32000.00
00419               2.40   -32000.00
00420               1.00   -31200.00
00421               1.60   -30400.00
00422               2.20   -31200.00
00423               0.40   -30400.00
00424               2.00   -30400.00
00425               2.00   -30400.00
00426              -0.20   -28800.00
00427               2.20   -29600.00
00428               1.80   -28800.00
00429               0.60   -28800.00
00430               2.00   -29600.00
00431               1.80   -28800.00
00432               0.40   -28800.00
00433               1.40   -28000.00
00434               1.80   -27200.00
00435               0.60   -27200.00
00436               1.40   -26400.00
00437               1.20   -26400.00
00438               0.40   -27200.00
00439               1.80   -25600.00
00440               1.00   -25600.00
00441               1.00   -25600.00
00442               2.00   -24800.00
00443               0.80   -24000.00
00444               0.60   -24000.00
00445               1.20   -23200.00
00446               0.40   -24000.00
00447               1.20   -23200.00
00448               1.00   -23200.00
00449               0.40   -21600.00
00450               0.60   -21600.00
00451               0.60   -20800.00
00452               0.40   -20800.00
00453               0.60   -20000.00
00454               0.60   -19200.00
00455               0.20   -18400.00
00456               1.00   -19200.00
00457               1.00   -17600.00
00458               0.20   -16800.00
00459               0.80   -16800.00
00460               0.60   -16800.00
00461               0.20   -16000.00
00462               0.60   -15200.00
00463               0.40   -15200.00
00464              -0.40   -14400.00
00465               0.40   -13600.00
00466               0.00   -13600.00
00467              -0.40   -12800.00
00468              -0.20   -12000.00
00469               0.40   -12800.00
00470               0.20   -11200.00
00471              -0.20   -10400.00
00472               0.20    -9600.00
00473               0.00    -9600.00
00474               0.00    -8800.00
00475               0.40    -8000.00
00476              -0.20    -7200.00
00477               0.40    -6400.00
00478               0.00    -6400.00
00479              -0.60    -6400.00
00480               0.20    -5600.00
00481              -0.40    -4000.00
00482              -0.60    -4000.00
00483               0.20    -3200.00
00484              -0.20    -3200.00
00485              -0.60    -1600.00
00486               0.00     -800.00
00487              -0.40     -800.00
00488              -0.40        0.00
00489               0.20      800.00
00490               0.20      800.00
00491               2.00     1600.00
00492               2.20     2400.00
00493              -3.00     2400.00
00494              -0.40     3200.00
00495               1.00     3200.00
00496              -2.00     4000.00
00497               3.80     4800.00
00498              25.00     7200.00
00499               7.40     7200.00
00500             -25.00     8000.00
00501               1.80     8000.00
00502              25.00     8800.00
00503             -25.00     8800.00
00504              21.40     9600.00
00505              25.00     9600.00
00506             -25.00    10400.00
00507              25.00    12000.00
00508              20.60    12000.00
00509             -25.00    12800.00
00510              25.00    12800.00
00511             -25.00    12800.00
00512              25.00    14400.00
00513              25.00    14400.00
00514             -25.00    14400.00
00515              25.00    16000.00
00516             -21.00    16000.00
00517             -25.00    16000.00
00518              25.00    17600.00
00519             -16.60    18400.00
00520             -23.40    18400.00
00521              21.40    18400.00
00522               5.80    19200.00
00523             -25.00    20000.00
00524              25.00    20800.00
00525              -8.40    21600.00
00526             -16.00    21600.00
00527              25.00    22400.00
00528             -25.00    22400.00
00529               1.80    22400.00
00530               8.00    24000.00
00531             -12.20    24000.00
00532               0.20    24000.00
00533              12.20    24800.00
00534             -16.20    24800.00
00535               1.00    25600.00
00536               7.00    25600.00
00537             -18.00    25600.00
00538               9.20    26400.00
00539              -2.00    27200.00
00540              -7.00    27200.00
00541               3.60    28000.00
00542              -3.60    28000.00
00543              -5.00    28000.00
00544               1.00    28800.00
00545              -1.00    28800.00
00546              -6.00    28800.00
00547               1.00    29600.00
00548              -2.60    30400.00
00549              -5.00    30400.00
00550               2.60    30400.00
00551              -3.60    30400.00
00552              -3.00    31200.00
00553               1.40    31200.00
00554              -5.40    32000.00
00555              -1.60    31200.00
00556              -0.60    32000.00
00557              -5.20    32800.00
00558               0.40    32800.00
00559              -1.20    32800.00
00560              -3.80    33600.00
00561              -1.40    32000.00
00562              -3.00    32800.00
00563              -1.80    32800.00
00564              -1.80    32800.00
00565              -1.60    32800.00
00566              -3.00    33600.00
00567              -2.00    33600.00
00568              -1.20    33600.00
00569              -3.40    32800.00
00570              -0.60    33600.00
00571              -2.80    33600.00
00572              -2.80    33600.00
00573              -0.40    33600.00
00574              -4.40    33600.00
00575              -1.40    33600.00
00576              -1.40    33600.00
00577              -3.00    33600.00
00578              -1.60    33600.00
00579              -2.80    33600.00
00580              -2.80    33600.00
00581              -2.20    32800.00
00582              -1.80    32800.00
00583              -2.20    32800.00
00584              -2.00    32800.00
00585              -2.00    32000.00
00586              -3.00    32000.00
00587              -2.20    32000.00
00588              -2.80    32800.00
00589              -2.80    32000.00
00590              -1.00    31200.00
00591              -2.00    31200.00
00592              -2.20    31200.00
00593              -2.00    31200.00
00594              -2.20    31200.00
00595              -2.20    30400.00
00596              -1.80    30400.00
00597              -2.20    29600.00
00598              -2.20    28800.00
00599              -2.20    28800.00
00600              -1.80    28800.00
00601              -1.40    28800.00
00602              -2.00    28000.00
00603              -2.00    27200.00
00604              -2.60    28000.00
00605              -1.80    27200.00
00606              -2.20    26400.00
00607              -2.00    26400.00
00608              -0.60    26400.00
00609              -1.20    25600.00
00610              -1.20    25600.00
00611              -2.00    24800.00
00612              -2.40    24800.00
00613              -1.80    24000.00
00614              -1.80    24000.00
00615              -1.40    23200.00
00616              -1.40    22400.00
00617              -1.20    22400.00
00618              -1.20    21600.00
00619              -1.80    21600.00
00620              -1.40    20800.00
00621              -2.00    20000.00
00622              -1.40    19200.00
00623              -1.00    19200.00
00624              -1.60    18400.00
00625              -1.00    18400.00
00626              -1.20    17600.00
00627              -1.20    17600.00
00628              -0.60    16000.00
00629              -1.40    16000.00
00630              -1.20    15200.00
00631              -1.20    14400.00
00632              -1.20    14400.00
00633              -1.40    13600.00
00634              -1.20    13600.00
00635              -1.00    12800.00
00636              -0.40    12000.00
00637              -0.60    11200.00
00638              -1.20    11200.00
00639              -1.00    10400.00
00640              -1.20     9600.00
00641              -1.80     8800.00
00642              -0.60     8800.00
00643              -0.60     8000.00
00644              -0.60     8000.00
00645              -0.40     7200.00
00646              -0.40     6400.00
00647              -1.20     5600.00
00648              -0.60     4800.00
00649              -1.00     4800.00
00650              -0.40     3200.00
00651              -0.40     3200.00
00652              -0.80     2400.00
00653              -0.60     2400.00
00654              -0.40      800.00
00655              -0.40      800.00
00656               0.40        0.00
00657               0.40     -800.00
00658               3.60     -800.00
00659               0.40    -2400.00
00660              -1.60    -1600.00
00661               1.40    -2400.00
00662               1.20    -3200.00
00663              -0.60    -3200.00
00664               3.80    -4000.00
00665              18.00    -4800.00
00666              22.00    -6400.00
00667             -25.00    -7200.00
00668             -21.80    -8000.00
00669              25.00    -8000.00
00670             -10.80    -8000.00
00671             -25.00    -8000.00
00672              25.00    -9600.00
00673              23.60   -10400.00
00674             -25.00   -10400.00
00675              25.00   -11200.00
00676               0.40   -12000.00
00677             -25.00   -12800.00
00678              25.00   -12800.00
00679             -25.00   -12800.00
00680              18.80   -14400.00
00681              -1.00   -14400.00
00682             -23.40   -14400.00
00683              25.00   -16000.00
00684             -23.60   -16800.00
00685              -9.80   -16800.00
00686              25.00   -16800.00
00687             -12.00   -17600.00
00688             -18.00   -19200.00
00689              25.00   -18400.00
00690              -6.00   -18400.00
00691             -19.40   -20000.00
00692              25.00   -20000.00
00693             -12.40   -20800.00
00694              -5.00   -21600.00
00695              18.00   -22400.00
00696             -15.00   -22400.00
00697               1.80   -23200.00
00698              10.80   -23200.00
00699              -7.00   -23200.00
00700               2.60   -24000.00
00701              11.60   -24000.00
00702             -11.60   -24000.00
00703               6.80   -24800.00
00704               6.20   -25600.00
00705              -9.80   -25600.00
00706               9.40   -26400.00
00707               1.00   -26400.00
00708              -3.80   -27200.00
00709               5.20   -27200.00
00710               1.80   -27200.00
00711              -2.00   -27200.00
00712               5.00   -28000.00
00713               1.80   -28800.00
00714              -2.80   -28800.00
00715               4.60   -29600.00
00716              -0.20   -29600.00
00717              -0.60   -29600.00
00718               5.80   -29600.00
00719               0.40   -29600.00
00720               1.00   -29600.00
00721               4.00   -30400.00
00722              -1.20   -31200.00
00723               1.00   -30400.00
00724               2.00   -31200.00
00725               0.00   -32000.00
00726               3.00   -32000.00
00727               1.80   -32000.00
00728               0.40   -32000.00
00729               2.20   -32000.00
00730               2.00   -32000.00
00731               0.60   -32000.00
00732               1.20   -32800.00
00733               2.20   -32000.00
00734               0.00   -32800.00
00735               2.00   -32800.00
00736               3.60   -32800.00
00737               1.00   -32800.00
00738               1.80   -32800.00
00739               1.00   -32800.00
00740               1.00   -32000.00
00741               2.00   -32800.00
00742               1.20   -32000.00
00743               1.80   -32800.00
00744               1.80   -32800.00
00745               1.00   -32000.00
00746               1.20   -32800.00
00747               2.20   -32000.00
00748               1.80   -32000.00
00749               0.60   -32000.00
00750               2.00   -32000.00
00751               1.00   -32000.00
00752               1.20   -32000.00
00753               2.40   -32000.00
00754               1.00   -31200.00
00755               1.80   -30400.00
00756               1.80   -30400.00
00757               1.00   -29600.00
00758               1.80   -30400.00
00759               1.20   -29600.00
00760               0.80   -29600.00
00761               1.80   -29600.00
00762               1.40   -28800.00
00763               1.20   -28800.00
00764               1.60   -28800.00
00765               2.00   -28800.00
00766               0.40   -28000.00
00767               1.00   -28000.00
00768               1.00   -27200.00
00769               1.00   -27200.00
00770               1.40   -27200.00
00771               2.00   -27200.00
00772               1.00   -26400.00
00773               1.00   -25600.00
00774               0.20   -25600.00
00775               0.80   -25600.00
00776               1.00   -24000.00
00777               1.00   -24000.00
00778               1.40   -24000.00
00779               1.00   -23200.00
00780               0.80   -23200.00
00781               1.00   -22400.00
00782               0.40   -22400.00
00783               0.80   -21600.00
00784               1.00   -20800.00
00785               0.40   -20800.00
00786               0.60   -20000.00
00787               0.20   -20000.00
00788               0.40   -18400.00
00789               0.40   -18400.00
00790               0.60   -17600.00
00791               0.40   -17600.00
00792               0.40   -16800.00
00793               0.40   -16800.00
00794               0.20   -16000.00
00795               0.60   -16000.00
00796               0.40   -14400.00
00797               0.40   -14400.00
00798               1.20   -14400.00
00799               0.40   -13600.00
00800               0.20   -12800.00
00801               0.20   -12000.00
00802              -0.20   -11200.00
00803               0.20   -11200.00
00804               0.20   -10400.00
00805               0.40   -10400.00
00806               0.20    -9600.00
00807              -0.40    -9600.00
00808               0.20    -8000.00
00809               0.20    -8000.00
00810              -0.20    -7200.00
00811               0.40    -7200.00
00812               0.20    -6400.00
00813              -0.40    -4800.00
00814              -0.20    -4000.00
00815              -0.40    -4000.00
00816              -0.20    -3200.00
00817               0.20    -3200.00
00818              -0.20    -2400.00
00819              -0.40    -1600.00
00820              -0.40     -800.00
00821              -0.60     -800.00
00822              -0.20        0.00
00823               0.00      800.00
00824               0.40     1600.00
00825               3.80     1600.00
00826              -1.00     2400.00
00827              -1.80     2400.00
00828               1.20     3200.00
00829               0.20     4000.00
00830              -1.00     4800.00
00831              12.20     5600.00
00832              25.00     7200.00
00833             -25.00     8000.00
00834             -25.00     8000.00
00835              25.00     8800.00
00836              -4.20     8800.00
00837             -25.00     9600.00
00838              25.00    10400.00
00839             -21.80     9600.00
00840             -25.00    11200.00
00841              25.00    12000.00
00842             -25.00    12000.00
00843              15.60    12800.00
00844              25.00    12800.00
00845             -25.00    12800.00
00846              25.00    14400.00
00847             -25.00    14400.00
00848              -3.60    15200.00
00849              25.00    16000.00
00850             -25.00    16800.00
00851              25.00    16800.00
00852              24.40    17600.00
00853             -25.00    18400.00
00854              -5.20    18400.00
00855              25.00    19200.00
00856             -25.00    20000.00
00857              -5.60    20000.00
00858              25.00    20800.00
00859             -25.00    21600.00
00860              17.40    21600.00
00861               0.60    21600.00
00862             -23.00    23200.00
00863              14.80    23200.00
00864              -3.00    24000.00
00865             -10.20    24000.00
00866               9.80    24800.00
00867               0.00    24800.00
00868             -17.20    24800.00
00869              14.20    25600.00
00870              -9.80    25600.00
00871              -6.20    27200.00
00872              10.00    27200.00
00873             -10.20    27200.00
00874              -0.60    27200.00
00875               1.40    28000.00
00876              -5.20    28800.00
00877              -2.00    28800.00
00878               2.20    28800.00
00879              -5.20    28800.00
00880              -2.20    29600.00
00881               0.60    30400.00
00882              -7.00    30400.00
00883              -0.20    30400.00
00884               1.00    31200.00
00885              -6.20    31200.00
00886               1.20    30400.00
00887              -1.80    31200.00
00888              -5.40    31200.00
00889               1.40    32000.00
00890              -3.80    32000.00
00891              -2.80    32000.00
00892               1.00    32800.00
00893              -3.80    32000.00
00894              -2.20    32800.00
00895              -2.00    32800.00
00896              -3.40    33600.00
00897              -1.20    32800.00
00898              -1.80    32800.00
00899              -2.80    32800.00
00900              -2.60    33600.00
00901              -0.60    33600.00
00902              -3.60    33600.00
00903              -2.20    33600.00
00904              -1.00    33600.00
00905              -4.60    33600.00
00906               0.00    33600.00
00907              -2.20    33600.00
00908              -4.20    33600.00
00909              -0.60    33600.00
00910              -3.00    33600.00
00911              -2.20    32800.00
00912              -2.00    33600.00
00913              -3.20    32800.00
00914              -2.00    33600.00
00915              -2.20    32800.00
00916              -2.20    32800.00
00917              -2.20    32000.00
00918              -2.00    32000.00
00919              -2.00    32800.00
00920              -2.20    32000.00
00921              -1.40    32800.00
00922              -3.00    32000.00
00923              -2.00    32000.00
00924              -1.40    31200.00
00925              -3.00    31200.00
00926              -2.00    31200.00
00927              -2.00    31200.00
00928              -2.40    30400.00
00929              -1.20    30400.00
00930              -2.00    30400.00
00931              -2.00    30400.00
00932              -2.20    29600.00
00933              -2.00    28800.00
00934              -1.80    28800.00
00935              -2.60    28000.00
00936              -1.80    28000.00
00937              -2.20    28000.00
00938              -1.40    27200.00
00939              -1.20    27200.00
00940              -2.80    26400.00
00941              -1.40    25600.00
00942              -1.40    25600.00
00943              -1.80    25600.00
00944              -1.20    24800.00
00945              -2.20    24800.00
00946              -2.00    24800.00
00947              -1.20    24000.00
00948              -1.80    23200.00
00949              -1.60    22400.00
00950              -1.80    22400.00
00951              -1.00    21600.00
00952              -1.40    21600.00
00953              -1.40    21600.00
00954              -1.80    20800.00
00955              -1.80    19200.00
00956              -1.00    19200.00
00957              -1.40    19200.00
00958              -1.40    18400.00
00959              -1.20    17600.00
00960              -1.40    17600.00
00961              -1.00    16800.00
00962              -1.20    16000.00
00963              -1.20    15200.00
00964              -1.20    15200.00
00965              -1.20    14400.00
00966              -1.20    13600.00
00967              -1.20    12800.00
00968              -1.40    12800.00
00969              -0.60    12800.00
00970              -0.60    11200.00
00971              -1.00    11200.00
00972              -1.20    11200.00
00973              -0.60    10400.00
00974              -1.20     9600.00
00975              -1.40     8800.00
00976              -0.60     8800.00
00977              -1.20     8000.00
00978              -1.00     6400.00
00979              -0.20     6400.00
00980              -1.20     5600.00
00981              -0.20     5600.00
00982              -0.40     4800.00
00983              -1.20     4800.00
00984              -0.20     3200.00
00985              -1.40     2400.00
00986              -0.60     1600.00
00987              -0.20     1600.00
00988              -1.40      800.00
00989               0.40        0.00
00990               0.80        0.00
00991               0.20     -800.00
00992               4.00    -1600.00
00993              -1.00    -1600.00
00994              -1.20    -2400.00
00995               2.80    -3200.00
00996               1.00    -3200.00
00997              -0.40    -4000.00
00998               9.60    -4000.00
00999              25.00    -6400.00
01000              -8.00    -7200.00
01001             -25.00    -8000.00
01002              10.20    -8000.00
01003              20.60    -8000.00
01004             -25.00    -8000.00
01005              -1.00    -8000.00
01006              25.00   -10400.00
01007             -25.00    -9600.00
01008              -6.00   -11200.00
01009              25.00   -11200.00
01010             -25.00   -12000.00
01011              19.40   -12800.00
01012              17.80   -12800.00
01013             -22.20   -13600.00
01014              25.00   -14400.00
01015             -25.00   -14400.00
01016              17.80   -16000.00
01017              20.40   -16000.00
01018             -25.00   -16800.00
01019              21.00   -16800.00
01020              16.40   -17600.00
01021             -25.00   -18400.00
01022               4.40   -19200.00
01023              24.20   -18400.00
01024             -25.00   -19200.00
01025              13.00   -20000.00
01026              18.60   -20000.00
01027             -23.00   -21600.00
01028              17.20   -21600.00
01029               0.20   -22400.00
01030             -12.40   -22400.00
01031              11.80   -22400.00
01032               2.20   -23200.00
01033              -8.20   -24000.00
01034              12.20   -24000.00
01035              -1.00   -24000.00
01036              -8.40   -25600.00
01037              13.20   -25600.00
01038              -6.00   -25600.00
01039               0.40   -26400.00
01040               8.60   -26400.00
01041              -4.40   -27200.00
01042               1.00   -27200.00
01043               3.80   -27200.00
01044              -1.80   -28000.00
01045               1.40   -28000.00
01046               5.20   -28800.00
01047              -1.80   -28800.00
01048               2.00   -29600.00
01049               3.40   -29600.00
01050              -2.20   -29600.00
01051               2.80   -30400.00
01052               3.00   -30400.00
01053              -1.80   -29600.00
01054               3.80   -31200.00
01055               1.80   -30400.00
01056              -0.60   -31200.00
01057               3.60   -30400.00
01058               0.60   -32000.00
01059               1.40   -32000.00
01060               3.00   -32000.00
01061               0.20   -32000.00
01062               1.20   -32000.00
01063               1.80   -32000.00
01064               1.00   -32800.00
01065               2.00   -32000.00
01066               2.20   -32000.00
01067               1.00   -32800.00
01068               1.20   -32000.00
01069               2.60   -32800.00
01070              -0.20   -32800.00
01071               2.00   -32800.00
01072               2.60   -32800.00
01073               0.60   -32000.00
01074               2.80   -32000.00
01075               1.20   -32800.00
01076               1.00   -32000.00
01077               2.60   -32000.00
01078               0.80   -32800.00
01079               1.40   -32000.00
01080               2.00   -32000.00
01081               1.20   -32000.00
01082               1.20   -32000.00
01083               2.20   -31200.00
01084               1.00   -32000.00
01085               1.40   -32000.00
01086               2.20   -31200.00
01087               1.00   -31200.00
01088               1.20   -31200.00
01089               2.00   -30400.00
01090               1.00   -30400.00
01091               2.00   -30400.00
01092               1.80   -29600.00
01093               0.40   -29600.00
01094               1.40   -29600.00
01095               1.20   -29600.00
01096               0.80   -28800.00
01097               1.80   -28800.00
01098               1.00   -28800.00
01099               0.60   -28000.00
01100               1.20   -28000.00
01101               1.80   -28000.00
01102               1.20   -27200.00
01103               1.40   -27200.00
01104               1.00   -26400.00
01105               0.60   -26400.00
01106               1.40   -26400.00
01107               0.40   -26400.00
01108               1.00   -25600.00
01109               1.40   -24800.00
01110               0.40   -24800.00
01111               0.60   -24000.00
01112               1.00   -23200.00
01113               0.40   -24000.00
01114               1.00   -23200.00
01115               0.60   -22400.00
01116               0.80   -22400.00
01117               1.00   -21600.00
01118               0.40   -20800.00
01119               1.20   -20000.00
01120               0.00   -20000.00
01121               0.20   -19200.00
01122               1.00   -18400.00
01123               0.40   -19200.00
01124               0.20   -17600.00
01125               0.40   -17600.00
01126               1.00   -16800.00
01127              -0.20   -16800.00
01128               0.80   -16000.00
01129               1.20   -16000.00
01130               0.00   -14400.00
01131               0.40   -13600.00
01132               0.40   -14400.00
01133               0.20   -13600.00
01134               0.40   -12800.00
01135              -0.20   -12000.00
01136               0.40   -12000.00
01137               0.40   -11200.00
01138              -0.40   -10400.00
01139               0.40    -9600.00
01140               0.20    -8800.00
01141              -0.80    -9600.00
01142               0.40    -8000.00
01143               0.20    -7200.00
01144              -0.40    -7200.00
01145               0.20    -6400.00
01146              -0.20    -5600.00
01147               0.20    -4800.00
01148              -0.40    -4800.00
01149              -0.60    -4000.00
01150               0.40    -3200.00
01151              -0.40    -1600.00
01152              -0.40    -2400.00
01153               0.20    -1600.00
01154              -0.60     -800.00
01155              -0.20        0.00
01156               0.20        0.00
01157              -0.20     1600.00
01158               1.40     1600.00
01159               2.60     2400.00
01160              -3.00     2400.00
01161              -0.60     3200.00
01162               1.00     3200.00
01163              -1.20     4800.00
01164               3.60     5600.00
01165              25.00     6400.00
01166              10.80     7200.00
01167             -25.00     8000.00
01168              -2.80     8000.00
01169              25.00     8800.00
01170             -25.00     8800.00
01171              14.60     9600.00
01172              25.00     9600.00
01173             -25.00     9600.00
01174              25.00    12000.00
01175              25.00    12000.00
01176             -25.00    12000.00
01177              25.00    12800.00
01178             -25.00    12800.00
01179              18.60    14400.00
01180              25.00    14400.00
01181             -25.00    15200.00
01182              25.00    16000.00
01183             -11.40    16000.00
01184             -25.00    16800.00
01185              25.00    17600.00
01186             -12.60    17600.00
01187             -25.00    18400.00
01188              18.60    18400.00
01189              10.00    19200.00
01190             -25.00    20800.00
01191              25.00    20800.00
01192              -2.80    21600.00
01193             -19.00    21600.00
01194              25.00    21600.00
01195             -25.00    22400.00
01196              -0.60    22400.00
01197               9.40    24000.00
01198             -10.80    24000.00
01199              -1.80    24000.00
01200              12.80    24800.00
01201             -14.80    25600.00
01202              -1.40    25600.00
01203               8.60    25600.00
01204             -17.80    26400.00
01205               7.80    27200.00
01206              -0.60    27200.00
01207              -7.20    27200.00
01208               3.40    27200.00
01209              -2.80    28000.00
01210              -4.60    28800.00
01211               0.40    28800.00
01212              -0.40    28800.00
01213              -5.80    28800.00
01214               1.00    30400.00
01215              -2.20    29600.00
01216              -5.80    30400.00
01217               2.80    30400.00
01218              -3.00    31200.00
01219              -4.20    31200.00
01220               1.80    31200.00
01221              -4.80    31200.00
01222              -2.20    32000.00
01223               0.00    32000.00
01224              -4.60    32000.00
01225               0.40    32000.00
01226              -1.20    32800.00
01227              -3.80    32800.00
01228              -1.60    32000.00
01229              -3.40    32800.00
01230              -2.40    32800.00
01231              -2.00    32800.00
01232              -2.00    33600.00
01233              -2.80    33600.00
01234              -1.80    33600.00
01235              -1.40    32800.00
01236              -4.00    33600.00
01237              -1.00    33600.00
01238              -3.00    32800.00
01239              -2.80    33600.00
01240              -0.20    33600.00
01241              -4.20    33600.00
01242              -2.00    33600.00
01243              -1.20    33600.00
01244              -2.80    33600.00
01245              -2.00    33600.00
01246              -2.80    32800.00
01247              -2.20    32800.00
01248              -2.20    32800.00
01249              -2.20    33600.00
01250              -2.40    32800.00
01251              -2.20    32000.00
01252              -1.80    32800.00
01253              -3.00    32000.00
01254              -1.40    31200.00
01255              -2.20    32000.00
01256              -3.60    31200.00
01257              -0.60    31200.00
01258              -2.00    31200.00
01259              -2.80    31200.00
01260              -1.40    31200.00
01261              -2.60    30400.00
01262              -1.80    30400.00
01263              -1.80    30400.00
01264              -2.60    30400.00
01265              -2.00    29600.00
01266              -2.20    28800.00
01267              -2.00    28800.00
01268              -1.80    28800.00
01269              -2.20    28000.00
01270              -2.20    28000.00
01271              -1.20    27200.00
01272              -1.20    27200.00
01273              -2.20    27200.00
01274              -1.80    26400.00
01275              -1.80    25600.00
01276              -2.00    26400.00
01277              -0.60    25600.00
01278              -2.20    24800.00
01279              -2.20    24000.00
01280              -1.00    24000.00
01281              -2.00    24000.00
01282              -1.40    24000.00
01283              -1.80    22400.00
01284              -1.60    22400.00
01285              -1.20    21600.00
01286              -1.80    21600.00
01287              -1.40    20800.00
01288              -2.20    20000.00
01289              -1.40    20000.00
01290              -0.60    19200.00
01291              -1.20    18400.00
01292              -1.40    18400.00
01293              -1.80    17600.00
01294              -1.40    17600.00
01295              -1.40    16000.00
01296              -1.80    16000.00
01297              -0.60    15200.00
01298              -1.40    14400.00
01299              -1.40    14400.00
01300              -0.60    13600.00
01301              -1.40    12800.00
01302              -1.80    12800.00
01303              -0.40    12000.00
01304              -0.60    11200.00
01305              -1.20    11200.00
01306              -1.20    10400.00
01307              -0.60     9600.00
01308              -1.80     9600.00
01309              -1.40     8800.00
01310              -0.60     8000.00
01311              -0.60     7200.00
01312              -1.20     7200.00
01313              -0.40     5600.00
01314              -0.60     5600.00
01315              -1.20     4800.00
01316              -1.00     4800.00
01317               0.20     3200.00
01318              -0.20     2400.00
01319              -0.40     2400.00
01320              -0.20     1600.00
01321              -0.40     1600.00
01322              -0.40        0.00
01323               0.60        0.00
01324               0.20     -800.00
01325               3.00     -800.00
01326               0.40    -1600.00
01327              -1.60    -1600.00
01328               1.60    -2400.00
01329               1.40    -3200.00
01330              -0.20    -4000.00
01331               3.60    -4000.00
01332              16.60    -4800.00
01333              23.80    -6400.00
01334             -25.00    -7200.00
01335             -25.00    -8000.00
01336              25.00    -8000.00
01337              -6.20    -8000.00
01338             -25.00    -8000.00
01339              25.00    -9600.00
01340              25.00   -10400.00
01341             -25.00    -9600.00
01342              25.00   -11200.00
01343               9.80   -11200.00
01344             -25.00   -12000.00
01345              25.00   -12800.00
01346             -25.00   -12800.00
01347              16.20   -13600.00
01348               3.40   -14400.00
01349             -25.00   -14400.00
01350              25.00   -15200.00
01351             -19.80   -16000.00
01352             -13.20   -16800.00
01353              25.00   -16800.00
01354              -9.00   -17600.00
01355             -19.80   -18400.00
01356              24.80   -18400.00
01357              -1.80   -19200.00
01358             -22.60   -20000.00
01359              25.00   -20800.00
01360              -9.00   -20800.00
01361              -8.20   -20800.00
01362              19.00   -21600.00
01363             -13.80   -22400.00
01364              -0.20   -23200.00
01365              11.80   -23200.00
01366              -6.20   -23200.00
01367              -0.40   -24000.00
01368              13.40   -24000.00
01369             -11.80   -24800.00
01370               4.20   -25600.00
01371               7.80   -25600.00
01372             -10.00   -26400.00
01373               8.40   -26400.00
01374               1.80   -26400.00
01375              -2.80   -27200.00
01376               4.20   -27200.00
01377               1.40   -27200.00
01378              -1.00   -28000.00
01379               3.80   -28800.00
01380               1.60   -28800.00
01381              -2.00   -28800.00
01382               4.40   -28800.00
01383               0.20   -29600.00
01384              -0.40   -29600.00
01385               5.00   -29600.00
01386               0.40   -30400.00
01387               0.20   -30400.00
01388               3.60   -31200.00
01389              -0.60   -30400.00
01390               0.60   -30400.00
01391               2.60   -31200.00
01392               0.40   -32000.00
01393               2.80   -32000.00
01394               1.40   -32000.00
01395               1.00   -32000.00
01396               2.00   -32000.00
01397               1.20   -32000.00
01398               1.40   -32800.00
01399               2.00   -32000.00
01400               1.80   -32800.00
01401               0.80   -32000.00
01402               2.60   -32800.00
01403               1.00   -32800.00
01404               0.20   -32800.00
01405               2.80   -32800.00
01406               0.80   -32000.00
01407               1.60   -32800.00
01408               2.60   -32800.00
01409               0.20   -32800.00
01410               2.20   -32800.00
01411               2.20   -32800.00
01412               1.00   -32800.00
01413               2.00   -32000.00
01414               1.80   -32000.00
01415               1.20   -32000.00
01416               1.40   -32000.00
01417               1.40   -32000.00
01418               1.00   -32000.00
01419               2.00   -31200.00
01420               1.40   -31200.00
01421               0.80   -32000.00
01422               1.80   -30400.00
01423               1.00   -30400.00
01424               1.00   -30400.00
01425               2.20   -30400.00
01426               1.00   -30400.00
01427               1.40   -29600.00
01428               2.00   -29600.00
01429               0.20   -29600.00
01430               1.40   -29600.00
01431               1.20   -28800.00
01432               0.40   -28800.00
01433               1.40   -28800.00
01434               1.20   -28000.00
01435               0.20   -27200.00
01436               1.20   -27200.00
01437               1.00   -27200.00
01438               1.00   -26400.00
01439               1.40   -26400.00
01440               2.00   -26400.00
01441               0.40   -25600.00
01442              -3.40   -25600.00
01443               6.20   -24800.00
01444              -2.80   -24800.00
01445              -1.40   -24000.00
01446               3.40   -24000.00
01447               1.20   -23200.00
01448               5.80   -22400.00
01449              -5.20   -22400.00
01450               3.80   -20800.00
01451               1.80   -21600.00
01452              -2.40   -20800.00
01453               1.00   -20000.00
01454              -2.40   -20000.00
01455               5.00   -18400.00
01456              -0.60   -19200.00
01457               1.00   -17600.00
01458               2.00   -17600.00
01459              -0.60   -16800.00
01460               3.00   -16800.00
01461              -1.80   -16000.00
01462              -0.60   -16000.00
01463               1.00   -14400.00
01464               0.20   -14400.00
01465              -1.80   -14400.00
01466               2.00   -13600.00
01467               1.60   -12800.00
01468              -0.60   -12000.00
01469               2.20   -11200.00
01470              -2.00   -11200.00
01471               0.00   -11200.00
01472               1.00   -10400.00
01473              -2.80    -9600.00
01474               0.60    -8800.00
01475               2.00    -8000.00
01476              -0.20    -8000.00
01477              -0.20    -8000.00
01478               2.20    -7200.00
01479              -1.00    -6400.00
01480              -1.20    -4800.00
01481               0.40    -4800.00
01482              -1.20    -4000.00
01483               0.00    -4000.00
01484              -1.00    -3200.00
01485              -0.40    -2400.00
01486               0.60    -1600.00
01487              -1.00     -800.00
01488              -0.20     -800.00
01489               1.20        0.00
01490              -1.00      800.00
01491              -1.20     1600.00
01492               3.60     1600.00
01493              -1.40     2400.00
01494              -2.00     2400.00
01495               1.80     3200.00
01496               0.20     3200.00
01497              -1.20     4800.00
01498              10.80     5600.00
01499              25.00     7200.00
01500             -25.00     7200.00
01501             -25.00     8000.00
01502              25.00     8800.00
01503              -0.40     8800.00
01504             -25.00     8000.00
01505              25.00    10400.00
01506             -11.00     9600.00
01507             -25.00    10400.00
01508              25.00    12000.00
01509             -25.00    11200.00
01510               5.80    12800.00
01511              25.00    12800.00
01512             -25.00    12800.00
01513              25.00    14400.00
01514             -25.00    15200.00
01515             -12.60    16000.00
01516              25.00    16000.00
01517             -25.00    16000.00
01518              21.80    16800.00
01519              25.00    17600.00
01520             -25.00    17600.00
01521              -6.60    18400.00
01522              25.00    19200.00
01523             -25.00    20000.00
01524              -9.40    20800.00
01525              25.00    20800.00
01526             -25.00    21600.00
01527              14.80    21600.00
01528               3.60    21600.00
01529             -23.80    23200.00
01530              14.60    24000.00
01531              -2.20    24000.00
01532             -10.00    24000.00
01533               9.00    24800.00
01534               1.40    24800.00
01535             -16.40    25600.00
01536              12.80    25600.00
01537              -8.60    25600.00
01538              -7.00    27200.00
01539              10.00    26400.00
01540             -10.00    27200.00
01541              -0.20    27200.00
01542               1.80    28000.00
01543              -4.60    28000.00
01544              -2.40    28000.00
01545               2.00    28800.00
01546              -4.40    28800.00
01547              -3.40    29600.00
01548               1.20    30400.00
01549              -5.00    30400.00
01550              -1.20    30400.00
01551               1.60    31200.00
01552              -5.40    31200.00
01553              -0.60    31200.00
01554              -1.80    31200.00
01555              -5.40    31200.00
01556               0.40    32000.00
01557              -3.60    32000.00
01558              -2.80    32800.00
01559               1.00    32800.00
01560              -3.40    32000.00
01561              -2.20    32800.00
01562              -2.40    32800.00
01563              -3.00    32800.00
01564              -1.80    33600.00
01565              -2.60    33600.00
01566              -2.20    33600.00
01567              -2.80    33600.00
01568              -0.60    33600.00
01569              -2.80    33600.00
01570              -2.80    33600.00
01571              -1.20    33600.00
01572              -4.40    33600.00
01573              -1.00    33600.00
01574              -2.20    32800.00
01575              -3.60    33600.00
01576              -0.40    33600.00
01577              -2.80    33600.00
01578              -2.20    33600.00
01579              -2.20    33600.00
01580              -3.40    33600.00
01581              -2.00    32800.00
01582              -2.20    32800.00
01583              -1.80    32800.00
01584              -2.20    32000.00
01585              -1.80    32800.00
01586              -2.40    32800.00
01587              -2.60    32000.00
01588              -1.40    32800.00
01589              -2.80    31200.00
01590              -2.40    31200.00
01591              -1.20    31200.00
01592              -2.60    30400.00
01593              -2.00    31200.00
01594              -1.60    31200.00
01595              -2.20    30400.00
01596              -1.40    30400.00
01597              -2.00    30400.00
01598              -2.20    29600.00
01599              -2.20    29600.00
01600              -2.00    28800.00
01601              -1.60    28800.00
01602              -2.00    28000.00
01603              -1.80    27200.00
01604              -2.00    28000.00
01605              -1.40    27200.00
01606              -1.80    27200.00
01607              -2.60    26400.00
01608              -1.80    25600.00
01609              -1.20    25600.00
01610              -1.80    25600.00
01611              -1.40    24800.00
01612              -2.00    24800.00
01613              -1.40    24800.00
01614              -1.40    24000.00
01615              -2.00    23200.00
01616              -1.80    23200.00
01617              -2.00    22400.00
01618              -1.40    21600.00
01619              -1.40    21600.00
01620              -2.00    21600.00
01621              -1.40    20800.00
01622              -1.80    20000.00
01623              -1.20    19200.00
01624              -1.20    18400.00
01625              -1.40    18400.00
01626              -1.40    17600.00
01627              -1.20    17600.00
01628              -0.80    17600.00
01629              -1.60    16000.00
01630              -1.20    16000.00
01631              -1.40    15200.00
01632              -1.80    14400.00
01633              -1.00    14400.00
01634              -1.20    13600.00
01635              -1.80    12800.00
01636              -0.80    12800.00
01637              -1.00    12000.00
01638              -1.00    11200.00
01639              -0.80    11200.00
01640              -1.00     9600.00
01641              -1.40     9600.00
01642              -1.00     8800.00
01643              -0.60     8000.00
01644              -0.60     8000.00
01645              -1.20     6400.00
01646              -0.40     6400.00
01647              -0.40     6400.00
01648              -1.00     5600.00
01649              -0.60     4800.00
01650              -0.20     4000.00
01651              -0.60     3200.00
01652              -0.60     2400.00
01653              -0.60     2400.00
01654              -0.60     1600.00
01655              -0.20     1600.00
01656               0.40        0.00
01657               0.20        0.00
01658               1.40     -800.00
01659               3.60     -800.00
01660              -1.40    -1600.00
01661               0.20    -2400.00
01662               1.60    -3200.00
01663               0.60    -3200.00
01664               0.40    -3200.00
01665               8.20    -4000.00
01666              25.00    -6400.00
01667              -2.60    -6400.00
01668             -25.00    -8000.00
01669               7.40    -8000.00
01670              23.40    -8000.00
01671             -25.00    -8800.00
01672              -6.20    -9600.00
01673              25.00    -9600.00
01674             -25.00    -9600.00
01675             -14.80   -11200.00
01676              25.00   -12000.00
01677             -25.00   -11200.00
01678              12.60   -12800.00
01679              23.00   -12800.00
01680             -25.00   -13600.00
01681              25.00   -14400.00
01682             -25.00   -15200.00
01683              14.20   -16000.00
01684              24.20   -15200.00
01685             -25.00   -16000.00
01686              18.80   -16800.00
01687              18.20   -17600.00
01688             -25.00   -17600.00
01689               1.80   -17600.00
01690              25.00   -19200.00
01691             -25.00   -19200.00
01692               9.80   -20000.00
01693              21.20   -20000.00
01694             -23.20   -20800.00
01695              14.60   -21600.00
01696               1.80   -22400.00
01697             -12.60   -22400.00
01698              10.20   -23200.00
01699               3.80   -23200.00
01700              -7.60   -24000.00
01701              11.40   -24000.00
01702               1.00   -24800.00
01703              -9.20   -25600.00
01704              12.60   -25600.00
01705              -4.40   -25600.00
01706              -1.20   -25600.00
01707               8.40   -26400.00
01708              -3.00   -27200.00
01709               0.40   -27200.00
01710               4.20   -27200.00
01711              -0.60   -28000.00
01712               1.00   -28000.00
01713               4.60   -28800.00
01714              -0.40   -28800.00
01715               0.60   -28800.00
01716               3.00   -28800.00
01717              -0.60   -28800.00
01718               3.00   -29600.00
01719               3.60   -29600.00
01720              -1.40   -30400.00
01721               2.60   -29600.00
01722               2.60   -30400.00
01723              -0.60   -30400.00
01724               2.80   -30400.00
01725               1.80   -30400.00
01726               0.80   -31200.00
01727               2.60   -32000.00
01728               1.40   -32000.00
01729               1.00   -32000.00
01730               1.60   -32000.00
01731               2.00   -32800.00
01732               1.60   -32800.00
01733               1.80   -32800.00
01734               1.80   -32000.00
01735               1.20   -32800.00
01736               2.80   -32800.00
01737              -0.40   -32000.00
01738               2.00   -32800.00
01739               3.00   -32000.00
01740              -0.60   -32800.00
01741               2.60   -32800.00
01742               1.80   -32800.00
01743               0.40   -32800.00
01744               2.20   -32000.00
01745               1.80   -32800.00
01746               1.80   -32000.00
01747               1.80   -32800.00
01748               1.00   -32000.00
01749               1.80   -32000.00
01750               1.20   -32000.00
01751               1.40   -32000.00
01752               2.00   -32000.00
01753               1.60   -30400.00
01754               0.80   -32000.00
01755               1.40   -31200.00
01756               1.80   -30400.00
01757               0.60   -30400.00
01758               1.80   -30400.00
01759               2.00   -30400.00
01760               0.40   -30400.00
01761               1.00   -29600.00
01762               1.20   -29600.00
01763               1.80   -28800.00
01764               1.40   -28800.00
01765               0.80   -28800.00
01766               1.60   -28800.00
01767               1.00   -28000.00
01768               1.40   -28000.00
01769               1.40   -27200.00
01770               0.20   -27200.00
01771               1.00   -26400.00
01772               1.00   -26400.00
01773               0.60   -26400.00
01774               0.40   -25600.00
01775               2.00   -25600.00
01776               1.20   -24800.00
01777               0.60   -24000.00
01778               1.20   -24000.00
01779               0.20   -24000.00
01780               0.20   -23200.00
01781               1.60   -23200.00
01782               1.00   -22400.00
01783               1.00   -22400.00
01784               0.60   -20800.00
01785               0.40   -20800.00
01786               0.60   -20800.00
01787               0.40   -19200.00
01788               0.60   -20000.00
01789               1.00   -18400.00
01790               0.40   -18400.00
01791               0.20   -17600.00
01792               0.00   -17600.00
01793               0.20   -16800.00
01794               1.00   -16800.00
01795               1.00   -16000.00
01796               0.60   -16000.00
01797               0.40   -14400.00
01798               0.40   -14400.00
01799               0.40   -13600.00
01800              -0.20   -13600.00
01801               0.20   -12800.00
01802               0.20   -12000.00
01803               0.20   -11200.00
01804               0.40   -11200.00
01805               0.20   -10400.00
01806               0.20    -9600.00
01807               0.20    -8800.00
01808              -0.20    -8800.00
01809               0.20    -8000.00
01810               0.00    -8000.00
01811              -0.20    -7200.00
01812               0.40    -6400.00
01813               0.20    -5600.00
01814               0.00    -4800.00
01815               0.20    -4800.00
01816              -0.60    -4000.00
01817              -0.60    -3200.00
01818              -1.00    -2400.00
01819              -0.60    -1600.00
01820              -0.60    -1600.00
01821              -0.60     -800.00
01822               0.00        0.00
01823               0.00      800.00
01824               0.20      800.00
01825               1.60     1600.00
01826               2.80     1600.00
01827              -2.80     2400.00
01828              -0.60     3200.00
01829               1.00     4000.00
01830              -1.20     4000.00
01831               2.60     4800.00
01832              24.40     6400.00
01833              15.40     7200.00
01834             -25.00     8000.00
01835              -6.00     8000.00
01836              25.00     8000.00
01837             -25.00     8000.00
01838               7.80     9600.00
01839              25.00    10400.00
01840             -25.00     9600.00
01841              25.00    11200.00
01842              25.00    12000.00
01843             -25.00    12000.00
01844              25.00    12800.00
01845             -25.00    12800.00
01846              10.00    14400.00
01847              25.00    14400.00
01848             -25.00    14400.00
01849              25.00    15200.00
01850              -3.40    16000.00
01851             -25.00    16000.00
01852              25.00    17600.00
01853              -9.80    18400.00
01854             -25.00    17600.00
01855              17.80    19200.00
01856              12.40    19200.00
01857             -25.00    20000.00
01858              25.00    20800.00
01859               1.00    21600.00
01860             -22.20    21600.00
01861              25.00    22400.00
01862             -23.80    22400.00
01863              -2.60    22400.00
01864              10.20    24000.00
01865             -10.80    24000.00
01866              -2.00    24800.00
01867              13.00    24000.00
01868             -13.80    24800.00
01869              -2.60    25600.00
01870               9.60    25600.00
01871             -17.40    26400.00
01872               7.40    27200.00
01873               0.40    27200.00
01874              -8.00    27200.00
01875               3.40    28000.00
01876              -2.20    28000.00
01877              -5.00    28800.00
01878              -0.40    28800.00
01879               0.60    28800.00
01880              -5.80    28800.00
01881              -0.40    29600.00
01882              -1.00    30400.00
01883              -6.00    31200.00
01884               1.80    30400.00
01885              -1.80    30400.00
01886              -5.00    31200.00
01887               1.40    31200.00
01888              -4.40    32000.00
01889              -2.60    32000.00
01890               0.40    32800.00
01891              -5.00    32000.00
01892              -0.60    32000.00
01893              -0.80    32000.00
01894              -3.80    33600.00
01895              -2.20    32800.00
01896              -2.80    32800.00
01897              -2.20    32800.00
01898              -2.20    32800.00
01899              -1.40    32800.00
01900              -3.00    33600.00
01901              -2.20    33600.00
01902              -0.40    33600.00
01903              -4.00    32800.00
01904              -1.80    33600.00
01905              -2.60    33600.00
01906              -3.40    33600.00
01907               0.20    33600.00
01908              -3.40    33600.00
01909              -2.20    33600.00
01910              -1.20    33600.00
01911              -3.40    33600.00
01912              -1.80    33600.00
01913              -2.60    32800.00
01914              -3.00    33600.00
01915              -2.20    32000.00
01916              -1.80    33600.00
01917              -2.00    32800.00
01918              -2.00    32000.00
01919              -1.20    32000.00
01920              -2.60    32000.00
01921              -1.80    32000.00
01922              -2.00    31200.00
01923              -3.60    32000.00
01924              -1.20    31200.00
01925              -1.60    31200.00
01926              -2.60    31200.00
01927              -1.40    30400.00
01928              -2.20    30400.00
01929              -2.00    30400.00
01930              -1.40    29600.00
01931              -2.60    29600.00
01932              -2.20    28800.00
01933              -1.80    28800.00
01934              -1.40    28800.00
01935              -1.40    28000.00
01936              -2.00    28800.00
01937              -2.00    27200.00
01938              -1.80    28000.00
01939              -1.40    27200.00
01940              -2.80    26400.00
01941              -1.80    26400.00
01942              -1.60    25600.00
01943              -2.00    25600.00
01944              -1.20    25600.00
01945              -2.20    24800.00
01946              -2.20    24800.00
01947              -1.20    24000.00
01948              -2.00    24000.00
01949              -1.80    24000.00
01950              -1.80    22400.00
01951              -1.80    22400.00
01952              -1.40    21600.00
01953              -2.00    21600.00
01954              -1.80    20800.00
01955              -1.40    20000.00
01956              -1.80    19200.00
01957              -1.20    19200.00
01958              -1.40    18400.00
01959              -1.80    17600.00
01960              -1.40    17600.00
01961              -1.20    17600.00
01962              -1.20    16000.00
01963              -1.20    16000.00
01964              -1.20    15200.00
01965              -2.00    15200.00
01966              -1.20    14400.00
01967              -0.80    13600.00
01968              -1.20    12800.00
01969              -1.20    12800.00
01970              -0.60    12000.00
01971              -1.20    12000.00
01972              -1.00    11200.00
01973              -1.20    11200.00
01974              -0.60     9600.00
01975              -1.20     9600.00
01976              -0.60     8000.00
01977              -0.60     8000.00
01978              -1.00     8000.00
01979              -0.60     6400.00
01980              -0.40     6400.00
01981              -0.60     5600.00
01982              -0.40     4800.00
01983              -0.40     4000.00
01984              -0.20     3200.00
01985              -0.60     3200.00
01986              -0.60     2400.00
01987              -0.60     1600.00
01988              -0.40     1600.00
01989              -0.20      800.00
01990               0.40        0.00
01991               0.40     -800.00
01992               3.60     -800.00
01993               0.80    -1600.00
01994              -1.80    -2400.00
01995               1.60    -2400.00
01996               1.40    -3200.00
01997              -0.40    -3200.00
01998               3.20    -4000.00
01999              16.00    -5600.00
02000              25.00    -6400.00
02001             -25.00    -7200.00
02002             -25.00    -8000.00
02003              25.00    -8000.00
02004              -3.80    -8800.00
02005             -25.00    -8000.00
02006              25.00    -9600.00
02007              25.00   -10400.00
02008             -25.00   -10400.00
02009              25.00   -11200.00
02010              17.80   -11200.00
02011             -25.00   -12000.00
02012              25.00   -12800.00
02013             -25.00   -12800.00
02014              12.20   -14400.00
02015               7.00   -14400.00
02016             -25.00   -15200.00
02017              25.00   -16000.00
02018             -17.20   -16000.00
02019             -16.00   -16800.00
02020              25.00   -16800.00
02021              -7.60   -17600.00
02022             -21.20   -18400.00
02023              24.20   -17600.00
02024               0.40   -19200.00
02025             -24.20   -19200.00
02026              25.00   -20000.00
02027              -7.40   -20800.00
02028              -9.00   -21600.00
02029              19.60   -21600.00
02030             -13.40   -22400.00
02031              -0.60   -22400.00
02032              10.80   -23200.00
02033              -5.80   -23200.00
02034              -0.20   -24000.00
02035              13.00   -24000.00
02036             -10.60   -24800.00
02037               3.60   -25600.00
02038               8.20   -24800.00
02039              -9.40   -25600.00
02040               8.20   -26400.00
02041               2.80   -27200.00
02042              -3.00   -27200.00
02043               3.80   -27200.00
02044               2.40   -28000.00
02045              -1.80   -28800.00
02046               3.60   -28000.00
02047               2.60   -28800.00
02048              -2.20   -28800.00
02049               4.20   -29600.00
02050               1.20   -29600.00
02051              -0.60   -29600.00
02052               4.60   -29600.00
02053               1.00   -30400.00
02054               0.20   -30400.00
02055               4.20   -30400.00
02056              -0.40   -30400.00
02057               1.00   -30400.00
02058               3.00   -32000.00
02059               0.40   -32000.00
02060               3.00   -32000.00
02061               1.40   -32000.00
02062               0.60   -32000.00
02063               2.00   -32000.00
02064               1.20   -32000.00
02065               1.40   -32000.00
02066               2.00   -32800.00
02067               2.00   -32800.00
02068               1.20   -32000.00
02069               2.60   -32800.00
02070               1.20   -32800.00
02071               0.60   -32800.00
02072               3.00   -32800.00
02073               1.00   -32800.00
02074               1.40   -32800.00
02075               2.60   -32800.00
02076               0.20   -32800.00
02077               2.20   -32800.00
02078               1.80   -32800.00
02079               1.00   -32800.00
02080               2.00   -32800.00
02081               0.80   -32000.00
02082               1.00   -32000.00
02083               1.80   -32000.00
02084               1.20   -32000.00
02085               1.00   -32000.00
02086               1.60   -32000.00
02087               1.40   -32000.00
02088               1.20   -31200.00
02089               1.80   -32000.00
02090               0.80   -31200.00
02091               1.20   -30400.00
02092               2.00   -30400.00
02093               1.00   -30400.00
02094               1.00   -29600.00
02095               1.40   -29600.00
02096               0.40   -28800.00
02097               1.20   -28800.00
02098               1.20   -28800.00
02099               1.40   -28800.00
02100               1.00   -28000.00
02101               1.00   -28000.00
02102               1.40   -27200.00
02103               0.80   -27200.00
02104               1.20   -27200.00
02105               2.00   -27200.00
02106               0.60   -26400.00
02107               1.00   -26400.00
02108               0.80   -25600.00
02109               1.00   -25600.00
02110               1.80   -24800.00
02111               0.80   -24000.00
02112               0.80   -24000.00
02113               1.20   -24000.00
02114               0.20   -23200.00
02115               1.00   -23200.00
02116               1.40   -20800.00
02117               0.40   -21600.00
02118               0.60   -21600.00
02119               2.00   -20800.00
02120               0.40   -20000.00
02121              -0.40   -20000.00
02122               1.00   -18400.00
02123               0.80   -18400.00
02124               0.40   -18400.00
02125               1.00   -17600.00
02126               0.40   -17600.00
02127               0.60   -16800.00
02128               0.80   -16000.00
02129               0.20   -16000.00
02130               0.60   -15200.00
02131               0.20   -14400.00
02132               0.60   -13600.00
02133               0.60   -13600.00
02134              -1.00   -12800.00
02135               0.40   -12800.00
02136               0.40   -11200.00
02137               0.40   -11200.00
02138               0.60   -11200.00
02139              -0.20    -9600.00
02140              -0.60    -9600.00
02141              -0.60    -8800.00
02142              -1.00    -8000.00
02143               0.00    -8000.00
02144               1.00    -7200.00
02145               0.60    -6400.00
02146               0.20    -6400.00
02147               0.20    -4800.00
02148              -0.60    -4800.00
02149              -1.20    -4000.00
02150              -0.60    -4000.00
02151              -0.40    -3200.00
02152              -0.20    -2400.00
02153              -0.40    -1600.00
02154              -0.40     -800.00
02155              -0.60     -800.00
02156              -0.60        0.00
02157               0.20        0.00
02158               0.20     1600.00
02159               2.20     1600.00
02160              -0.60     2400.00
02161              -2.00     2400.00
02162               0.60     3200.00
02163               0.60     4000.00
02164              -1.00     3200.00
02165              10.00     5600.00
02166              25.00     7200.00
02167             -25.00     7200.00
02168             -25.00     8000.00
02169              23.40     8800.00
02170               3.60     8800.00
02171             -25.00     8000.00
02172              25.00    10400.00
02173              -2.20     9600.00
02174             -25.00    11200.00
02175              25.00    12000.00
02176             -25.00    11200.00
02177              -2.80    12800.00
02178              25.00    12800.00
02179             -25.00    12800.00
02180              25.00    14400.00
02181             -25.00    14400.00
02182             -22.60    15200.00
02183              25.00    16000.00
02184             -25.00    16000.00
02185              16.20    16800.00
02186              25.00    17600.00
02187             -25.00    18400.00
02188              -9.20    17600.00
02189              25.00    19200.00
02190             -21.20    20000.00
02191             -13.00    20000.00
02192              25.00    21600.00
02193             -25.00    20800.00
02194              11.60    22400.00
02195               6.80    22400.00
02196             -24.40    23200.00
02197              14.00    23200.00
02198              -1.40    24000.00
02199             -10.00    24000.00
02200               8.40    24000.00
02201               2.00    24800.00
02202             -17.40    24800.00
02203              12.40    25600.00
02204              -7.00    25600.00
02205              -9.20    27200.00
02206               9.80    27200.00
02207              -8.20    27200.00
02208              -0.40    28000.00
02209               0.60    28000.00
02210              -3.80    28800.00
02211              -3.20    28000.00
02212               0.40    28800.00
02213              -3.00    28800.00
02214              -3.60    29600.00
02215               1.00    29600.00
02216              -3.80    30400.00
02217              -2.60    30400.00
02218              -0.20    30400.00
02219              -5.40    30400.00
02220              -0.60    31200.00
02221              -1.00    31200.00
02222              -4.40    31200.00
02223               0.40    32000.00
02224              -3.00    32000.00
02225              -2.80    32000.00
02226               0.20    32000.00
02227              -3.40    32800.00
02228              -1.80    32800.00
02229              -2.00    33600.00
02230              -3.40    33600.00
02231              -1.80    33600.00
02232              -2.20    33600.00
02233              -1.40    32800.00
02234              -2.60    33600.00
02235              -1.20    33600.00
02236              -3.00    32800.00
02237              -3.60    33600.00
02238              -1.00    33600.00
02239              -3.40    33600.00
02240              -0.20    33600.00
02241              -1.20    33600.00
02242              -3.80    33600.00
02243              -1.00    33600.00
02244              -2.80    33600.00
02245              -2.80    33600.00
02246              -2.00    33600.00
02247              -2.60    33600.00
02248              -2.00    32800.00
02249              -1.60    33600.00
02250              -1.40    32000.00
02251              -2.60    32800.00
02252              -2.20    32000.00
02253              -2.00    32000.00
02254              -2.80    32800.00
02255              -1.00    32000.00
02256              -2.40    32000.00
02257              -2.20    31200.00
02258              -0.40    31200.00
02259              -2.20    32000.00
02260              -2.60    30400.00
02261              -2.00    30400.00
02262              -2.20    30400.00
02263              -2.00    30400.00
02264              -2.40    30400.00
02265              -2.00    30400.00
02266              -1.80    28800.00
02267              -1.80    28800.00
02268              -1.60    28000.00
02269              -2.00    28800.00
02270              -2.60    28000.00
02271              -2.00    28000.00
02272              -1.40    27200.00
02273              -2.00    27200.00
02274              -2.20    26400.00
02275              -1.20    25600.00
02276              -1.80    25600.00
02277              -2.00    25600.00
02278              -1.40    24800.00
02279              -2.20    24800.00
02280              -2.00    24000.00
02281              -1.80    24000.00
02282              -2.00    23200.00
02283              -1.20    22400.00
02284              -2.00    22400.00
02285              -1.40    22400.00
02286              -1.20    21600.00
02287              -2.00    20800.00
02288              -1.80    20000.00
02289              -1.40    19200.00
02290              -2.00    19200.00
02291              -1.40    18400.00
02292              -1.40    18400.00
02293              -1.20    17600.00
02294              -1.40    17600.00
02295              -1.40    16800.00
02296              -1.00    16000.00
02297              -1.60    15200.00
02298              -1.80    16000.00
02299              -1.20    14400.00
02300              -0.80    14400.00
02301              -1.20    12800.00
02302              -1.20    12800.00
02303              -0.60    12000.00
02304              -0.60    12000.00
02305              -1.00    11200.00
02306              -1.40    10400.00
02307              -1.00    10400.00
02308              -0.80     9600.00
02309              -1.20     8800.00
02310              -0.60     8800.00
02311              -1.00     8000.00
02312              -1.20     7200.00
02313              -0.20     6400.00
02314              -0.60     5600.00
02315              -1.00     5600.00
02316              -0.20     4800.00
02317              -0.40     4800.00
02318              -0.20     3200.00
02319               0.20     2400.00
02320              -0.60     2400.00
02321              -0.40     1600.00
02322               0.20      800.00
02323              -0.40      800.00
02324              -0.20        0.00
02325               1.40     -800.00
02326               3.60    -1600.00
02327              -1.60    -1600.00
02328               0.20    -2400.00
02329               1.40    -3200.00
02330               0.80    -3200.00
02331               0.20    -4000.00
02332               7.80    -4000.00
02333              25.00    -5600.00
02334               0.20    -7200.00
02335             -25.00    -8000.00
02336               4.40    -8000.00
02337              24.60    -8000.00
02338             -25.00    -8800.00
02339             -10.80    -8000.00
02340              25.00   -10400.00
02341             -25.00   -10400.00
02342             -23.60   -11200.00
02343              25.00   -11200.00
02344             -25.00   -11200.00
02345               6.80   -12800.00
02346              25.00   -12800.00
02347             -25.00   -13600.00
02348              25.00   -14400.00
02349             -25.00   -14400.00
02350              10.80   -15200.00
02351              25.00   -16000.00
02352             -25.00   -16000.00
02353              16.40   -16800.00
02354              20.40   -16800.00
02355             -25.00   -17600.00
02356               0.20   -18400.00
02357              25.00   -19200.00
02358             -25.00   -20000.00
02359               6.80   -20000.00
02360              22.00   -20800.00
02361             -21.80   -20800.00
02362              13.80   -21600.00
02363               2.40   -22400.00
02364             -12.20   -22400.00
02365               9.80   -23200.00
02366               3.80   -24000.00
02367              -6.80   -24000.00
02368              10.00   -24000.00
02369               1.60   -24800.00
02370              -9.20   -25600.00
02371              12.40   -25600.00
02372              -3.80   -25600.00
02373              -1.80   -26400.00
02374               9.80   -26400.00
02375              -3.00   -26400.00
02376               0.60   -27200.00
02377               5.20   -27200.00
02378              -1.00   -28000.00
02379               1.00   -28000.00
02380               5.20   -28800.00
02381              -1.40   -28800.00
02382               1.00   -28800.00
02383               4.40   -29600.00
02384              -1.80   -29600.00
02385               2.80   -29600.00
02386               4.20   -30400.00
02387              -1.80   -30400.00
02388               3.00   -30400.00
02389               2.20   -30400.00
02390              -1.20   -31200.00
02391               3.20   -31200.00
02392               1.40   -32000.00
02393               1.20   -32000.00
02394               3.40   -32000.00
02395               0.60   -32000.00
02396               1.20   -32000.00
02397               2.20   -32000.00
02398               1.40   -32000.00
02399               1.80   -32800.00
02400               1.80   -32800.00
02401               1.40   -32800.00
02402               1.40   -32000.00
02403               2.20   -32800.00
02404               0.20   -32800.00
02405               2.20   -32800.00
02406               2.00   -32800.00
02407               0.00   -32800.00
02408               2.80   -32800.00
02409               1.00   -32800.00
02410               0.40   -32000.00
02411               2.60   -32000.00
02412               1.60   -32800.00
02413               1.80   -32800.00
02414               1.00   -32800.00
02415               1.00   -32000.00
02416               1.80   -32000.00
02417               1.20   -32000.00
02418               1.60   -32000.00
02419               1.20   -32000.00
02420               1.00   -32000.00
02421               2.00   -32000.00
02422               1.20   -31200.00
02423               1.00   -30400.00
02424               2.00   -30400.00
02425               1.20   -30400.00
02426               1.00   -30400.00
02427               1.20   -30400.00
02428               1.20   -29600.00
02429               1.20   -29600.00
02430               2.60   -29600.00
02431               0.60   -28800.00
02432               0.60   -28800.00
02433               1.20   -28800.00
02434               0.00   -28800.00
02435               1.40   -27200.00
02436               2.00   -28000.00
02437               1.00   -27200.00
02438               2.00   -27200.00
02439               1.00   -26400.00
02440               0.40   -26400.00
02441               1.00   -25600.00
02442               1.40   -25600.00
02443               1.40   -25600.00
02444               1.80   -24800.00
02445               1.20   -24800.00
02446               1.00   -24000.00
02447               0.80   -23200.00
02448               0.40   -23200.00
02449               0.80   -22400.00
02450               1.00   -22400.00
02451               0.60   -21600.00
02452               0.40   -20800.00
02453               1.20   -20800.00
02454               1.20   -20000.00
02455               1.00   -19200.00
02456               0.60   -18400.00
02457               0.40   -18400.00
02458               0.40   -17600.00
02459              -0.20   -17600.00
02460               0.40   -16800.00
02461               0.80   -16000.00
02462               0.60   -16000.00
02463               1.00   -15200.00
02464               0.20   -15200.00
02465              -0.40   -14400.00
02466              -0.40   -13600.00
02467               0.20   -13600.00
02468               0.40   -12800.00
02469               0.00   -12800.00
02470               0.40   -11200.00
02471               0.60   -11200.00
02472               0.20   -10400.00
02473              -0.20    -9600.00
02474              -0.20    -9600.00
02475               0.20    -8000.00
02476              -0.60    -8000.00
02477              -0.20    -7200.00
02478              -0.20    -7200.00
02479              -0.60    -6400.00
02480               0.20    -5600.00
02481               0.20    -4800.00
02482              -0.60    -4000.00
02483              -0.20    -4000.00
02484              -0.40    -3200.00
02485              -1.00    -2400.00
02486              -0.60    -1600.00
02487              -0.60    -1600.00
02488              -0.60     -800.00
02489              -0.40        0.00
02490              -0.20        0.00
02491              -0.20      800.00
02492               1.20     1600.00
02493               2.80     1600.00
02494              -2.80     2400.00
02495              -0.60     3200.00
02496               1.40     3200.00
02497              -1.20     3200.00
02498               2.00     4800.00
02499              23.00     5600.00
02500              18.60     7200.00
02501             -25.00     8000.00
02502             -10.00     8000.00
02503              25.00     8000.00
02504             -25.00     8000.00
02505               2.60     8800.00
02506              25.00     9600.00
02507             -25.00     9600.00
02508              25.00    11200.00
02509              25.00    12000.00
02510             -25.00    12000.00
02511              25.00    12800.00
02512             -25.00    12800.00
02513               1.40    14400.00
02514              25.00    14400.00
02515             -25.00    15200.00
02516              25.00    16000.00
02517               4.40    16000.00
02518             -25.00    16000.00
02519              25.00    16800.00
02520              -6.20    18400.00
02521             -25.00    18400.00
02522              15.20    18400.00
02523              14.20    19200.00
02524             -25.00    19200.00
02525              25.00    20800.00
02526               4.40    20800.00
02527             -24.40    21600.00
02528              25.00    21600.00
02529             -22.60    22400.00
02530              -4.40    22400.00
02531              10.80    23200.00
02532             -10.00    24000.00
02533              -2.60    24000.00
02534              13.00    24800.00
02535             -12.40    24800.00
02536              -4.60    25600.00
02537               9.80    25600.00
02538             -17.40    25600.00
02539               6.60    25600.00
02540               0.60    27200.00
02541              -8.40    27200.00
02542               3.00    27200.00
02543              -3.00    28000.00
02544              -4.80    28800.00
02545               0.20    28800.00
02546              -0.20    28800.00
02547              -5.00    28800.00
02548               0.20    29600.00
02549              -2.20    30400.00
02550              -5.20    30400.00
02551               1.40    30400.00
02552              -2.20    31200.00
02553              -4.00    31200.00
02554               1.20    31200.00
02555              -4.60    31200.00
02556              -2.80    32000.00
02557               0.00    32000.00
02558              -5.00    32800.00
02559               0.20    32800.00
02560              -1.00    32000.00
02561              -3.60    32800.00
02562              -1.00    32800.00
02563              -3.60    33600.00
02564              -2.20    32800.00
02565              -1.40    33600.00
02566              -2.20    33600.00
02567              -2.60    33600.00
02568              -2.20    33600.00
02569              -1.00    32800.00
02570              -4.20    33600.00
02571              -1.20    33600.00
02572              -2.20    33600.00
02573              -3.00    33600.00
02574               0.20    33600.00
02575              -3.20    33600.00
02576              -2.00    32800.00
02577              -1.20    32800.00
02578              -2.80    33600.00
02579              -1.20    33600.00
02580              -2.60    33600.00
02581              -2.80    33600.00
02582              -1.80    32800.00
02583              -1.40    32800.00
02584              -2.60    32800.00
02585              -2.60    32800.00
02586              -1.20    32000.00
02587              -2.40    32800.00
02588              -1.80    32000.00
02589              -1.80    32000.00
02590              -3.20    32800.00
02591              -1.40    31200.00
02592              -1.40    31200.00
02593              -2.40    31200.00
02594              -1.80    31200.00
02595              -2.20    30400.00
02596              -2.00    31200.00
02597              -2.00    30400.00
02598              -2.60    29600.00
02599              -2.20    29600.00
02600              -2.00    29600.00
02601              -1.80    28000.00
02602              -1.40    28800.00
02603              -2.20    28000.00
02604              -2.00    27200.00
02605              -1.80    27200.00
02606              -1.80    27200.00
02607              -2.60    26400.00
02608              -2.20    26400.00
02609              -1.20    26400.00
02610              -2.20    25600.00
02611              -1.80    24800.00
02612              -1.20    24800.00
02613              -2.20    24800.00
02614              -2.00    24000.00
02615              -2.00    24000.00
02616              -1.80    24000.00
02617              -2.60    22400.00
02618              -1.80    22400.00
02619              -0.60    21600.00
02620              -2.20    21600.00
02621              -1.80    20800.00
02622              -1.00    20800.00
02623              -1.40    19200.00
02624              -1.00    19200.00
02625              -1.80    18400.00
02626              -1.40    18400.00
02627              -1.60    17600.00
02628              -1.40    17600.00
02629              -0.40    16000.00
02630              -1.20    16000.00
02631              -1.20    16000.00
02632              -1.40    14400.00
02633              -1.20    14400.00
02634              -1.80    14400.00
02635              -1.80    13600.00
02636              -1.20    12800.00
02637              -0.60    12000.00
02638               0.00    12000.00
02639              -0.60    10400.00
02640              -1.40    10400.00
02641              -0.20     9600.00
02642              -1.40     9600.00
02643              -1.80     8800.00
02644              -0.40     8800.00
02645              -1.20     7200.00
02646              -0.40     7200.00
02647               0.20     5600.00
02648              -1.20     5600.00
02649              -0.20     4800.00
02650              -1.00     4800.00
02651              -1.00     3200.00
02652              -0.60     3200.00
02653              -1.00     2400.00
02654               0.00     2400.00
02655               1.20     1600.00
02656              -0.20        0.00
02657               0.20        0.00
02658               0.40     -800.00
02659               2.20    -1600.00
02660               0.60    -1600.00
02661              -1.40    -2400.00
02662               1.40    -2400.00
02663               1.60    -3200.00
02664              -0.20    -3200.00
02665               2.40    -4000.00
02666              14.80    -4800.00
02667              25.00    -6400.00
02668             -25.00    -7200.00
02669             -25.00    -8000.00
02670              25.00    -8000.00
02671              -0.40    -8800.00
02672             -25.00    -8000.00
02673              25.00    -8800.00
02674              25.00   -10400.00
02675             -25.00    -9600.00
02676              25.00   -11200.00
02677              24.60   -11200.00
02678             -25.00   -12000.00
02679              25.00   -12800.00
02680             -22.80   -12800.00
02681               9.20   -13600.00
02682              11.40   -14400.00
02683             -25.00   -15200.00
02684              25.00   -16000.00
02685             -13.80   -16000.00
02686             -19.00   -16800.00
02687              25.00   -17600.00
02688              -5.00   -17600.00
02689             -22.00   -17600.00
02690              22.20   -18400.00
02691               3.60   -19200.00
02692             -25.00   -20000.00
02693              25.00   -20800.00
02694              -5.00   -20800.00
02695             -11.80   -21600.00
02696              20.60   -22400.00
02697             -12.60   -22400.00
02698              -2.40   -22400.00
02699              11.80   -23200.00
02700              -4.60   -23200.00
02701              -0.60   -24000.00
02702              14.00   -24000.00
02703             -10.00   -24800.00
02704               2.00   -25600.00
02705               9.00   -25600.00
02706              -9.40   -25600.00
02707               7.80   -26400.00
02708               2.80   -26400.00
02709              -3.00   -27200.00
02710               4.40   -27200.00
02711               1.80   -27200.00
02712              -1.80   -27200.00
02713               4.20   -28800.00
02714               2.60   -28800.00
02715              -2.00   -28800.00
02716               4.40   -28800.00
02717               1.20   -29600.00
02718              -1.00   -30400.00
02719               5.00   -30400.00
02720               1.00   -29600.00
02721               0.20   -30400.00
02722               4.40   -31200.00
02723              -0.40   -30400.00
02724               0.80   -30400.00
02725               2.60   -31200.00
02726              -0.40   -32000.00
02727               2.80   -32000.00
02728               1.80   -32000.00
02729               0.40   -32000.00
02730               2.00   -32000.00
02731               1.00   -32800.00
02732               1.20   -32000.00
02733               2.60   -32000.00
02734               1.80   -32800.00
02735               1.00   -32000.00
02736               2.60   -32800.00
02737               1.40   -32800.00
02738               0.20   -32800.00
02739               2.60   -32800.00
02740               0.60   -32800.00
02741               1.20   -32800.00
02742               2.20   -32800.00
02743               0.20   -32800.00
02744               2.00   -32800.00
02745               1.80   -32800.00
02746               1.40   -32000.00
02747               2.20   -32800.00
02748               0.60   -32000.00
02749               1.20   -32000.00
02750               1.80   -32000.00
02751               1.60   -32000.00
02752               1.40   -32000.00
02753               1.80   -32000.00
02754               2.00   -30400.00
02755               1.00   -30400.00
02756               1.60   -31200.00
02757               1.00   -30400.00
02758               1.00   -30400.00
02759               2.00   -30400.00
02760               1.20   -30400.00
02761               1.40   -30400.00
02762               2.00   -29600.00
02763               1.00   -30400.00
02764               1.20   -28800.00
02765               1.20   -28800.00
02766               1.20   -28800.00
02767               1.60   -28800.00
02768               1.20   -28000.00
02769               0.40   -27200.00
02770               1.20   -27200.00
02771               1.20   -27200.00
02772               1.20   -26400.00
02773               1.40   -26400.00
02774               1.80   -26400.00
02775               0.20   -25600.00
02776               1.00   -24800.00
02777               1.60   -24800.00
02778               0.60   -24000.00
02779               1.20   -24000.00
02780               1.40   -23200.00
02781               0.40   -23200.00
02782               0.60   -22400.00
02783               1.00   -22400.00
02784               0.60   -22400.00
02785               0.40   -20800.00
02786               1.20   -20800.00
02787               1.00   -20000.00
02788               0.40   -20000.00
02789               0.60   -19200.00
02790               0.20   -18400.00
02791               1.00   -17600.00
02792               0.60   -17600.00
02793              -0.20   -17600.00
02794               1.00   -16800.00
02795               0.60   -16000.00
02796              -0.20   -16000.00
02797               0.60   -15200.00
02798               0.40   -14400.00
02799              -0.40   -14400.00
02800               0.60   -13600.00
02801               0.40   -12800.00
02802              -0.60   -12800.00
02803               0.40   -12800.00
02804               0.20   -11200.00
02805              -0.40   -10400.00
02806               0.20   -10400.00
02807              -0.20    -9600.00
02808              -0.60    -8800.00
02809               0.40    -8800.00
02810              -0.20    -8000.00
02811              -0.60    -7200.00
02812               0.00    -7200.00
02813              -0.60    -6400.00
02814              -0.40    -4800.00
02815              -0.20    -4000.00
02816              -0.60    -4000.00
02817              -0.40    -3200.00
02818              -0.40    -3200.00
02819              -0.60    -2400.00
02820              -0.60    -1600.00
02821              -0.40     -800.00
02822              -0.60     -800.00
02823              -0.20        0.00
02824              -0.40      800.00
02825               0.40     1600.00
02826               3.40     1600.00
02827              -0.40     2400.00
02828              -2.20     2400.00
02829               1.20     3200.00
02830               0.20     4000.00
02831              -2.00     4800.00
02832               9.40     4800.00
02833              25.00     7200.00
02834             -23.40     8000.00
02835             -25.00     8000.00
02836              21.40     8000.00
02837               6.40     8000.00
02838             -25.00     8800.00
02839              25.00    10400.00
02840               5.80    10400.00
02841             -25.00    11200.00
02842              25.00    12000.00
02843             -25.00    12000.00
02844             -11.40    12800.00
02845              25.00    12800.00
02846             -25.00    12800.00
02847              25.00    14400.00
02848             -25.00    14400.00
02849             -25.00    15200.00
02850              25.00    15200.00
02851             -25.00    16800.00
02852              11.40    16800.00
02853              25.00    17600.00
02854             -25.00    18400.00
02855             -10.60    18400.00
02856              25.00    19200.00
02857             -18.60    19200.00
02858             -17.00    20000.00
02859              25.00    20800.00
02860             -25.00    21600.00
02861               8.40    22400.00
02862               9.80    22400.00
02863             -25.00    22400.00
02864              12.60    23200.00
02865              -0.60    24000.00
02866             -10.80    24000.00
02867               6.80    24000.00
02868               4.20    24800.00
02869             -17.80    25600.00
02870              11.60    25600.00
02871              -5.20    26400.00
02872             -10.20    25600.00
02873              10.60    27200.00
02874              -9.00    28000.00
02875              -1.40    27200.00
02876               2.00    28000.00
02877              -5.00    28800.00
02878              -3.40    28800.00
02879               2.20    28800.00
02880              -4.20    29600.00
02881              -4.60    29600.00
02882               2.20    30400.00
02883              -5.20    30400.00
02884              -2.20    30400.00
02885               2.60    31200.00
02886              -5.80    31200.00
02887              -1.00    31200.00
02888              -0.40    31200.00
02889              -5.40    32000.00
02890               0.20    31200.00
02891              -3.00    32000.00
02892              -3.40    32800.00
02893               1.00    32800.00
02894              -3.20    32800.00
02895              -2.20    32800.00
02896              -1.80    32800.00
02897              -3.00    32800.00
02898              -2.00    33600.00
02899              -1.80    33600.00
02900              -1.80    33600.00
02901              -3.60    33600.00
02902              -0.60    33600.00
02903              -2.00    33600.00
02904              -3.40    33600.00
02905               0.00    33600.00
02906              -3.80    33600.00
02907              -1.20    33600.00
02908              -1.40    33600.00
02909              -3.80    33600.00
02910              -1.00    32800.00
02911              -2.20    33600.00
02912              -2.00    33600.00
02913              -1.80    33600.00
02914              -2.80    33600.00
02915              -1.80    32800.00
02916              -2.20    33600.00
02917              -1.80    32800.00
02918              -2.20    32800.00
02919              -2.00    32800.00
02920              -1.40    32800.00
02921              -2.60    32800.00
02922              -1.40    32000.00
02923              -2.80    32800.00
02924              -2.80    32000.00
02925              -1.20    31200.00
02926              -2.60    31200.00
02927              -2.60    31200.00
02928              -1.20    31200.00
02929              -1.80    30400.00
02930              -2.20    30400.00
02931              -1.80    30400.00
02932              -2.20    29600.00
02933              -3.00    28800.00
02934              -1.20    28800.00
02935              -1.40    28800.00
02936              -2.20    28000.00
02937              -1.40    28000.00
02938              -1.80    28000.00
02939              -2.20    27200.00
02940              -2.20    27200.00
02941              -2.60    27200.00
02942              -2.00    26400.00
02943              -1.80    25600.00
02944              -1.80    25600.00
02945              -1.00    24800.00
02946              -2.20    24800.00
02947              -2.20    24000.00
02948              -1.40    24000.00
02949              -1.20    24000.00
02950              -2.00    22400.00
02951              -2.00    22400.00
02952              -1.00    22400.00
02953              -2.00    21600.00
02954              -2.20    20800.00
02955              -0.60    20800.00
02956              -1.80    20000.00
02957              -1.20    19200.00
02958              -1.00    19200.00
02959              -2.00    17600.00
02960              -1.80    18400.00
02961              -1.20    17600.00
02962              -0.60    16000.00
02963              -0.60    16000.00
02964              -0.80    15200.00
02965              -1.20    15200.00
02966              -1.40    14400.00
02967              -1.20    14400.00
02968              -1.80    13600.00
02969              -1.20    12800.00
02970              -0.60    12800.00
02971              -0.80    12000.00
02972              -0.60    11200.00
02973              -1.20    11200.00
02974              -1.00    10400.00
02975              -0.20     9600.00
02976              -1.40     8800.00
02977              -0.40     8000.00
02978              -1.00     8000.00
02979              -1.20     7200.00
02980              -0.20     6400.00
02981              -0.20     6400.00
02982              -0.60     5600.00
02983              -0.20     4800.00
02984              -0.80     4800.00
02985              -1.00     3200.00
02986              -1.00     3200.00
02987              -1.00     2400.00
02988              -0.40     1600.00
02989               0.20      800.00
02990              -0.20        0.00
02991               0.20     -800.00
02992               1.00     -800.00
02993               3.20    -1600.00
02994              -1.60    -1600.00
02995              -0.40    -1600.00
02996               1.40    -3200.00
02997               0.80    -3200.00
02998              -0.20    -3200.00
02999               6.60    -4000.00
03000              25.00    -5600.00
03001               3.60    -7200.00
03002             -25.00    -8000.00
03003               1.40    -8000.00
03004              25.00    -8800.00
03005             -25.00    -8800.00
03006             -15.00    -8000.00
03007              25.00    -9600.00
03008             -25.00    -9600.00
03009             -25.00   -10400.00
03010              25.00   -11200.00
03011             -25.00   -12000.00
03012               0.60   -12800.00
03013              25.00   -13600.00
03014             -25.00   -13600.00
03015              25.00   -14400.00
03016             -25.00   -14400.00
03017               6.60   -16000.00
03018              25.00   -16000.00
03019             -25.00   -16000.00
03020              13.20   -16800.00
03021              22.20   -17600.00
03022             -24.20   -17600.00
03023              -2.80   -17600.00
03024              25.00   -19200.00
03025             -25.00   -19200.00
03026               3.80   -20000.00
03027              25.00   -20000.00
03028             -23.00   -20800.00
03029              11.80   -20800.00
03030               5.40   -22400.00
03031             -14.20   -22400.00
03032               9.60   -23200.00
03033               5.20   -23200.00
03034              -8.20   -24000.00
03035               9.80   -24000.00
03036               3.00   -24800.00
03037             -10.20   -24800.00
03038              12.20   -25600.00
03039              -2.60   -25600.00
03040              -2.60   -26400.00
03041               9.40   -26400.00
03042              -3.00   -26400.00
03043               0.40   -27200.00
03044               4.40   -27200.00
03045              -0.40   -28000.00
03046               0.40   -28000.00
03047               5.00   -28800.00
03048              -1.00   -28800.00
03049               0.00   -29600.00
03050               4.60   -28800.00
03051              -1.20   -29600.00
03052               2.00   -29600.00
03053               4.20   -30400.00
03054              -1.00   -30400.00
03055               2.60   -30400.00
03056               2.40   -30400.00
03057              -1.20   -30400.00
03058               2.80   -31200.00
03059               1.80   -31200.00
03060               1.20   -32000.00
03061               2.80   -32000.00
03062               0.40   -32000.00
03063               1.20   -32000.00
03064               1.80   -32000.00
03065               1.00   -32000.00
03066               1.80   -32000.00
03067               2.20   -32000.00
03068               1.20   -32800.00
03069               1.00   -32000.00
03070               3.40   -32800.00
03071               0.40   -32800.00
03072               1.40   -32800.00
03073               2.20   -32800.00
03074               0.20   -32000.00
03075               2.20   -32800.00
03076               1.40   -32800.00
03077               1.00   -32800.00
03078               2.60   -32800.00
03079               1.20   -33600.00
03080               1.20   -32000.00
03081               1.80   -32800.00
03082               1.80   -32000.00
03083               1.60   -32000.00
03084               1.80   -32000.00
03085               1.80   -32000.00
03086               1.00   -32000.00
03087               2.00   -30400.00
03088               1.40   -32000.00
03089               1.20   -31200.00
03090               1.80   -31200.00
03091               1.20   -30400.00
03092               1.80   -30400.00
03093               1.60   -30400.00
03094               0.60   -29600.00
03095               2.00   -29600.00
03096               1.80   -29600.00
03097               1.40   -29600.00
03098               1.60   -28800.00
03099               1.00   -28800.00
03100               1.00   -28800.00
03101               1.20   -28800.00
03102               1.80   -28800.00
03103               1.20   -28000.00
03104               1.00   -27200.00
03105               1.40   -27200.00
03106               1.20   -26400.00
03107               1.00   -25600.00
03108               1.20   -25600.00
03109               1.00   -25600.00
03110               1.00   -24800.00
03111               1.20   -24800.00
03112               1.20   -24000.00
03113               0.60   -23200.00
03114               0.80   -24000.00
03115               1.00   -22400.00
03116               0.80   -22400.00
03117               1.20   -22400.00
03118               0.60   -21600.00
03119               0.40   -20800.00
03120               1.00   -20800.00
03121               0.40   -20800.00
03122               0.40   -20000.00
03123               0.40   -19200.00
03124               0.40   -18400.00
03125               0.40   -17600.00
03126               0.00   -16800.00
03127               0.20   -16800.00
03128               0.40   -16800.00
03129               0.20   -16000.00
03130               0.60   -16000.00
03131               0.40   -14400.00
03132               0.00   -14400.00
03133               0.20   -14400.00
03134               0.40   -13600.00
03135               0.20   -12800.00
03136              -0.20   -12800.00
03137               1.00   -11200.00
03138              -0.40   -11200.00
03139              -0.20   -10400.00
03140               0.40   -10400.00
03141              -0.60    -9600.00
03142              -0.40    -8800.00
03143               0.40    -8000.00
03144              -0.20    -8000.00
03145               0.20    -7200.00
03146               0.20    -6400.00
03147              -0.20    -6400.00
03148              -0.20    -5600.00
03149              -0.60    -4800.00
03150              -0.60    -4000.00
03151              -0.20    -3200.00
03152              -0.60    -2400.00
03153              -0.40    -1600.00
03154               0.20    -1600.00
03155              -1.20     -800.00
03156              -0.40        0.00
03157               0.00        0.00
03158              -1.20      800.00
03159               1.40     1600.00
03160               3.80     1600.00
03161              -3.40     2400.00
03162              -0.20     3200.00
03163               2.00     3200.00
03164              -1.40     3200.00
03165               1.80     4800.00
03166              21.40     6400.00
03167              21.80     7200.00
03168             -25.00     8000.00
03169             -13.20     8800.00
03170              25.00     8000.00
03171             -25.00     8800.00
03172              -3.60     9600.00
03173              25.00    10400.00
03174             -25.00     9600.00
03175              25.00    11200.00
03176              25.00    12000.00
03177             -25.00    12000.00
03178              25.00    12800.00
03179             -25.00    12800.00
03180              -5.80    14400.00
03181              25.00    14400.00
03182             -25.00    15200.00
03183              25.00    16000.00
03184              11.40    16000.00
03185             -25.00    16000.00
03186              25.00    17600.00
03187              -2.60    18400.00
03188             -25.00    18400.00
03189              13.00    18400.00
03190              17.00    19200.00
03191             -25.00    20000.00
03192              22.60    20800.00
03193               9.20    20800.00
03194             -25.00    21600.00
03195              25.00    21600.00
03196             -21.00    22400.00
03197              -6.60    23200.00
03198              11.40    23200.00
03199             -10.00    24000.00
03200              -3.00    24000.00
03201              12.60    24800.00
03202             -11.80    24800.00
03203              -6.00    25600.00
03204              10.80    25600.00
03205             -17.20    25600.00
03206               5.40    26400.00
03207               2.00    27200.00
03208              -9.00    27200.00
03209               3.40    28000.00
03210              -2.80    28000.00
03211              -5.20    28000.00
03212               0.40    28800.00
03213               0.20    28800.00
03214              -5.20    29600.00
03215              -0.60    30400.00
03216              -1.80    30400.00
03217              -5.40    30400.00
03218               1.80    30400.00
03219              -2.20    30400.00
03220              -3.80    31200.00
03221               1.80    32000.00
03222              -4.20    32000.00
03223              -3.00    32800.00
03224               0.40    32000.00
03225              -5.20    32800.00
03226              -0.20    32800.00
03227              -0.20    32000.00
03228              -3.80    32800.00
03229              -1.40    32000.00
03230              -3.00    32800.00
03231              -2.20    33600.00
03232              -1.40    33600.00
03233              -2.00    33600.00
03234              -2.60    33600.00
03235              -2.60    32800.00
03236              -0.80    33600.00
03237              -3.80    33600.00
03238              -1.00    33600.00
03239              -2.20    33600.00
03240              -3.00    33600.00
03241               0.40    33600.00
03242              -3.40    33600.00
03243              -2.40    33600.00
03244              -1.40    33600.00
03245              -3.00    33600.00
03246              -1.40    33600.00
03247              -2.80    33600.00
03248              -2.80    32800.00
03249              -2.00    32000.00
03250              -2.20    33600.00
03251              -2.40    32800.00
03252              -2.20    32800.00
03253              -1.80    32000.00
03254              -2.20    32800.00
03255              -1.80    32000.00
03256              -2.20    32000.00
03257              -3.00    32800.00
03258              -1.40    31200.00
03259              -1.80    31200.00
03260              -2.80    30400.00
03261              -1.80    30400.00
03262              -2.20    31200.00
03263              -2.20    30400.00
03264              -2.20    30400.00
03265              -2.20    29600.00
03266              -2.00    29600.00
03267              -2.20    29600.00
03268              -1.40    28800.00
03269              -2.00    28800.00
03270              -2.20    28800.00
03271              -1.60    28000.00
03272              -2.00    27200.00
03273              -1.60    27200.00
03274              -1.80    27200.00
03275              -2.20    26400.00
03276              -1.20    25600.00
03277              -2.20    25600.00
03278              -1.80    25600.00
03279              -1.80    24800.00
03280              -2.20    24800.00
03281              -1.80    24000.00
03282              -1.40    24000.00
03283              -1.60    23200.00
03284              -1.20    22400.00
03285              -1.80    22400.00
03286              -1.20    21600.00
03287              -1.40    21600.00
03288              -1.80    20800.00
03289              -1.80    20000.00
03290              -1.40    19200.00
03291              -1.20    19200.00
03292              -1.20    18400.00
03293              -1.80    17600.00
03294              -1.40    17600.00
03295              -1.00    16800.00
03296              -0.80    16000.00
03297              -1.40    16000.00
03298              -1.20    15200.00
03299              -1.00    15200.00
03300              -1.20    14400.00
03301              -0.60    13600.00
03302              -1.20    13600.00
03303              -1.80    12800.00
03304              -0.40    12800.00
03305              -0.80    12000.00
03306              -1.00    11200.00
03307              -0.60    10400.00
03308              -0.40     9600.00
03309              -1.40     9600.00
03310              -0.60     8800.00
03311              -0.40     8000.00
03312              -1.20     7200.00
03313              -0.80     6400.00
03314              -0.20     6400.00
03315              -1.20     5600.00
03316              -0.40     4800.00
03317              -0.60     4800.00
03318              -0.40     3200.00
03319              -0.40     2400.00
03320              -0.60     2400.00
03321              -0.60     1600.00
03322              -0.20     1600.00
03323              -0.40        0.00
03324               0.20        0.00
03325               0.40        0.00
03326               2.80     -800.00
03327               1.00    -1600.00
03328              -2.20    -1600.00
03329               1.00    -2400.00
03330               1.80    -3200.00
03331              -0.40    -4000.00
03332               2.60    -4000.00
03333              14.40    -5600.00
03334              25.00    -6400.00
03335             -25.00    -7200.00
03336             -25.00    -8000.00
03337              25.00    -8000.00
03338               2.00    -8000.00
03339             -25.00    -8000.00
03340              25.00    -8800.00
03341              25.00   -10400.00
03342             -25.00    -9600.00
03343              25.00   -11200.00
03344              25.00   -11200.00
03345             -25.00   -12000.00
03346              25.00   -12800.00
03347             -18.60   -13600.00
03348               4.60   -14400.00
03349              15.20   -14400.00
03350             -25.00   -14400.00
03351              25.00   -16000.00
03352              -8.80   -16000.00
03353             -22.00   -16800.00
03354              25.00   -16800.00
03355              -2.00   -17600.00
03356             -24.60   -17600.00
03357              21.60   -19200.00
03358               6.80   -18400.00
03359             -25.00   -19200.00
03360              25.00   -20000.00
03361              -2.00   -20800.00
03362             -13.20   -20800.00
03363              21.60   -21600.00
03364             -12.20   -22400.00
03365              -3.00   -23200.00
03366              11.80   -23200.00
03367              -4.00   -23200.00
03368              -2.20   -23200.00
03369              13.00   -24000.00
03370              -8.20   -24800.00
03371               1.20   -25600.00
03372               8.60   -25600.00
03373              -9.20   -25600.00
03374               7.00   -26400.00
03375               3.40   -26400.00
03376              -3.00   -27200.00
03377               4.40   -27200.00
03378               2.00   -28000.00
03379              -1.40   -28000.00
03380               3.20   -28800.00
03381               2.60   -28800.00
03382              -1.40   -28800.00
03383               3.40   -28800.00
03384               1.00   -28800.00
03385              -0.60   -29600.00
03386               3.80   -29600.00
03387               1.00   -29600.00
03388              -0.20   -30400.00
03389               3.40   -30400.00
03390               0.20   -30400.00
03391               0.60   -30400.00
03392               2.60   -32000.00
03393               0.60   -32000.00
03394               2.80   -31200.00
03395               1.60   -32000.00
03396               0.40   -32000.00
03397               1.80   -32800.00
03398               1.00   -32000.00
03399               1.20   -32800.00
03400               2.00   -32800.00
03401               1.80   -32000.00
03402               0.60   -32800.00
03403               2.60   -32800.00
03404               2.00   -32800.00
03405               0.60   -32800.00
03406               2.80   -32800.00
03407               1.00   -32800.00
03408               1.20   -32800.00
03409               2.60   -32800.00
03410               0.40   -32800.00
03411               2.20   -32800.00
03412               2.00   -32800.00
03413               0.40   -32800.00
03414               2.00   -32800.00
03415               1.40   -32000.00
03416               1.20   -32000.00
03417               1.80   -32000.00
03418               1.80   -32000.00
03419               1.20   -32000.00
03420               1.40   -31200.00
03421               2.00   -32000.00
03422               1.00   -31200.00
03423               1.80   -30400.00
03424               1.40   -31200.00
03425               1.20   -30400.00
03426               2.00   -30400.00
03427               1.40   -29600.00
03428               1.00   -29600.00
03429               1.80   -29600.00
03430               0.80   -29600.00
03431               1.00   -28800.00
03432               1.40   -28800.00
03433               1.40   -28800.00
03434               1.00   -28800.00
03435               1.60   -28000.00
03436               1.20   -27200.00
03437               1.20   -27200.00
03438               1.20   -27200.00
03439               1.20   -26400.00
03440               1.00   -26400.00
03441               1.40   -25600.00
03442               0.40   -25600.00
03443               1.80   -25600.00
03444               2.00   -24800.00
03445               0.40   -24800.00
03446               0.40   -24000.00
03447               0.20   -24000.00
03448               0.60   -23200.00
03449               1.40   -22400.00
03450               0.40   -23200.00
03451               0.40   -22400.00
03452               1.00   -22400.00
03453               1.00   -20800.00
03454               0.40   -20000.00
03455               0.40   -20800.00
03456               1.20   -20000.00
03457               0.40   -18400.00
03458               0.40   -18400.00
03459               1.00   -17600.00
03460              -0.40   -17600.00
03461              -0.60   -16800.00
03462               1.00   -16000.00
03463               1.00   -16000.00
03464               0.40   -16000.00
03465              -0.20   -14400.00
03466              -0.20   -14400.00
03467               0.20   -13600.00
03468               0.60   -12800.00
03469               0.20   -12800.00
03470              -0.20   -12000.00
03471               1.00   -11200.00
03472              -0.20   -10400.00
03473              -0.20   -10400.00
03474               0.40    -9600.00
03475              -0.80    -8800.00
03476              -0.40    -8800.00
03477               0.60    -8000.00
03478              -0.40    -7200.00
03479              -0.20    -7200.00
03480               0.20    -6400.00
03481              -0.60    -5600.00
03482              -0.20    -4800.00
03483              -0.40    -4000.00
03484              -0.60    -4000.00
03485               0.20    -2400.00
03486              -0.20    -2400.00
03487              -0.40    -1600.00
03488              -0.20    -1600.00
03489              -0.20        0.00
03490              -0.60        0.00
03491               0.20      800.00
03492               0.20     1600.00
03493               2.60     1600.00
03494               0.20     1600.00
03495              -2.20     3200.00
03496               0.60     3200.00
03497               0.80     3200.00
03498              -1.60     4800.00
03499               8.80     5600.00
03500              25.00     7200.00
03501             -19.80     7200.00
03502             -25.00     8000.00
03503              19.80     8800.00
03504               9.20     8000.00
03505             -25.00     8000.00
03506              25.00     9600.00
03507              13.20     9600.00
03508             -25.00    10400.00
03509              25.00    11200.00
03510             -25.00    11200.00
03511             -19.40    12800.00
03512              25.00    13600.00
03513             -25.00    12800.00
03514              25.00    14400.00
03515             -20.60    14400.00
03516             -25.00    15200.00
03517              25.00    15200.00
03518             -25.00    16000.00
03519               5.80    17600.00
03520              25.00    17600.00
03521             -25.00    18400.00
03522             -12.60    18400.00
03523              25.00    19200.00
03524             -15.80    19200.00
03525             -20.20    20800.00
03526              25.00    20800.00
03527             -25.00    21600.00
03528               5.80    21600.00
03529              12.60    22400.00
03530             -25.00    22400.00
03531              12.60    24000.00
03532               1.00    24000.00
03533             -11.60    24000.00
03534               6.60    24800.00
03535               5.20    24800.00
03536             -18.00    25600.00
03537              10.80    25600.00
03538              -4.20    25600.00
03539             -11.60    27200.00
03540              11.00    27200.00
03541              -8.80    27200.00
03542              -2.00    28000.00
03543               2.60    28000.00
03544              -5.00    28000.00
03545              -3.00    28800.00
03546               2.00    28800.00
03547              -3.60    28800.00
03548              -4.00    30400.00
03549               1.40    30400.00
03550              -4.40    30400.00
03551              -2.80    30400.00
03552               2.20    30400.00
03553              -4.60    31200.00
03554              -1.80    31200.00
03555              -0.40    31200.00
03556              -5.00    31200.00
03557              -0.40    31200.00
03558              -2.40    32000.00
03559              -3.00    32000.00
03560               0.60    32800.00
03561              -3.00    32800.00
03562              -1.80    32800.00
03563              -2.00    32800.00
03564              -3.00    32800.00
03565              -1.20    33600.00
03566              -2.40    33600.00
03567              -2.00    33600.00
03568              -2.80    32800.00
03569              -1.20    33600.00
03570              -2.20    33600.00
03571              -3.00    33600.00
03572              -0.80    33600.00
03573              -3.80    33600.00
03574              -1.20    33600.00
03575              -1.20    33600.00
03576              -4.40    32800.00
03577              -0.60    33600.00
03578              -2.00    32800.00
03579              -2.60    32800.00
03580              -2.00    33600.00
03581              -2.80    33600.00
03582              -2.20    32800.00
03583              -2.40    32800.00
03584              -1.80    32800.00
03585              -2.80    32800.00
03586              -2.60    32800.00
03587              -1.80    32800.00
03588              -2.40    32000.00
03589              -1.80    32000.00
03590              -2.60    32000.00
03591              -2.40    32000.00
03592              -1.20    31200.00
03593              -2.60    31200.00
03594              -2.20    31200.00
03595              -2.00    30400.00
03596              -2.60    30400.00
03597              -2.00    30400.00
03598              -2.00    30400.00
03599              -2.40    29600.00
03600              -2.00    28800.00
03601              -2.20    28800.00
03602              -1.80    28800.00
03603              -1.40    28000.00
03604              -2.00    28000.00
03605              -2.20    27200.00
03606              -1.40    27200.00
03607              -1.80    27200.00
03608              -2.60    27200.00
03609              -1.20    26400.00
03610              -1.80    25600.00
03611              -2.00    24800.00
03612              -1.20    25600.00
03613              -2.20    24800.00
03614              -2.00    24800.00
03615              -1.20    24000.00
03616              -2.00    24000.00
03617              -1.40    22400.00
03618              -1.80    22400.00
03619              -1.40    22400.00
03620              -1.20    21600.00
03621              -1.40    21600.00
03622              -1.40    20800.00
03623              -1.20    20000.00
03624              -1.00    19200.00
03625              -1.40    19200.00
03626              -1.00    18400.00
03627              -1.40    17600.00
03628              -2.00    17600.00
03629              -0.60    16000.00
03630              -1.40    16000.00
03631              -2.00    16000.00
03632              -1.20    15200.00
03633              -1.00    14400.00
03634              -1.20    14400.00
03635              -1.40    13600.00
03636              -1.20    12800.00
03637              -0.60    12800.00
03638              -1.20    12000.00
03639              -0.60    11200.00
03640              -0.80    11200.00
03641              -1.40     9600.00
03642              -0.60     9600.00
03643              -1.40     8800.00
03644              -1.60     8000.00
03645               0.20     8000.00
03646              -0.40     7200.00
03647              -1.40     6400.00
03648              -0.40     5600.00
03649              -1.20     5600.00
03650              -1.20     4800.00
03651               0.40     4000.00
03652              -0.20     3200.00
03653              -1.40     3200.00
03654              -0.20     2400.00
03655               0.20     1600.00
03656              -1.00      800.00
03657              -0.20        0.00
03658               0.20        0.00
03659               0.40     -800.00
03660               4.60     -800.00
03661              -1.00    -1600.00
03662              -1.80    -1600.00
03663               1.80    -2400.00
03664               1.20    -3200.00
03665              -0.80    -4000.00
03666               6.80    -4800.00
03667              24.40    -6400.00
03668               5.40    -6400.00
03669             -25.00    -8000.00
03670              -0.60    -8000.00
03671              25.00    -8000.00
03672             -25.00    -8800.00
03673             -18.80    -8000.00
03674              25.00    -9600.00
03675             -25.00   -10400.00
03676             -25.00   -11200.00
03677              25.00   -11200.00
03678             -25.00   -11200.00
03679              -5.00   -12000.00
03680              25.00   -12800.00
03681             -25.00   -13600.00
03682              25.00   -14400.00
03683             -25.00   -14400.00
03684               3.40   -15200.00
03685              25.00   -16000.00
03686             -25.00   -16000.00
03687              10.80   -16800.00
03688              24.40   -17600.00
03689             -23.60   -18400.00
03690              -4.40   -18400.00
03691              25.00   -19200.00
03692             -24.40   -20000.00
03693               1.00   -20000.00
03694              25.00   -20000.00
03695             -22.80   -20800.00
03696              10.00   -21600.00
03697               7.20   -22400.00
03698             -14.80   -22400.00
03699               9.20   -22400.00
03700               6.20   -23200.00
03701              -7.80   -23200.00
03702               9.40   -24000.00
03703               3.80   -24800.00
03704             -11.00   -25600.00
03705              11.40   -25600.00
03706              -2.20   -25600.00
03707              -3.40   -25600.00
03708               9.80   -26400.00
03709              -2.60   -27200.00
03710               0.20   -27200.00
03711               4.20   -27200.00
03712              -0.60   -28000.00
03713               0.20   -28800.00
03714               4.60   -28000.00
03715              -0.60   -28800.00
03716               0.20   -28800.00
03717               4.20   -29600.00
03718              -1.40   -29600.00
03719               2.00   -29600.00
03720               3.60   -30400.00
03721              -1.00   -30400.00
03722               2.60   -30400.00
03723               2.20   -31200.00
03724              -1.20   -31200.00
03725               2.60   -32000.00
03726               1.20   -32000.00
03727               1.40   -32000.00
03728               3.00   -32000.00
03729               0.20   -32000.00
03730               1.20   -32000.00
03731               1.80   -32000.00
03732               1.00   -32000.00
03733               2.00   -32000.00
03734               2.00   -32800.00
03735               1.60   -32800.00
03736               1.40   -32800.00
03737               2.60   -32800.00
03738               0.20   -32800.00
03739               1.20   -32800.00
03740               2.20   -32000.00
03741               0.20   -32800.00
03742               2.60   -32000.00
03743               1.40   -32800.00
03744               1.00   -32000.00
03745               2.80   -32800.00
03746               1.20   -32000.00
03747               1.40   -32800.00
03748               1.80   -32800.00
03749               1.20   -32800.00
03750               1.80   -32000.00
03751               1.80   -32000.00
03752               1.40   -32000.00
03753               1.40   -32000.00
03754               1.80   -32000.00
03755               1.40   -32000.00
03756               1.20   -31200.00
03757               1.80   -30400.00
03758               1.20   -30400.00
03759               1.60   -30400.00
03760               2.00   -30400.00
03761               1.00   -29600.00
03762               1.40   -29600.00
03763               2.00   -29600.00
03764               1.20   -29600.00
03765               1.20   -28800.00
03766               1.80   -29600.00
03767               1.20   -28800.00
03768               0.40   -28800.00
03769               1.40   -28000.00
03770               1.00   -27200.00
03771               0.40   -27200.00
03772               1.20   -27200.00
03773               1.00   -26400.00
03774               1.20   -26400.00
03775               1.00   -25600.00
03776               0.80   -25600.00
03777               1.40   -25600.00
03778               1.00   -24800.00
03779               0.60   -24000.00
03780               0.60   -23200.00
03781               0.60   -23200.00
03782               0.60   -23200.00
03783               0.60   -22400.00
03784               1.00   -22400.00
03785               0.60   -21600.00
03786               1.00   -20800.00
03787               1.00   -20800.00
03788               0.20   -20000.00
03789               0.40   -19200.00
03790               0.40   -19200.00
03791               0.80   -18400.00
03792               1.00   -17600.00
03793               0.40   -17600.00
03794               0.40   -16800.00
03795               1.00   -16800.00
03796              -0.20   -16000.00
03797               0.20   -16000.00
03798               0.40   -15200.00
03799               0.20   -13600.00
03800               0.20   -13600.00
03801               0.40   -13600.00
03802               0.20   -12800.00
03803               0.20   -12000.00
03804               0.40   -11200.00
03805               0.20   -11200.00
03806              -0.40   -10400.00
03807               0.20    -9600.00
03808               0.20    -9600.00
03809              -0.60    -8000.00
03810               0.40    -8000.00
03811               0.40    -7200.00
03812              -0.60    -6400.00
03813               0.40    -6400.00
03814              -0.40    -5600.00
03815              -0.60    -4800.00
03816               0.00    -4000.00
03817              -0.40    -4000.00
03818              -0.20    -3200.00
03819               0.20    -3200.00
03820              -0.60    -1600.00
03821              -1.00    -1600.00
03822               0.20     -800.00
03823              -0.80     -800.00
03824              -0.60        0.00
03825               1.00      800.00
03826               0.80     1600.00
03827               2.60     2400.00
03828              -1.60     2400.00
03829              -1.20     3200.00
03830               1.00     3200.00
03831              -0.40     4800.00
03832               0.40     4800.00
03833              20.40     6400.00
03834              24.40     7200.00
03835             -25.00     8000.00
03836             -16.20     8000.00
03837              25.00     8800.00
03838             -25.00     8000.00
03839              -7.80     9600.00
03840              25.00     9600.00
03841             -25.00     9600.00
03842              21.00    11200.00
03843              25.00    12000.00
03844             -25.00    12000.00
03845              25.00    12800.00
03846             -22.00    12800.00
03847             -15.00    14400.00
03848              25.00    14400.00
03849             -25.00    15200.00
03850              25.00    15200.00
03851              19.40    16000.00
03852             -25.00    16800.00
03853              25.00    17600.00
03854               0.80    17600.00
03855             -25.00    18400.00
03856              10.80    19200.00
03857              19.60    19200.00
03858             -25.00    20000.00
03859              19.40    20800.00
03860              12.80    21600.00
03861             -25.00    21600.00
03862              25.00    22400.00
03863             -18.60    22400.00
03864              -9.00    24000.00
03865              12.40    23200.00
03866              -9.00    24000.00
03867              -4.20    24800.00
03868              13.00    24800.00
03869             -10.00    25600.00
03870              -7.60    24800.00
03871              12.20    25600.00
03872             -16.40    26400.00
03873               3.80    26400.00
03874               3.40    27200.00
03875              -9.00    28000.00
03876               2.60    28000.00
03877              -2.00    28000.00
03878              -4.60    28000.00
03879              -1.00    28800.00
03880               1.00    28800.00
03881              -5.00    29600.00
03882              -1.00    28800.00
03883              -0.60    30400.00
03884              -5.40    30400.00
03885               1.40    30400.00
03886              -1.00    31200.00
03887              -5.00    31200.00
03888               1.80    32000.00
03889              -3.80    32000.00
03890              -3.80    32800.00
03891               0.80    32800.00
03892              -4.60    32000.00
03893              -1.00    32000.00
03894              -0.20    32800.00
03895              -3.60    32800.00
03896              -1.60    32800.00
03897              -2.80    32800.00
03898              -2.80    32800.00
03899              -2.00    32800.00
03900              -1.80    32800.00
03901              -2.80    33600.00
03902              -2.60    33600.00
03903              -1.00    33600.00
03904              -3.80    33600.00
03905              -1.40    33600.00
03906              -2.00    33600.00
03907              -3.60    33600.00
03908               0.40    33600.00
03909              -3.40    33600.00
03910              -3.00    33600.00
03911              -0.60    33600.00
03912              -3.00    32800.00
03913              -1.80    32800.00
03914              -2.20    33600.00
03915              -2.80    33600.00
03916              -2.00    32800.00
03917              -2.20    32800.00
03918              -2.20    32000.00
03919              -2.80    32800.00
03920              -1.80    32800.00
03921              -2.20    32000.00
03922              -2.00    32000.00
03923              -2.00    32800.00
03924              -3.40    32000.00
03925              -1.40    32000.00
03926              -1.40    31200.00
03927              -2.80    31200.00
03928              -2.00    31200.00
03929              -2.20    30400.00
03930              -2.00    30400.00
03931              -1.80    30400.00
03932              -2.20    30400.00
03933              -1.80    29600.00
03934              -2.20    29600.00
03935              -1.80    28800.00
03936              -1.60    28800.00
03937              -2.20    28800.00
03938              -1.80    28000.00
03939              -1.80    27200.00
03940              -1.40    27200.00
03941              -2.00    26400.00
03942              -2.00    26400.00
03943              -1.40    26400.00
03944              -2.00    25600.00
03945              -1.40    25600.00
03946              -1.60    24000.00
03947              -1.80    24800.00
03948              -1.00    24000.00
03949              -1.60    24000.00
03950              -1.80    24000.00
03951              -1.80    23200.00
03952              -1.80    22400.00
03953              -1.20    22400.00
03954              -2.00    21600.00
03955              -1.80    20800.00
03956              -2.00    20000.00
03957              -1.20    20800.00
03958              -0.60    19200.00
03959              -1.20    18400.00
03960              -1.00    18400.00
03961              -1.40    17600.00
03962              -1.20    17600.00
03963              -1.00    16000.00
03964              -1.40    16000.00
03965              -1.00    15200.00
03966              -1.40    15200.00
03967              -1.20    14400.00
03968              -1.20    14400.00
03969              -1.60    13600.00
03970              -1.80    12800.00
03971              -0.80    12000.00
03972              -1.00    11200.00
03973              -0.80    11200.00
03974              -1.20    10400.00
03975              -0.40    10400.00
03976              -1.20     8800.00
03977              -1.00     8800.00
03978              -0.40     8000.00
03979              -1.20     8000.00
03980              -0.60     7200.00
03981              -0.60     6400.00
03982              -1.20     5600.00
03983              -0.40     4800.00
03984              -1.20     4000.00
03985              -0.40     3200.00
03986              -0.20     3200.00
03987              -1.00     2400.00
03988              -0.80     1600.00
03989              -0.40     1600.00
03990              -0.40        0.00
03991               0.20        0.00
03992               0.20     -800.00
03993               3.00     -800.00
03994               1.80     -800.00
03995              -1.80    -2400.00
03996               1.00    -2400.00
03997               1.40    -3200.00
03998              -0.40    -3200.00
03999               1.80    -4000.00
04000              13.60    -4800.00
04001              25.00    -6400.00
04002             -25.00    -7200.00
04003             -25.00    -8000.00
04004              24.60    -8000.00
04005               5.80    -8800.00
04006             -25.00    -8000.00
04007              25.00    -8800.00
04008              25.00   -10400.00
04009             -25.00    -9600.00
04010              25.00   -11200.00
04011              25.00   -11200.00
04012             -25.00   -12000.00
04013              25.00   -13600.00
04014             -14.80   -12800.00
04015               2.40   -14400.00
04016              18.00   -13600.00
04017             -25.00   -14400.00
04018              25.00   -15200.00
04019              -5.40   -16000.00
04020             -23.60   -16000.00
04021              25.00   -16800.00
04022              -0.40   -17600.00
04023             -23.60   -18400.00
04024              18.60   -18400.00
04025               8.60   -19200.00
04026             -25.00   -20000.00
04027              25.00   -20000.00
04028               0.40   -20800.00
04029             -14.80   -21600.00
04030              19.80   -22400.00
04031             -10.60   -22400.00
04032              -3.80   -23200.00
04033              11.00   -23200.00
04034              -3.80   -24000.00
04035              -2.20   -24000.00
04036              14.00   -24000.00
04037              -7.80   -24000.00
04038               0.40   -25600.00
04039              10.00   -25600.00
04040              -9.60   -25600.00
04041               5.80   -25600.00
04042               3.40   -26400.00
04043              -3.60   -27200.00
04044               4.20   -27200.00
04045               2.80   -28000.00
04046              -1.40   -28000.00
04047               2.80   -28000.00
04048               2.80   -28800.00
04049              -2.80   -28800.00
04050               3.00   -29600.00
04051               1.40   -29600.00
04052              -0.60   -29600.00
04053               4.80   -30400.00
04054               1.80   -30400.00
04055              -0.40   -29600.00
04056               3.80   -30400.00
04057               0.40   -31200.00
04058               0.20   -30400.00
04059               2.20   -31200.00
04060               0.20   -32000.00
04061               2.80   -32000.00
04062               2.00   -32000.00
04063               1.00   -32000.00
04064               2.20   -32000.00
04065               1.20   -32000.00
04066               1.00   -32800.00
04067               1.40   -32000.00
04068               1.80   -32000.00
04069               1.20   -32800.00
04070               2.60   -32800.00
04071               2.20   -32800.00
04072               0.40   -32800.00
04073               2.80   -32800.00
04074               1.40   -32000.00
04075               0.60   -32000.00
04076               2.20   -32800.00
04077               1.00   -32800.00
04078               1.60   -32800.00
04079               2.00   -32800.00
04080               1.60   -32800.00
04081               2.00   -32000.00
04082               2.00   -32000.00
04083               1.40   -32000.00
04084               1.40   -32000.00
04085               3.00   -32800.00
04086               0.40   -32000.00
04087               0.60   -32000.00
04088               3.00   -31200.00
04089               0.20   -31200.00
04090               1.40   -32000.00
04091               2.80   -30400.00
04092               0.60   -30400.00
04093               2.40   -30400.00
04094               2.20   -29600.00
04095              -0.60   -29600.00
04096               1.00   -29600.00
04097               1.80   -29600.00
04098               0.60   -29600.00
04099               2.20   -28800.00
04100               2.60   -28800.00
04101               0.20   -28800.00
04102               1.40   -28000.00
04103               1.00   -28000.00
04104              -0.40   -27200.00
04105               1.80   -27200.00
04106               1.60   -27200.00
04107               0.40   -26400.00
04108               1.80   -26400.00
04109               0.20   -25600.00
04110               1.20   -25600.00
04111               2.60   -24800.00
04112               0.40   -24000.00
04113               0.40   -24000.00
04114               0.60   -24000.00
04115              -0.20   -23200.00
04116               1.20   -22400.00
04117               1.40   -22400.00
04118               1.00   -22400.00
04119               1.20   -21600.00
04120               0.40   -20800.00
04121               0.40   -20000.00
04122              -0.20   -20000.00
04123               0.00   -18400.00
04124               0.40   -18400.00
04125               1.00   -18400.00
04126               1.00   -17600.00
04127               1.00   -16800.00
04128               0.60   -16800.00
04129               0.20   -16000.00
04130               0.40   -16000.00
04131               0.40   -16000.00
04132              -0.20   -14400.00
04133               0.60   -14400.00
04134               0.60   -13600.00
04135               0.40   -12800.00
04136               1.00   -12800.00
04137               0.20   -11200.00
04138               0.20   -11200.00
04139               0.20   -11200.00
04140              -0.80   -10400.00
04141               0.00    -9600.00
04142              -0.20    -8800.00
04143               0.20    -8000.00
04144               0.60    -8000.00
04145               0.20    -7200.00
04146              -0.40    -6400.00
04147               0.40    -5600.00
04148              -0.60    -5600.00
04149               0.20    -4800.00
04150              -0.20    -4000.00
04151              -0.60    -4000.00
04152               0.60    -3200.00
04153              -0.60    -2400.00
04154              -1.00    -1600.00
04155               0.00     -800.00
04156              -0.60     -800.00
04157              -1.00        0.00
04158               0.20     1600.00
04159               0.20     1600.00
04160               2.60     1600.00
04161               1.00     2400.00
04162              -2.60     2400.00
04163               0.40     3200.00
04164               0.40     3200.00
04165              -2.20     4000.00
04166               7.80     5600.00
04167              25.00     7200.00
04168             -16.20     8000.00
04169             -25.00     8000.00
04170              17.20     8000.00
04171              11.60     8800.00
04172             -25.00     8800.00
04173              25.00     9600.00
04174              21.00     9600.00
04175             -25.00    11200.00
04176              25.00    12000.00
04177             -25.00    11200.00
04178             -25.00    12800.00
04179              25.00    12800.00
04180             -25.00    12800.00
04181              25.00    14400.00
04182             -12.20    14400.00
04183             -25.00    16000.00
04184              25.00    16000.00
04185             -25.00    16000.00
04186               0.80    17600.00
04187              25.00    17600.00
04188             -25.00    17600.00
04189             -14.00    19200.00
04190              25.00    19200.00
04191             -12.40    19200.00
04192             -23.40    20800.00
04193              25.00    20800.00
04194             -25.00    21600.00
04195               3.00    21600.00
04196              14.20    22400.00
04197             -25.00    22400.00
04198              11.60    24000.00
04199               1.00    24000.00
04200             -11.00    24000.00
04201               5.80    24800.00
04202               6.00    24800.00
04203             -17.80    25600.00
04204               9.80    25600.00
04205              -2.80    25600.00
04206             -12.20    27200.00
04207              10.80    27200.00
04208              -7.80    28000.00
04209              -2.20    27200.00
04210               2.40    28000.00
04211              -4.40    28800.00
04212              -3.20    28800.00
04213               0.80    28800.00
04214              -3.00    29600.00
04215              -4.00    28800.00
04216               0.60    28800.00
04217              -3.80    30400.00
04218              -2.20    30400.00
04219               1.80    30400.00
04220              -4.60    31200.00
04221              -1.40    31200.00
04222              -0.40    31200.00
04223              -5.00    31200.00
04224              -0.20    32800.00
04225              -2.20    32000.00
04226              -3.80    32000.00
04227               0.60    32800.00
04228              -3.40    32800.00
04229              -2.80    32000.00
04230              -2.00    32800.00
04231              -3.60    32800.00
04232              -1.60    33600.00
04233              -2.00    33600.00
04234              -2.20    32800.00
04235              -3.20    33600.00
04236              -1.20    33600.00
04237              -2.20    33600.00
04238              -3.40    33600.00
04239              -0.60    33600.00
04240              -4.00    33600.00
04241              -1.20    33600.00
04242              -1.00    33600.00
04243              -4.40    33600.00
04244              -1.20    33600.00
04245              -2.20    33600.00
04246              -2.60    33600.00
04247              -1.40    33600.00
04248              -2.80    33600.00
04249              -2.80    32800.00
04250              -2.00    32800.00
04251              -2.00    32800.00
04252              -2.60    32800.00
04253              -2.20    32800.00
04254              -1.20    32000.00
04255              -2.20    32800.00
04256              -1.40    32000.00
04257              -2.40    32800.00
04258              -2.80    31200.00
04259              -1.80    31200.00
04260              -2.20    31200.00
04261              -2.20    31200.00
04262              -1.40    30400.00
04263              -2.80    30400.00
04264              -2.00    30400.00
04265              -1.20    30400.00
04266              -2.40    29600.00
04267              -2.00    28800.00
04268              -1.20    28800.00
04269              -2.00    28000.00
04270              -2.20    28000.00
04271              -1.60    28000.00
04272              -2.00    28000.00
04273              -1.80    27200.00
04274              -1.20    27200.00
04275              -2.80    27200.00
04276              -2.00    26400.00
04277              -1.00    25600.00
04278              -2.00    25600.00
04279              -1.40    25600.00
04280              -2.00    24800.00
04281              -1.80    24800.00
04282              -1.60    24000.00
04283              -1.40    24000.00
04284              -1.80    24000.00
04285              -1.40    22400.00
04286              -0.60    22400.00
04287              -1.40    21600.00
04288              -2.00    20800.00
04289              -1.80    20000.00
04290              -2.80    20800.00
04291              -1.20    19200.00
04292              -1.20    19200.00
04293              -1.60    18400.00
04294              -0.60    17600.00
04295              -1.80    17600.00
04296              -1.40    16000.00
04297              -1.00    16000.00
04298              -1.80    15200.00
04299              -1.20    16000.00
04300              -1.40    14400.00
04301              -0.80    14400.00
04302              -1.80    13600.00
04303              -1.20    12800.00
04304              -0.60    12800.00
04305              -1.20    12000.00
04306              -1.20    11200.00
04307              -1.60    11200.00
04308              -1.80    10400.00
04309              -0.60     9600.00
04310              -1.20     8800.00
04311               0.00     8800.00
04312              -0.20     8000.00
04313              -1.40     7200.00
04314              -0.60     6400.00
04315              -0.80     5600.00
04316              -1.40     5600.00
04317               0.00     4800.00
04318              -0.60     4000.00
04319              -0.40     4000.00
04320              -0.20     2400.00
04321              -1.00     2400.00
04322              -0.80     1600.00
04323               0.00      800.00
04324              -0.20        0.00
04325               0.40        0.00
04326               0.80     -800.00
04327               3.80     -800.00
04328              -1.20    -1600.00
04329              -0.60    -1600.00
04330               1.80    -2400.00
04331               1.00    -3200.00
04332              -0.20    -4000.00
04333               6.20    -4000.00
04334              23.40    -5600.00
04335               9.20    -7200.00
04336             -25.00    -7200.00
04337              -3.80    -8000.00
04338              25.00    -8000.00
04339             -25.00    -8000.00
04340             -22.00    -8800.00
04341              25.00    -9600.00
04342             -21.20   -10400.00
04343             -25.00   -10400.00
04344              25.00   -11200.00
04345             -25.00   -11200.00
04346             -11.00   -12800.00
04347              25.00   -12800.00
04348             -25.00   -13600.00
04349              25.00   -14400.00
04350             -25.00   -14400.00
04351              -1.00   -16000.00
04352              25.00   -16000.00
04353             -25.00   -16000.00
04354               8.60   -16800.00
04355              25.00   -16800.00
04356             -23.60   -17600.00
04357              -6.60   -18400.00
04358              25.00   -19200.00
04359             -23.00   -19200.00
04360              -1.40   -20000.00
04361              25.00   -20000.00
04362             -22.00   -20800.00
04363               8.20   -20800.00
04364               8.60   -22400.00
04365             -14.80   -22400.00
04366               7.40   -23200.00
04367               6.80   -23200.00
04368              -8.00   -24000.00
04369               7.00   -24000.00
04370               5.40   -24000.00
04371             -11.00   -24800.00
04372              10.60   -25600.00
04373              -0.60   -25600.00
04374              -4.20   -26400.00
04375               9.40   -26400.00
04376              -2.20   -27200.00
04377              -0.40   -27200.00
04378               4.20   -27200.00
04379              -0.40   -28000.00
04380               0.00   -28800.00
04381               4.40   -28800.00
04382              -0.40   -28800.00
04383               0.20   -28800.00
04384               4.00   -29600.00
04385              -0.60   -29600.00
04386               2.00   -29600.00
04387               4.20   -30400.00
04388              -0.60   -30400.00
04389               1.60   -30400.00
04390               2.20   -31200.00
04391              -1.20   -30400.00
04392               2.20   -31200.00
04393               1.40   -32000.00
04394               1.40   -32000.00
04395               3.60   -32000.00
04396               1.00   -32000.00
04397               1.80   -32000.00
04398               1.20   -32000.00
04399               0.60   -32000.00
04400               1.20   -32000.00
04401               1.80   -32800.00
04402               1.80   -32800.00
04403               1.00   -32800.00
04404               3.40   -32800.00
04405               1.40   -32800.00
04406               1.80   -32800.00
04407               3.00   -32800.00
04408               0.40   -32800.00
04409               2.00   -32800.00
04410               1.00   -32000.00
04411              -0.40   -32000.00
04412               2.80   -32000.00
04413               1.80   -32000.00
04414               1.80   -32000.00
04415               2.60   -32000.00
04416               1.40   -32800.00
04417               1.20   -32000.00
04418               1.80   -32000.00
04419               0.80   -32000.00
04420               0.40   -32000.00
04421               1.80   -32000.00
04422               1.40   -31200.00
04423               1.20   -30400.00
04424               1.80   -31200.00
04425               1.40   -30400.00
04426               1.80   -29600.00
04427               1.40   -29600.00
04428               0.40   -29600.00
04429               1.20   -29600.00
04430               1.00   -29600.00
04431               1.20   -29600.00
04432               1.60   -29600.00
04433               1.40   -28800.00
04434               1.40   -28800.00
04435               1.40   -28000.00
04436               1.60   -28000.00
04437               0.60   -27200.00
04438               0.60   -27200.00
04439               1.20   -26400.00
04440               0.60   -26400.00
04441               1.40   -26400.00
04442               1.20   -25600.00
04443               0.60   -25600.00
04444               1.40   -25600.00
04445               1.00   -24000.00
04446               0.40   -24800.00
04447               1.20   -24000.00
04448               0.60   -23200.00
04449               0.40   -23200.00
04450               1.00   -22400.00
04451               1.00   -22400.00
04452               0.60   -20800.00
04453               1.00   -21600.00
04454               1.20   -20800.00
04455               0.60   -20000.00
04456               0.80   -19200.00
04457               0.80   -19200.00
04458               0.60   -18400.00
04459               0.60   -17600.00
04460               0.20   -17600.00
04461               0.40   -16800.00
04462               0.60   -16800.00
04463               0.40   -16000.00
04464               0.60   -16000.00
04465               0.60   -14400.00
04466               0.20   -14400.00
04467               0.40   -14400.00
04468               0.40   -13600.00
04469               0.40   -12800.00
04470               0.20   -12000.00
04471               0.20   -11200.00
04472               0.60   -11200.00
04473              -0.20   -10400.00
04474               0.20    -9600.00
04475              -0.20    -8800.00
04476              -0.40    -8800.00
04477               0.20    -8000.00
04478               0.20    -8000.00
04479              -0.20    -7200.00
04480               0.40    -6400.00
04481               0.00    -4800.00
04482               0.20    -4800.00
04483               0.20    -4000.00
04484              -0.60    -4000.00
04485              -0.20    -3200.00
04486              -0.40    -2400.00
04487              -1.00    -1600.00
04488              -0.60     -800.00
04489              -0.40     -800.00
04490              -0.60        0.00
04491               0.00      800.00
04492               0.20      800.00
04493               0.40     1600.00
04494               3.00     2400.00
04495              -2.60     2400.00
04496              -1.20     3200.00
04497               1.40     3200.00
04498              -1.00     4000.00
04499               1.00     4800.00
04500              18.80     5600.00
04501              25.00     7200.00
04502             -25.00     8000.00
04503             -20.60     8000.00
04504              25.00     8000.00
04505             -25.00     8000.00
04506             -14.00     9600.00
04507              25.00    10400.00
04508             -25.00     9600.00
04509              12.20    11200.00
04510              25.00    11200.00
04511             -25.00    12000.00
04512              25.00    12800.00
04513             -14.40    12800.00
04514             -22.20    14400.00
04515              25.00    14400.00
04516             -25.00    15200.00
04517              25.00    16000.00
04518              25.00    16000.00
04519             -25.00    16000.00
04520              25.00    16800.00
04521               3.40    17600.00
04522             -25.00    18400.00
04523               8.60    19200.00
04524              20.60    19200.00
04525             -25.00    20000.00
04526              16.40    20800.00
04527              16.20    20800.00
04528             -25.00    22400.00
04529              25.00    21600.00
04530             -16.60    22400.00
04531             -10.60    22400.00
04532              12.20    22400.00
04533              -8.20    24000.00
04534              -5.00    24800.00
04535              12.40    24800.00
04536              -8.40    25600.00
04537              -8.60    25600.00
04538              12.20    25600.00
04539             -15.80    26400.00
04540               3.00    27200.00
04541               3.00    27200.00
04542              -9.20    27200.00
04543               2.80    28000.00
04544              -2.20    28000.00
04545              -4.40    28800.00
04546              -0.60    28800.00
04547               0.60    28800.00
04548              -5.20    28800.00
04549              -1.20    30400.00
04550              -0.60    30400.00
04551              -6.00    30400.00
04552               0.60    30400.00
04553              -0.60    31200.00
04554              -5.20    31200.00
04555               0.60    31200.00
04556              -3.60    31200.00
04557              -3.60    32000.00
04558               0.40    32000.00
04559              -4.60    32000.00
04560              -1.20    32800.00
04561              -0.40    32000.00
04562              -3.80    32800.00
04563              -1.80    32800.00
04564              -2.80    32800.00
04565              -2.60    33600.00
04566              -2.00    33600.00
04567              -2.40    33600.00
04568              -2.80    33600.00
04569              -3.00    33600.00
04570              -1.60    33600.00
04571              -3.80    33600.00
04572              -1.20    33600.00
04573              -2.20    33600.00
04574              -3.60    33600.00
04575               0.60    33600.00
04576              -3.80    33600.00
04577              -3.40    33600.00
04578              -1.00    33600.00
04579              -3.40    33600.00
04580              -1.20    33600.00
04581              -2.20    33600.00
04582              -2.80    33600.00
04583              -1.40    33600.00
04584              -2.40    33600.00
04585              -3.00    32800.00
04586              -2.80    32800.00
04587              -2.00    33600.00
04588              -2.60    32000.00
04589              -1.00    32000.00
04590              -1.20    32000.00
04591              -3.00    31200.00
04592              -1.20    32000.00
04593              -2.20    31200.00
04594              -3.00    31200.00
04595              -1.40    31200.00
04596              -2.20    31200.00
04597              -2.00    30400.00
04598              -1.00    30400.00
04599              -2.60    30400.00
04600              -2.40    29600.00
04601              -1.80    29600.00
04602              -1.60    28800.00
04603              -2.00    28800.00
04604              -1.80    28800.00
04605              -1.80    28000.00
04606              -2.00    27200.00
04607              -1.40    27200.00
04608              -1.80    27200.00
04609              -2.00    26400.00
04610              -1.20    26400.00
04611              -1.40    25600.00
04612              -1.80    25600.00
04613              -1.80    24800.00
04614              -2.20    24800.00
04615              -1.40    24000.00
04616              -1.40    24000.00
04617              -1.00    24000.00
04618              -1.40    22400.00
04619              -2.00    22400.00
04620              -1.20    21600.00
04621              -1.80    21600.00
04622              -1.80    20800.00
04623              -1.80    20800.00
04624              -1.40    19200.00
04625              -0.60    19200.00
04626              -1.80    18400.00
04627              -1.20    18400.00
04628              -1.40    17600.00
04629              -1.80    17600.00
04630              -1.00    16000.00
04631              -1.40    16000.00
04632              -1.20    15200.00
04633              -1.40    15200.00
04634              -1.20    14400.00
04635              -1.00    14400.00
04636              -1.40    13600.00
04637              -1.80    12800.00
04638              -0.60    12800.00
04639              -1.00    12000.00
04640              -1.00    11200.00
04641              -1.40    11200.00
04642              -0.40     9600.00
04643              -1.20     8800.00
04644              -1.20     8800.00
04645              -0.20     8000.00
04646              -1.20     8000.00
04647              -1.00     6400.00
04648               0.00     6400.00
04649              -1.00     5600.00
04650              -0.40     5600.00
04651              -0.60     4800.00
04652              -0.40     4000.00
04653              -0.20     3200.00
04654              -0.80     2400.00
04655               0.20     1600.00
04656               0.20     1600.00
04657              -1.20      800.00
04658               0.60        0.00
04659               0.60     -800.00
04660               2.80     -800.00
04661               1.80    -1600.00
04662              -2.20    -1600.00
04663               1.00    -2400.00
04664               1.40    -3200.00
04665               0.20    -4000.00
04666               2.20    -4000.00
04667              12.20    -4800.00
04668              25.00    -6400.00
04669             -25.00    -7200.00
04670             -25.00    -8000.00
04671              22.60    -8000.00
04672               8.40    -8000.00
04673             -25.00    -8800.00
04674              25.00    -8800.00
04675              25.00   -10400.00
04676             -25.00   -10400.00
04677              25.00   -12000.00
04678              25.00   -11200.00
04679             -25.00   -12000.00
04680              25.00   -12800.00
04681             -10.20   -13600.00
04682              -1.40   -13600.00
04683              20.60   -14400.00
04684             -25.00   -14400.00
04685              25.00   -16000.00
04686              -2.60   -16000.00
04687             -25.00   -16800.00
04688              25.00   -16800.00
04689               1.80   -17600.00
04690             -25.00   -17600.00
04691              17.20   -19200.00
04692              11.40   -19200.00
04693             -25.00   -20000.00
04694              25.00   -20000.00
04695               3.00   -20800.00
04696             -16.20   -20800.00
04697              20.20   -22400.00
04698              -9.20   -22400.00
04699              -5.20   -22400.00
04700              11.60   -23200.00
04701              -2.60   -23200.00
04702              -3.60   -24000.00
04703              13.40   -24000.00
04704              -7.40   -24800.00
04705              -1.40   -24800.00
04706              10.60   -25600.00
04707              -9.40   -26400.00
04708               5.80   -26400.00
04709               4.80   -27200.00
04710              -3.40   -27200.00
04711               3.40   -27200.00
04712               2.60   -27200.00
04713              -1.40   -28800.00
04714               2.80   -28000.00
04715               3.40   -28800.00
04716              -2.00   -28800.00
04717               3.40   -28800.00
04718               1.80   -29600.00
04719              -1.00   -30400.00
04720               4.20   -29600.00
04721               1.80   -30400.00
04722              -0.60   -30400.00
04723               3.80   -30400.00
04724               0.20   -31200.00
04725               0.40   -31200.00
04726               2.80   -32000.00
04727               0.60   -31200.00
04728               2.80   -32000.00
04729               2.00   -32000.00
04730               0.40   -32000.00
04731               1.80   -32000.00
04732               1.20   -32000.00
04733               1.80   -32000.00
04734               2.00   -32800.00
04735               2.20   -32000.00
04736               1.20   -32800.00
04737               2.20   -32800.00
04738               1.80   -32800.00
04739               0.40   -33600.00
04740               2.80   -32800.00
04741               1.40   -32800.00
04742               1.20   -32800.00
04743               2.80   -32800.00
04744               0.20   -32800.00
04745               1.40   -32800.00
04746               2.20   -32000.00
04747               1.00   -32000.00
04748               1.80   -32800.00
04749               1.40   -32000.00
04750               1.00   -32800.00
04751               1.00   -32000.00
04752               1.40   -32000.00
04753               1.40   -32000.00
04754               1.20   -32000.00
04755               1.40   -32000.00
04756               1.20   -30400.00
04757               1.40   -31200.00
04758               1.00   -31200.00
04759               1.20   -31200.00
04760               2.60   -30400.00
04761               1.20   -30400.00
04762               0.80   -29600.00
04763               1.80   -29600.00
04764               0.60   -29600.00
04765               1.00   -29600.00
04766               1.20   -28800.00
04767               1.40   -28800.00
04768               0.60   -28000.00
04769               1.00   -28800.00
04770               1.40   -28000.00
04771               1.20   -26400.00
04772               0.60   -27200.00
04773               1.40   -26400.00
04774               1.20   -26400.00
04775               0.60   -25600.00
04776               0.60   -25600.00
04777               1.80   -25600.00
04778               1.20   -24000.00
04779               1.00   -24800.00
04780               1.20   -24000.00
04781               0.40   -23200.00
04782               0.60   -23200.00
04783               0.80   -22400.00
04784               0.60   -22400.00
04785               1.40   -22400.00
04786               0.80   -21600.00
04787               0.60   -20800.00
04788               1.20   -20000.00
04789               0.40   -20000.00
04790               0.60   -19200.00
04791               1.00   -18400.00
04792               0.60   -18400.00
04793               1.00   -17600.00
04794               0.60   -17600.00
04795               0.20   -16800.00
04796               0.20   -16000.00
04797               0.40   -16000.00
04798               0.20   -15200.00
04799               0.40   -14400.00
04800               0.60   -14400.00
04801               0.60   -13600.00
04802               0.60   -12800.00
04803               0.20   -12000.00
04804              -0.20   -11200.00
04805               0.80   -11200.00
04806               0.00   -11200.00
04807              -0.60   -10400.00
04808               0.40    -9600.00
04809              -0.20    -9600.00
04810               0.40    -8800.00
04811               0.20    -8000.00
04812               0.00    -7200.00
04813              -0.20    -6400.00
04814              -1.00    -6400.00
04815              -0.60    -4800.00
04816               0.20    -4800.00
04817              -0.40    -4000.00
04818              -0.40    -3200.00
04819               0.60    -3200.00
04820              -0.40    -2400.00
04821              -0.40    -1600.00
04822              -0.60     -800.00
04823              -1.40     -800.00
04824              -1.00        0.00
04825              -0.40      800.00
04826              -0.20     1600.00
04827               2.80     1600.00
04828               1.40     2400.00
04829              -2.80     3200.00
04830               0.20     3200.00
04831               0.80     4000.00
04832              -2.20     4800.00
04833               6.60     5600.00
04834              25.00     7200.00
04835             -12.20     8000.00
04836             -25.00     8000.00
04837              15.60     8800.00
04838              14.80     8800.00
04839             -25.00     8800.00
04840              25.00     9600.00
04841              25.00     9600.00
04842             -25.00    11200.00
04843              25.00    12000.00
04844             -23.40    12000.00
04845             -25.00    12800.00
04846              25.00    12800.00
04847             -25.00    13600.00
04848              25.00    14400.00
04849              -2.80    14400.00
04850             -25.00    15200.00
04851              25.00    16000.00
04852             -25.00    16000.00
04853              -5.40    16800.00
04854              25.00    17600.00
04855             -25.00    18400.00
04856             -16.40    18400.00
04857              25.00    19200.00
04858              -9.20    19200.00
04859             -25.00    20800.00
04860              25.00    20800.00
04861             -24.40    21600.00
04862              -0.40    22400.00
04863              18.20    21600.00
04864             -25.00    22400.00
04865               9.80    22400.00
04866               2.80    24000.00
04867             -11.60    24000.00
04868               4.40    24800.00
04869               7.60    24800.00
04870             -17.80    25600.00
04871               8.60    25600.00
04872               0.20    25600.00
04873             -13.80    27200.00
04874              10.60    27200.00
04875              -6.60    27200.00
04876              -3.80    27200.00
04877               2.00    28000.00
04878              -3.60    28800.00
04879              -4.00    28800.00
04880               1.00    29600.00
04881              -2.60    28800.00
04882              -5.00    28800.00
04883               1.40    29600.00
04884              -4.40    30400.00
04885              -3.40    30400.00
04886               2.60    30400.00
04887              -5.80    31200.00
04888              -2.20    31200.00
04889               0.60    31200.00
04890              -6.00    31200.00
04891              -0.60    31200.00
04892              -1.40    32000.00
04893              -4.60    32000.00
04894               0.20    32800.00
04895              -2.20    32800.00
04896              -2.80    32800.00
04897              -1.40    32800.00
04898              -3.00    33600.00
04899              -1.80    32800.00
04900              -2.20    32800.00
04901              -2.00    32800.00
04902              -3.40    33600.00
04903              -1.80    33600.00
04904              -2.00    33600.00
04905              -3.60    33600.00
04906              -0.60    33600.00
04907              -4.20    33600.00
04908              -1.40    33600.00
04909              -0.80    33600.00
04910              -4.60    33600.00
04911              -0.80    33600.00
04912              -2.00    33600.00
04913              -2.80    32800.00
04914              -1.40    33600.00
04915              -2.80    33600.00
04916              -2.20    33600.00
04917              -2.00    33600.00
04918              -2.00    32800.00
04919              -2.80    32000.00
04920              -2.20    32800.00
04921              -1.80    32800.00
04922              -2.60    32800.00
04923              -1.20    32000.00
04924              -2.20    32000.00
04925              -2.60    32800.00
04926              -1.00    31200.00
04927              -2.60    31200.00
04928              -2.20    31200.00
04929              -1.80    30400.00
04930              -2.20    30400.00
04931              -1.80    30400.00
04932              -2.20    29600.00
04933              -2.20    29600.00
04934              -2.00    29600.00
04935              -2.20    28800.00
04936              -1.80    28800.00
04937              -2.00    28000.00
04938              -2.20    28000.00
04939              -2.00    27200.00
04940              -1.80    28000.00
04941              -2.00    27200.00
04942              -2.40    27200.00
04943              -1.20    25600.00
04944              -2.00    25600.00
04945              -2.00    25600.00
04946              -1.40    25600.00
04947              -2.20    24800.00
04948              -2.00    24000.00
04949              -1.20    24000.00
04950              -1.80    23200.00
04951              -1.40    23200.00
04952              -2.00    22400.00
04953              -1.40    22400.00
04954              -1.40    21600.00
04955              -2.00    21600.00
04956              -1.80    20800.00
04957              -2.20    20000.00
04958              -1.40    19200.00
04959              -1.20    19200.00
04960              -1.40    18400.00
04961              -1.20    18400.00
04962              -1.40    17600.00
04963              -1.00    16800.00
04964              -1.20    16000.00
04965              -1.80    15200.00
04966              -0.80    15200.00
04967              -1.80    15200.00
04968              -1.20    14400.00
04969              -1.00    14400.00
04970              -1.20    12800.00
04971              -1.00    12800.00
04972              -0.60    12000.00
04973              -1.20    12000.00
04974              -1.00    11200.00
04975              -1.00     9600.00
04976              -0.40     9600.00
04977              -1.00     8800.00
04978              -0.60     8800.00
04979              -0.60     8000.00
04980              -0.80     7200.00
04981              -1.00     6400.00
04982              -0.60     5600.00
04983              -0.40     5600.00
04984              -1.00     4800.00
04985              -0.60     4000.00
04986               0.20     3200.00
04987              -0.60     3200.00
04988              -0.60     2400.00
04989              -0.20     1600.00
04990              -0.20      800.00
04991               0.00      800.00
04992               0.40     -800.00
04993               0.60        0.00
04994               3.80     -800.00
04995              -0.60    -1600.00
04996              -0.80    -2400.00
04997               1.80    -2400.00
04998               0.60    -3200.00
04999              -0.60    -4000.00
05000               6.00    -4800.00
