Unit:(mV)
                     CH1         CH2
Frequency              ? 299.813 kHz
00001             -25.00    -7200.00
00002             -25.00    -8000.00
00003              24.40    -8800.00
00004               2.60    -8800.00
00005             -25.00    -8000.00
00006              25.00    -9600.00
00007              25.00   -10400.00
00008             -25.00    -9600.00
00009              25.00   -11200.00
00010              25.00   -11200.00
00011             -25.00   -11200.00
00012              25.00   -12800.00
00013             -18.20   -12800.00
00014              13.20   -13600.00
00015               2.00   -14400.00
00016             -25.00   -14400.00
00017              25.00   -15200.00
00018             -18.80   -15200.00
00019             -21.80   -16800.00
00020              25.00   -16800.00
00021              -7.60   -17600.00
00022             -25.00   -17600.00
00023              23.40   -19200.00
00024               3.80   -18400.00
00025             -25.00   -19200.00
00026              25.00   -20000.00
00027              -1.80   -20000.00
00028             -12.40   -20800.00
00029              16.20   -21600.00
00030             -10.80   -22400.00
00031              -1.20   -22400.00
00032               6.80   -22400.00
00033              -5.40   -23200.00
00034               0.60   -23200.00
00035               9.80   -24000.00
00036             -10.80   -24800.00
00037               3.20   -24000.00
00038               5.80   -24800.00
00039             -10.80   -25600.00
00040               8.00   -26400.00
00041               1.40   -25600.00
00042              -3.80   -27200.00
00043               3.60   -26400.00
00044               1.00   -27200.00
00045              -2.60   -27200.00
00046               2.60   -28000.00
00047               1.40   -28800.00
00048              -2.20   -28800.00
00049               3.40   -28800.00
00050              -0.20   -29600.00
00051              -0.60   -29600.00
00052               3.60   -29600.00
00053               0.00   -29600.00
00054              -0.20   -29600.00
00055               3.60   -30400.00
00056              -0.60   -30400.00
00057               1.00   -30400.00
00058               2.80   -30400.00
00059               0.40   -32000.00
00060               3.00   -31200.00
00061               2.20   -31200.00
00062               1.20   -31200.00
00063               2.60   -32000.00
00064               2.60   -32000.00
00065               2.80   -32000.00
00066               3.60   -32000.00
00067               4.20   -32000.00
00068               3.80   -32000.00
00069               5.40   -32000.00
00070               5.20   -32000.00
00071               5.40   -32000.00
00072               7.80   -32800.00
00073               6.80   -31200.00
00074               8.80   -32000.00
00075              10.80   -32000.00
00076               9.20   -32000.00
00077              12.00   -32000.00
00078              13.00   -32000.00
00079              12.40   -32000.00
00080              13.80   -32000.00
00081              14.20   -32000.00
00082              15.40   -32000.00
00083              17.80   -32000.00
00084              22.20   -32000.00
00085              18.80   -31200.00
00086               7.40   -31200.00
00087               8.60   -31200.00
00088              12.20   -30400.00
00089               7.80   -30400.00
00090               5.80   -30400.00
00091               8.00   -29600.00
00092               7.80   -29600.00
00093               4.20   -29600.00
00094               3.80   -29600.00
00095               6.20   -29600.00
00096               2.60   -28800.00
00097               1.60   -28800.00
00098               3.80   -28000.00
00099               2.60   -28800.00
00100               0.20   -28000.00
00101               2.80   -27200.00
00102               2.00   -27200.00
00103               0.20   -27200.00
00104               1.80   -26400.00
00105               2.20   -26400.00
00106               0.00   -25600.00
00107               1.20   -25600.00
00108               0.60   -25600.00
00109               0.20   -24800.00
00110               0.80   -24000.00
00111               0.20   -24800.00
00112               0.20   -24000.00
00113               0.20   -23200.00
00114              -0.20   -22400.00
00115               0.20   -22400.00
00116              -0.20   -22400.00
00117              -0.20   -21600.00
00118               0.40   -20800.00
00119               0.20   -20800.00
00120              -0.40   -20000.00
00121              -0.20   -19200.00
00122              -0.20   -18400.00
00123              -0.40   -18400.00
00124               0.20   -17600.00
00125              -0.40   -16800.00
00126              -0.60   -17600.00
00127              -0.20   -16800.00
00128              -0.60   -16000.00
00129              -0.20   -16000.00
00130              -0.20   -15200.00
00131              -0.60   -14400.00
00132              -0.20   -14400.00
00133              -0.20   -13600.00
00134              -0.60   -13600.00
00135              -0.40   -12800.00
00136              -0.60   -12000.00
00137               0.20   -11200.00
00138              -0.40   -11200.00
00139              -0.60    -9600.00
00140              -0.60    -9600.00
00141              -0.40    -8800.00
00142              -0.20    -8000.00
00143              -0.60    -7200.00
00144              -0.60    -7200.00
00145              -0.40    -6400.00
00146              -0.60    -6400.00
00147              -0.40    -5600.00
00148               0.20    -4800.00
00149              -1.00    -4000.00
00150              -0.60    -4000.00
00151              -0.20    -3200.00
00152              -0.60    -2400.00
00153              -0.60    -1600.00
00154              -0.20     -800.00
00155              -0.60     -800.00
00156              -0.60        0.00
00157               0.40      800.00
00158               0.40      800.00
00159               3.40     1600.00
00160               0.20     2400.00
00161              -2.00     2400.00
00162               0.80     3200.00
00163               0.60     3200.00
00164              -1.40     4800.00
00165               9.20     5600.00
00166              25.00     7200.00
00167             -19.60     7200.00
00168             -25.00     8000.00
00169              19.00     8000.00
00170              11.00     8000.00
00171             -25.00     8800.00
00172              25.00     9600.00
00173               7.80    10400.00
00174             -25.00    10400.00
00175              25.00    11200.00
00176             -25.00    11200.00
00177              -5.20    12800.00
00178              25.00    12800.00
00179             -25.00    12800.00
00180              25.00    14400.00
00181             -25.00    14400.00
00182             -25.00    15200.00
00183              25.00    15200.00
00184             -25.00    16000.00
00185              11.40    16000.00
00186              25.00    16800.00
00187             -25.00    17600.00
00188             -11.60    18400.00
00189              25.00    19200.00
00190             -17.80    19200.00
00191             -18.00    20000.00
00192              25.00    20800.00
00193             -25.00    20800.00
00194               9.80    21600.00
00195               5.80    21600.00
00196             -22.00    22400.00
00197              18.00    22400.00
00198              -6.80    23200.00
00199              -8.40    24000.00
00200              14.20    24000.00
00201              -1.40    24000.00
00202             -16.80    24800.00
00203              18.20    24800.00
00204              -8.60    25600.00
00205             -10.40    25600.00
00206              15.40    25600.00
00207             -10.20    27200.00
00208              -1.80    27200.00
00209               4.40    28000.00
00210              -3.80    28000.00
00211              -2.40    28000.00
00212               3.00    28800.00
00213              -3.00    28800.00
00214              -2.20    28800.00
00215               1.60    29600.00
00216              -4.60    30400.00
00217              -0.40    29600.00
00218               2.00    30400.00
00219              -5.20    30400.00
00220               0.60    31200.00
00221              -0.20    31200.00
00222              -6.00    31200.00
00223               1.40    32000.00
00224              -2.60    31200.00
00225              -4.20    32800.00
00226               1.20    32000.00
00227              -3.60    32000.00
00228              -3.00    32800.00
00229              -2.20    32000.00
00230              -4.20    32800.00
00231              -3.00    32800.00
00232              -3.40    32800.00
00233              -4.40    32000.00
00234              -5.40    32800.00
00235              -3.40    32800.00
00236              -6.00    33600.00
00237              -7.00    32800.00
00238              -5.00    32800.00
00239              -9.80    32800.00
00240              -7.00    32800.00
00241              -8.40    32800.00
00242             -12.60    33600.00
00243             -10.20    32800.00
00244             -11.80    32800.00
00245             -13.40    33600.00
00246             -13.40    32800.00
00247             -14.60    32800.00
00248             -15.00    32800.00
00249             -16.20    32000.00
00250             -18.60    32800.00
00251             -24.00    32000.00
00252             -18.60    32000.00
00253              -7.00    32800.00
00254             -10.80    31200.00
00255             -12.20    31200.00
00256              -7.80    31200.00
00257              -7.20    31200.00
00258              -8.00    31200.00
00259              -7.00    31200.00
00260              -5.40    30400.00
00261              -5.80    30400.00
00262              -6.00    30400.00
00263              -3.40    30400.00
00264              -3.80    29600.00
00265              -3.80    28800.00
00266              -2.60    28800.00
00267              -2.80    28800.00
00268              -2.80    28000.00
00269              -1.40    28000.00
00270              -2.60    28000.00
00271              -3.60    27200.00
00272               0.40    27200.00
00273              -2.00    26400.00
00274              -3.80    25600.00
00275               0.80    25600.00
00276              -0.60    24800.00
00277              -3.80    24800.00
00278               0.20    24000.00
00279               0.20    24000.00
00280              -2.80    24000.00
00281              -1.40    24000.00
00282               0.40    23200.00
00283              -1.00    22400.00
00284              -2.60    22400.00
00285              -0.20    22400.00
00286              -0.20    21600.00
00287              -1.20    20800.00
00288              -1.20    20000.00
00289              -0.60    19200.00
00290              -0.40    19200.00
00291              -0.40    18400.00
00292              -0.20    18400.00
00293              -1.40    17600.00
00294              -0.60    17600.00
00295               0.40    16800.00
00296              -0.80    16000.00
00297              -1.00    15200.00
00298              -1.00    15200.00
00299              -0.20    14400.00
00300              -0.20    14400.00
00301              -0.40    13600.00
00302              -1.20    12800.00
00303              -0.20    12000.00
00304              -0.20    12000.00
00305              -1.00    11200.00
00306              -1.00    11200.00
00307               0.40     9600.00
00308               0.60     9600.00
00309              -0.20     8800.00
00310              -0.40     8000.00
00311              -1.00     8000.00
00312              -1.20     6400.00
00313              -1.00     7200.00
00314              -0.60     5600.00
00315               0.40     5600.00
00316               0.40     4000.00
00317               0.20     3200.00
00318              -0.20     3200.00
00319              -0.60     2400.00
00320              -0.60     2400.00
00321              -0.40     1600.00
00322              -1.00      800.00
00323              -0.40        0.00
00324               0.60        0.00
00325               1.20     -800.00
00326               3.40    -1600.00
00327              -0.80    -1600.00
00328              -0.40    -1600.00
00329               0.60    -2400.00
00330               0.60    -3200.00
00331              -0.60    -4000.00
00332               5.80    -4800.00
00333              25.00    -6400.00
00334               6.80    -7200.00
00335             -25.00    -7200.00
00336              -3.00    -8000.00
00337              25.00    -8000.00
00338             -25.00    -8800.00
00339             -20.60    -8000.00
00340              25.00   -10400.00
00341             -25.00    -9600.00
00342             -25.00   -11200.00
00343              25.00   -12000.00
00344             -25.00   -11200.00
00345              -6.60   -12800.00
00346              25.00   -12800.00
00347             -21.00   -13600.00
00348              25.00   -14400.00
00349             -25.00   -14400.00
00350              11.60   -15200.00
00351              25.00   -16000.00
00352             -25.00   -16000.00
00353              15.40   -16800.00
00354              25.00   -17600.00
00355             -25.00   -17600.00
00356              -4.60   -18400.00
00357              25.00   -19200.00
00358             -25.00   -18400.00
00359              -1.00   -20000.00
00360              25.00   -20000.00
00361             -20.20   -20800.00
00362               7.40   -20800.00
00363               4.20   -20800.00
00364             -12.20   -22400.00
00365               7.60   -23200.00
00366               1.80   -22400.00
00367              -6.80   -24000.00
00368               9.00   -24000.00
00369               0.40   -24000.00
00370              -9.40   -24000.00
00371              11.40   -25600.00
00372              -4.40   -24800.00
00373              -3.00   -25600.00
00374               8.40   -26400.00
00375              -4.40   -26400.00
00376              -1.00   -26400.00
00377               3.00   -27200.00
00378              -1.00   -27200.00
00379              -0.40   -27200.00
00380               4.20   -28000.00
00381              -1.80   -28800.00
00382              -0.20   -28800.00
00383               3.00   -28800.00
00384              -2.20   -29600.00
00385               2.20   -28800.00
00386               3.60   -29600.00
00387              -2.20   -29600.00
00388               2.00   -29600.00
00389               2.60   -30400.00
00390              -1.80   -30400.00
00391               2.60   -31200.00
00392               2.00   -31200.00
00393               0.60   -32000.00
00394               3.00   -31200.00
00395               1.80   -32000.00
00396               1.80   -32000.00
00397               2.80   -32000.00
00398               2.80   -31200.00
00399               3.40   -32000.00
00400               3.80   -32000.00
00401               3.80   -32000.00
00402               3.80   -32000.00
00403               6.20   -32000.00
00404               4.60   -32000.00
00405               6.20   -32000.00
00406               8.40   -32000.00
00407               6.80   -32000.00
00408              10.00   -32000.00
00409              10.20   -32000.00
00410              10.60   -32000.00
00411              13.20   -32000.00
00412              13.00   -32000.00
00413              13.00   -32000.00
00414              14.20   -32000.00
00415              14.80   -32000.00
00416              16.40   -32000.00
00417              20.20   -32000.00
00418              22.60   -31200.00
00419              13.40   -31200.00
00420               6.00   -31200.00
00421              11.20   -30400.00
00422              10.80   -30400.00
00423               6.00   -30400.00
00424               6.00   -30400.00
00425               8.40   -29600.00
00426               5.80   -29600.00
00427               3.40   -29600.00
00428               6.00   -28800.00
00429               5.40   -28800.00
00430               1.80   -28800.00
00431               3.00   -28800.00
00432               4.20   -28800.00
00433               1.40   -28800.00
00434               0.40   -27200.00
00435               2.60   -27200.00
00436               1.80   -27200.00
00437               1.00   -26400.00
00438               1.20   -26400.00
00439               1.40   -26400.00
00440               0.60   -25600.00
00441               0.20   -25600.00
00442               1.00   -25600.00
00443               1.00   -24800.00
00444              -0.20   -24000.00
00445               0.40   -24000.00
00446               0.60   -24000.00
00447              -0.40   -22400.00
00448               0.20   -22400.00
00449               0.20   -22400.00
00450              -0.40   -22400.00
00451               1.00   -20800.00
00452               0.20   -20800.00
00453              -1.80   -20000.00
00454               0.20   -20000.00
00455               0.20   -19200.00
00456              -0.60   -18400.00
00457               0.40   -17600.00
00458               0.40   -17600.00
00459              -1.60   -17600.00
00460              -0.20   -17600.00
00461               0.20   -16000.00
00462              -1.20   -16000.00
00463               0.20   -16000.00
00464               0.20   -14400.00
00465              -1.00   -14400.00
00466              -0.60   -13600.00
00467              -0.40   -13600.00
00468              -0.40   -12800.00
00469              -0.60   -12000.00
00470              -0.60   -11200.00
00471              -0.40   -11200.00
00472              -0.60   -10400.00
00473              -1.00   -10400.00
00474              -0.40    -9600.00
00475              -0.60    -8000.00
00476              -0.60    -8000.00
00477              -0.60    -7200.00
00478              -0.40    -6400.00
00479              -0.60    -6400.00
00480              -0.60    -4800.00
00481              -0.20    -4800.00
00482              -0.60    -4800.00
00483              -0.80    -4000.00
00484               0.20    -3200.00
00485              -0.40    -2400.00
00486              -0.60    -1600.00
00487              -0.60    -1600.00
00488              -0.40     -800.00
00489              -0.20        0.00
00490              -0.20        0.00
00491               0.40     1600.00
00492               1.40     1600.00
00493               3.00     1600.00
00494              -2.00     2400.00
00495              -0.60     2400.00
00496               1.00     3200.00
00497              -0.40     4000.00
00498               1.40     4800.00
00499              20.40     5600.00
00500              25.00     7200.00
00501             -25.00     8000.00
00502             -18.80     8000.00
00503              25.00     8000.00
00504             -25.00     8000.00
00505              -7.00     8800.00
00506              25.00     9600.00
00507             -25.00     9600.00
00508              25.00    11200.00
00509              25.00    12000.00
00510             -25.00    12000.00
00511              25.00    12800.00
00512             -25.00    12800.00
00513               2.00    14400.00
00514              25.00    14400.00
00515             -25.00    14400.00
00516              25.00    16000.00
00517              18.00    15200.00
00518             -25.00    16000.00
00519              25.00    16800.00
00520               1.80    17600.00
00521             -25.00    18400.00
00522              16.60    18400.00
00523              20.20    19200.00
00524             -25.00    20000.00
00525              20.20    20000.00
00526              12.60    20800.00
00527             -23.20    21600.00
00528              25.00    21600.00
00529             -21.20    21600.00
00530              -0.40    23200.00
00531              11.40    22400.00
00532             -14.60    24000.00
00533               4.20    24000.00
00534              13.60    24000.00
00535             -16.40    24800.00
00536               0.00    24800.00
00537              14.20    25600.00
00538             -21.60    25600.00
00539               9.20    25600.00
00540               5.20    27200.00
00541             -11.00    27200.00
00542               4.80    27200.00
00543              -0.60    28000.00
00544              -5.00    28000.00
00545               0.60    28800.00
00546               1.40    28800.00
00547              -4.40    28800.00
00548               1.00    29600.00
00549              -1.80    29600.00
00550              -4.20    29600.00
00551               2.80    30400.00
00552              -2.20    30400.00
00553              -3.60    30400.00
00554               2.80    31200.00
00555              -4.60    30400.00
00556              -2.80    31200.00
00557               1.40    31200.00
00558              -5.80    32000.00
00559              -0.40    32800.00
00560              -0.60    32000.00
00561              -4.40    32000.00
00562              -2.00    32800.00
00563              -3.40    32800.00
00564              -3.60    32800.00
00565              -2.60    32800.00
00566              -3.20    32000.00
00567              -4.80    32800.00
00568              -4.60    32800.00
00569              -4.20    32800.00
00570              -7.40    32800.00
00571              -5.60    32800.00
00572              -7.00    32800.00
00573              -9.20    32800.00
00574              -6.60    32800.00
00575             -11.00    32800.00
00576             -11.40    33600.00
00577             -10.40    32800.00
00578             -13.20    32800.00
00579             -13.20    32800.00
00580             -14.60    33600.00
00581             -15.00    32000.00
00582             -15.40    32800.00
00583             -17.40    32800.00
00584             -20.40    31200.00
00585             -23.00    32800.00
00586             -13.20    32000.00
00587              -7.00    32800.00
00588             -12.20    32000.00
00589             -11.40    32000.00
00590              -7.40    31200.00
00591              -6.80    31200.00
00592              -8.40    30400.00
00593              -6.60    30400.00
00594              -3.80    30400.00
00595              -6.20    30400.00
00596              -6.00    28800.00
00597              -2.40    29600.00
00598              -3.80    29600.00
00599              -4.80    28800.00
00600              -2.20    28000.00
00601              -1.80    28800.00
00602              -3.80    28000.00
00603              -2.00    27200.00
00604              -1.20    27200.00
00605              -3.00    27200.00
00606              -1.40    27200.00
00607              -1.20    26400.00
00608              -2.40    25600.00
00609              -0.60    25600.00
00610              -1.00    25600.00
00611              -1.00    24800.00
00612              -1.00    24800.00
00613              -1.20    24800.00
00614              -0.60    24000.00
00615              -0.80    22400.00
00616              -1.00    22400.00
00617              -1.20    22400.00
00618              -1.00    22400.00
00619              -0.40    21600.00
00620              -1.00    20800.00
00621              -1.00    20800.00
00622              -1.00    19200.00
00623              -0.40    19200.00
00624               0.00    19200.00
00625              -1.00    18400.00
00626              -0.20    17600.00
00627              -0.40    17600.00
00628              -1.00    16800.00
00629               0.20    16000.00
00630              -0.60    16000.00
00631              -0.80    15200.00
00632              -0.40    14400.00
00633              -0.60    13600.00
00634              -0.40    13600.00
00635              -0.40    12800.00
00636              -0.60    12800.00
00637               0.20    12800.00
00638              -0.40    11200.00
00639              -0.40    11200.00
00640              -0.40    10400.00
00641               0.00     8800.00
00642              -0.60     8800.00
00643              -0.40     8800.00
00644              -0.20     8000.00
00645              -0.60     7200.00
00646              -0.60     7200.00
00647               0.20     6400.00
00648              -0.60     5600.00
00649              -0.40     4800.00
00650              -0.60     4000.00
00651              -0.40     3200.00
00652              -0.20     3200.00
00653              -0.60     2400.00
00654              -0.60     1600.00
00655              -0.20     1600.00
00656              -0.60      800.00
00657               0.20        0.00
00658               0.40     -800.00
00659               2.60     -800.00
00660               1.20    -1600.00
00661              -1.80    -2400.00
00662               0.40    -3200.00
00663               1.20    -3200.00
00664              -0.20    -4000.00
00665               1.60    -4000.00
00666              13.00    -4800.00
00667              25.00    -6400.00
00668             -25.00    -8000.00
00669             -25.00    -8000.00
00670              22.00    -8000.00
00671               7.40    -8000.00
00672             -25.00    -8000.00
00673              25.00    -8800.00
00674              25.00   -10400.00
00675             -25.00    -9600.00
00676              25.00   -11200.00
00677              25.00   -11200.00
00678             -25.00   -12000.00
00679              25.00   -12800.00
00680             -13.40   -13600.00
00681               9.20   -13600.00
00682               8.00   -14400.00
00683             -25.00   -14400.00
00684              25.00   -14400.00
00685             -12.60   -16000.00
00686             -25.00   -16800.00
00687              25.00   -16800.00
00688              -3.40   -17600.00
00689             -25.00   -18400.00
00690              20.40   -18400.00
00691               8.60   -19200.00
00692             -25.00   -18400.00
00693              24.80   -20000.00
00694               2.20   -20000.00
00695             -14.60   -20800.00
00696              15.60   -21600.00
00697             -10.00   -21600.00
00698              -2.80   -22400.00
00699               7.00   -22400.00
00700              -4.40   -23200.00
00701              -0.20   -23200.00
00702              10.20   -24000.00
00703              -9.80   -24000.00
00704               1.80   -25600.00
00705               7.60   -24800.00
00706             -10.80   -25600.00
00707               7.00   -27200.00
00708               2.60   -26400.00
00709              -4.40   -27200.00
00710               3.00   -27200.00
00711               1.40   -27200.00
00712              -2.40   -27200.00
00713               2.00   -28000.00
00714               2.00   -28000.00
00715              -2.60   -28800.00
00716               2.80   -28800.00
00717               0.60   -28800.00
00718              -1.20   -28800.00
00719               3.40   -29600.00
00720               0.60   -29600.00
00721              -0.40   -29600.00
00722               3.60   -30400.00
00723              -0.40   -30400.00
00724               0.40   -30400.00
00725               2.60   -30400.00
00726              -0.20   -31200.00
00727               3.00   -31200.00
00728               2.20   -31200.00
00729               1.00   -32000.00
00730               2.20   -32000.00
00731               2.60   -32000.00
00732               2.80   -32000.00
00733               3.40   -32000.00
00734               4.40   -32000.00
00735               3.80   -32000.00
00736               5.00   -32000.00
00737               5.80   -32000.00
00738               5.20   -32000.00
00739               7.40   -32000.00
00740               7.60   -32000.00
00741               8.40   -32000.00
00742              10.60   -32000.00
00743              10.00   -32000.00
00744              11.80   -32000.00
00745              13.00   -32800.00
00746              12.80   -32800.00
00747              13.80   -32000.00
00748              14.20   -32000.00
00749              15.60   -32000.00
00750              17.80   -32000.00
00751              22.60   -32000.00
00752              19.60   -31200.00
00753               7.80   -32000.00
00754               8.40   -31200.00
00755              12.20   -30400.00
00756               8.40   -30400.00
00757               5.80   -30400.00
00758               7.40   -30400.00
00759               8.00   -29600.00
00760               4.60   -30400.00
00761               3.60   -29600.00
00762               6.20   -29600.00
00763               3.00   -29600.00
00764               2.00   -28800.00
00765               4.40   -28800.00
00766               2.80   -28000.00
00767               0.40   -27200.00
00768               2.60   -27200.00
00769               2.40   -27200.00
00770               0.20   -27200.00
00771               1.40   -26400.00
00772               2.20   -26400.00
00773              -0.20   -25600.00
00774               1.00   -25600.00
00775               1.00   -25600.00
00776               0.20   -24000.00
00777               1.00   -24800.00
00778               0.40   -24000.00
00779               0.20   -23200.00
00780               0.40   -23200.00
00781               0.00   -23200.00
00782               0.00   -22400.00
00783              -0.20   -22400.00
00784              -0.20   -21600.00
00785              -0.20   -20800.00
00786              -0.20   -20800.00
00787              -0.20   -20000.00
00788              -0.40   -19200.00
00789              -0.20   -19200.00
00790              -0.60   -19200.00
00791               0.20   -17600.00
00792              -0.40   -17600.00
00793              -0.80   -16800.00
00794              -0.20   -16800.00
00795              -0.40   -16000.00
00796              -0.60   -15200.00
00797               0.00   -15200.00
00798              -0.40   -14400.00
00799              -0.60   -14400.00
00800              -0.20   -13600.00
00801              -0.60   -12800.00
00802              -0.60   -12000.00
00803              -0.60   -12000.00
00804              -0.40   -11200.00
00805              -0.20   -10400.00
00806              -0.60    -9600.00
00807              -0.60    -9600.00
00808              -0.60    -9600.00
00809              -0.40    -8800.00
00810              -0.20    -8000.00
00811              -0.20    -7200.00
00812              -0.40    -6400.00
00813              -0.40    -6400.00
00814              -0.20    -4800.00
00815              -0.20    -4800.00
00816              -1.00    -4000.00
00817              -0.60    -4000.00
00818              -0.20    -3200.00
00819              -0.40    -2400.00
00820              -0.40    -1600.00
00821              -1.00     -800.00
00822              -0.60     -800.00
00823               0.40        0.00
00824               0.20        0.00
00825               0.20     1600.00
00826               3.00     1600.00
00827               0.40     2400.00
00828              -2.20     2400.00
00829               0.40     3200.00
00830               1.20     3200.00
00831              -1.20     4800.00
00832               7.40     4800.00
00833              25.00     6400.00
00834             -12.60     7200.00
00835             -25.00     8000.00
00836              15.00     8000.00
00837              15.60     8000.00
00838             -25.00     8800.00
00839              25.00     9600.00
00840              20.40     9600.00
00841             -25.00    11200.00
00842              25.00    11200.00
00843             -25.00    12000.00
00844             -18.80    12800.00
00845              25.00    12800.00
00846             -25.00    12800.00
00847              25.00    14400.00
00848             -22.20    14400.00
00849             -25.00    14400.00
00850              25.00    15200.00
00851             -25.00    16000.00
00852               1.40    16000.00
00853              25.00    17600.00
00854             -25.00    17600.00
00855             -15.40    18400.00
00856              25.00    19200.00
00857             -12.60    19200.00
00858             -23.80    20800.00
00859              25.00    20800.00
00860             -22.20    20800.00
00861               5.00    21600.00
00862               9.80    22400.00
00863             -23.00    22400.00
00864              17.20    22400.00
00865              -5.40    23200.00
00866             -10.00    24000.00
00867              14.00    24000.00
00868               0.80    24800.00
00869             -18.80    24800.00
00870              17.80    24800.00
00871              -5.40    25600.00
00872             -13.00    25600.00
00873              16.40    26400.00
00874              -8.60    27200.00
00875              -3.00    27200.00
00876               5.20    28000.00
00877              -3.80    28000.00
00878              -3.40    28000.00
00879               2.80    28800.00
00880              -2.20    28800.00
00881              -2.80    28800.00
00882               2.00    28800.00
00883              -4.40    30400.00
00884              -1.00    29600.00
00885               2.20    30400.00
00886              -4.60    30400.00
00887               0.40    31200.00
00888               0.00    31200.00
00889              -5.60    31200.00
00890               1.60    31200.00
00891              -2.40    31200.00
00892              -4.60    32800.00
00893               1.80    32800.00
00894              -3.00    32000.00
00895              -3.80    32000.00
00896              -2.20    32800.00
00897              -3.60    32000.00
00898              -3.40    32800.00
00899              -3.60    32800.00
00900              -3.60    32800.00
00901              -5.00    32800.00
00902              -4.60    32800.00
00903              -5.80    32800.00
00904              -6.60    32800.00
00905              -5.40    32800.00
00906              -9.20    32800.00
00907              -6.80    32800.00
00908              -8.60    32800.00
00909             -12.60    32800.00
00910             -10.00    32800.00
00911             -12.40    33600.00
00912             -14.00    32000.00
00913             -13.60    32800.00
00914             -14.80    32800.00
00915             -15.00    32800.00
00916             -16.60    32800.00
00917             -18.20    32000.00
00918             -23.00    32800.00
00919             -20.20    32000.00
00920              -8.40    32000.00
00921              -9.20    31200.00
00922             -12.40    32000.00
00923              -9.00    31200.00
00924              -7.00    31200.00
00925              -7.80    31200.00
00926              -8.40    30400.00
00927              -5.40    30400.00
00928              -5.00    30400.00
00929              -7.00    30400.00
00930              -3.60    30400.00
00931              -2.60    29600.00
00932              -4.60    28800.00
00933              -3.60    28800.00
00934              -1.20    28800.00
00935              -3.00    28000.00
00936              -3.40    28000.00
00937              -1.00    28000.00
00938              -2.60    27200.00
00939              -2.20    27200.00
00940              -0.60    26400.00
00941              -2.20    26400.00
00942              -1.80    25600.00
00943              -0.20    25600.00
00944              -1.20    24800.00
00945              -1.20    24800.00
00946              -1.20    24000.00
00947              -0.60    24000.00
00948              -0.60    22400.00
00949              -0.60    22400.00
00950              -0.60    22400.00
00951              -1.00    22400.00
00952              -0.60    21600.00
00953              -0.60    21600.00
00954              -1.00    20800.00
00955              -0.60    20800.00
00956              -1.00    19200.00
00957              -0.40    19200.00
00958              -0.60    18400.00
00959              -0.60    17600.00
00960              -0.40    17600.00
00961              -0.80    17600.00
00962              -0.20    17600.00
00963              -0.40    16000.00
00964              -0.60    15200.00
00965              -0.40    15200.00
00966              -0.60    14400.00
00967              -0.40    13600.00
00968              -0.60    13600.00
00969              -0.60    12800.00
00970              -0.20    12800.00
00971              -0.20    12000.00
00972              -0.60    11200.00
00973              -0.60    10400.00
00974              -0.40     9600.00
00975              -0.40     8800.00
00976              -0.60     8800.00
00977              -0.40     8000.00
00978              -1.00     8000.00
00979              -1.00     7200.00
00980              -0.20     6400.00
00981               0.20     5600.00
00982              -0.60     4800.00
00983              -0.60     4000.00
00984              -0.40     4000.00
00985              -0.40     3200.00
00986              -0.60     3200.00
00987              -0.60     2400.00
00988              -0.60     1600.00
00989              -0.40      800.00
00990              -0.20        0.00
00991               0.20        0.00
00992               1.00     -800.00
00993               3.60     -800.00
00994              -1.00    -1600.00
00995              -0.60    -1600.00
00996               1.20    -3200.00
00997               1.00    -3200.00
00998              -0.60    -3200.00
00999               5.20    -4000.00
01000              22.80    -4800.00
01001              11.00    -7200.00
01002             -25.00    -7200.00
01003              -8.60    -8000.00
01004              25.00    -8000.00
01005             -25.00    -8000.00
01006             -25.00    -8000.00
01007              25.00   -10400.00
01008             -17.80   -10400.00
01009             -25.00   -10400.00
01010              25.00   -11200.00
01011             -25.00   -11200.00
01012             -15.40   -12800.00
01013              25.00   -12800.00
01014             -24.20   -12800.00
01015              25.00   -14400.00
01016             -25.00   -14400.00
01017               4.20   -15200.00
01018              25.00   -16000.00
01019             -25.00   -16000.00
01020               9.20   -16800.00
01021              25.00   -16800.00
01022             -25.00   -17600.00
01023              -7.80   -17600.00
01024              25.00   -18400.00
01025             -22.20   -19200.00
01026              -5.40   -20000.00
01027              25.00   -20000.00
01028             -19.00   -20800.00
01029               4.40   -20800.00
01030               6.80   -21600.00
01031             -12.80   -22400.00
01032               6.60   -22400.00
01033               2.80   -23200.00
01034              -6.80   -23200.00
01035               7.60   -24000.00
01036               2.00   -24000.00
01037             -10.40   -24800.00
01038              10.80   -24000.00
01039              -2.80   -25600.00
01040              -4.60   -25600.00
01041               9.00   -26400.00
01042              -3.80   -26400.00
01043              -1.20   -26400.00
01044               3.60   -27200.00
01045              -1.00   -27200.00
01046              -1.20   -27200.00
01047               3.80   -28800.00
01048              -1.40   -28800.00
01049              -1.00   -28800.00
01050               3.00   -28800.00
01051              -2.00   -28800.00
01052               1.20   -28800.00
01053               3.00   -29600.00
01054              -1.40   -29600.00
01055               2.00   -29600.00
01056               2.20   -30400.00
01057              -1.20   -30400.00
01058               2.60   -31200.00
01059               1.80   -31200.00
01060               1.00   -32000.00
01061               3.40   -31200.00
01062               1.00   -31200.00
01063               1.80   -32000.00
01064               3.00   -32000.00
01065               2.60   -32000.00
01066               3.00   -32000.00
01067               4.20   -32000.00
01068               4.20   -32000.00
01069               4.00   -32800.00
01070               6.80   -32000.00
01071               4.80   -32000.00
01072               6.00   -32000.00
01073               8.80   -32000.00
01074               6.80   -32000.00
01075               9.40   -32000.00
01076              10.80   -32000.00
01077              10.20   -32000.00
01078              12.40   -32000.00
01079              13.00   -32000.00
01080              13.20   -32000.00
01081              14.20   -32000.00
01082              15.00   -32000.00
01083              16.20   -32000.00
01084              20.00   -31200.00
01085              22.80   -31200.00
01086              14.20   -32000.00
01087               6.20   -32000.00
01088              11.00   -31200.00
01089              11.20   -30400.00
01090               6.60   -30400.00
01091               6.40   -30400.00
01092               8.20   -30400.00
01093               6.20   -30400.00
01094               3.60   -30400.00
01095               5.40   -29600.00
01096               5.40   -28800.00
01097               2.00   -28800.00
01098               3.00   -28800.00
01099               3.80   -28800.00
01100               1.60   -28800.00
01101               1.20   -28000.00
01102               3.40   -27200.00
01103               0.60   -27200.00
01104               0.20   -27200.00
01105               2.00   -26400.00
01106               0.80   -26400.00
01107               0.40   -26400.00
01108               0.60   -25600.00
01109              -0.20   -24800.00
01110               0.40   -25600.00
01111               0.40   -24000.00
01112               0.20   -24000.00
01113               0.40   -24000.00
01114               0.20   -23200.00
01115              -0.20   -23200.00
01116               0.20   -22400.00
01117              -0.20   -21600.00
01118              -0.20   -21600.00
01119               0.20   -20800.00
01120              -0.20   -20000.00
01121              -0.40   -20000.00
01122              -0.20   -18400.00
01123              -0.60   -19200.00
01124              -0.40   -17600.00
01125               0.20   -17600.00
01126              -0.60   -17600.00
01127              -0.40   -16800.00
01128              -0.40   -16000.00
01129              -0.60   -16000.00
01130              -0.60   -16000.00
01131               0.00   -14400.00
01132              -0.60   -14400.00
01133              -0.20   -14400.00
01134              -0.20   -12800.00
01135              -0.20   -12800.00
01136              -0.60   -12000.00
01137              -0.60   -11200.00
01138              -0.20   -11200.00
01139              -0.60   -10400.00
01140              -0.60    -9600.00
01141              -0.60    -9600.00
01142              -0.60    -8000.00
01143              -0.20    -8000.00
01144              -0.40    -8000.00
01145              -0.60    -7200.00
01146              -0.40    -6400.00
01147              -0.20    -6400.00
01148               0.00    -4800.00
01149              -0.40    -4000.00
01150              -0.40    -4000.00
01151              -0.20    -3200.00
01152              -0.20    -3200.00
01153              -0.60    -2400.00
01154              -0.60    -1600.00
01155              -0.40     -800.00
01156              -0.40        0.00
01157              -0.40        0.00
01158               0.20        0.00
01159               1.00      800.00
01160               3.40     2400.00
01161              -1.80     3200.00
01162              -1.00     3200.00
01163               1.40     3200.00
01164              -0.20     4000.00
01165               0.60     4800.00
01166              18.60     5600.00
01167              25.00     7200.00
01168             -25.00     8000.00
01169             -24.60     8000.00
01170              25.00     8000.00
01171             -20.80     8000.00
01172             -15.40     8800.00
01173              25.00     9600.00
01174             -25.00     9600.00
01175              12.20    11200.00
01176              25.00    11200.00
01177             -25.00    12000.00
01178              25.00    12800.00
01179             -22.00    12800.00
01180             -10.40    13600.00
01181              25.00    14400.00
01182             -25.00    14400.00
01183              25.00    16000.00
01184              25.00    15200.00
01185             -25.00    16000.00
01186              25.00    16000.00
01187               8.40    17600.00
01188             -25.00    17600.00
01189              12.40    18400.00
01190              23.80    19200.00
01191             -25.00    19200.00
01192              15.40    20800.00
01193              18.20    20800.00
01194             -25.00    21600.00
01195              25.00    21600.00
01196             -18.40    22400.00
01197              -3.80    22400.00
01198              13.20    23200.00
01199             -14.00    24000.00
01200               2.20    24000.00
01201              14.60    24000.00
01202             -14.20    24800.00
01203              -3.60    25600.00
01204              15.60    25600.00
01205             -20.40    25600.00
01206               6.60    25600.00
01207               7.00    27200.00
01208             -11.20    27200.00
01209               4.60    27200.00
01210               0.40    28000.00
01211              -5.40    28000.00
01212               1.20    28800.00
01213               2.00    28000.00
01214              -5.20    28800.00
01215               1.80    29600.00
01216              -1.20    29600.00
01217              -5.20    30400.00
01218               3.40    30400.00
01219              -1.00    30400.00
01220              -4.40    30400.00
01221               2.60    31200.00
01222              -3.40    31200.00
01223              -3.80    31200.00
01224               1.00    31200.00
01225              -4.80    32800.00
01226              -0.60    31200.00
01227              -0.40    32000.00
01228              -3.80    32000.00
01229              -1.20    32800.00
01230              -3.80    32800.00
01231              -4.20    32000.00
01232              -2.80    32800.00
01233              -3.80    32800.00
01234              -5.00    32000.00
01235              -4.60    32000.00
01236              -3.80    33600.00
01237              -7.00    32800.00
01238              -5.80    32800.00
01239              -6.80    32800.00
01240              -9.40    32800.00
01241              -6.80    32800.00
01242             -11.20    32800.00
01243             -12.00    33600.00
01244             -10.80    32800.00
01245             -12.80    32000.00
01246             -13.00    33600.00
01247             -14.60    32800.00
01248             -14.80    32800.00
01249             -16.20    32800.00
01250             -17.80    32000.00
01251             -20.20    32800.00
01252             -23.00    32000.00
01253             -14.00    32000.00
01254              -6.60    32000.00
01255             -11.40    32000.00
01256             -11.60    31200.00
01257              -8.20    30400.00
01258              -7.00    31200.00
01259              -8.40    30400.00
01260              -7.20    31200.00
01261              -4.20    30400.00
01262              -6.00    30400.00
01263              -6.00    30400.00
01264              -2.60    29600.00
01265              -3.80    28800.00
01266              -4.80    28800.00
01267              -2.00    28800.00
01268              -2.00    28800.00
01269              -3.60    28000.00
01270              -2.00    28000.00
01271              -1.80    27200.00
01272              -2.60    27200.00
01273              -1.00    26400.00
01274              -1.20    26400.00
01275              -2.20    25600.00
01276              -0.60    25600.00
01277              -1.20    25600.00
01278              -1.20    24800.00
01279              -1.00    24800.00
01280              -1.00    24000.00
01281              -0.20    24000.00
01282              -0.60    23200.00
01283              -0.60    22400.00
01284              -0.80    22400.00
01285              -1.00    21600.00
01286              -0.60    21600.00
01287              -0.60    20800.00
01288              -0.60    20000.00
01289              -0.60    19200.00
01290              -0.60    19200.00
01291              -0.20    18400.00
01292              -1.20    18400.00
01293              -0.60    18400.00
01294              -0.20    17600.00
01295              -0.40    16800.00
01296              -0.20    16000.00
01297              -0.60    16000.00
01298              -0.40    15200.00
01299              -1.00    14400.00
01300              -0.60    14400.00
01301              -0.20    14400.00
01302              -0.60    12800.00
01303              -1.00    12800.00
01304               0.40    12000.00
01305              -0.60    12000.00
01306              -0.60    11200.00
01307              -0.60     9600.00
01308              -0.20     9600.00
01309              -1.00     9600.00
01310              -1.00     8800.00
01311              -0.40     8000.00
01312              -1.00     7200.00
01313              -0.60     8000.00
01314               0.00     5600.00
01315              -0.60     5600.00
01316              -0.60     4800.00
01317              -0.60     4000.00
01318              -0.20     3200.00
01319              -0.20     3200.00
01320              -1.00     1600.00
01321              -0.60     2400.00
01322               0.20     1600.00
01323              -0.60      800.00
01324              -0.60     -800.00
01325               0.60     -800.00
01326               2.20     -800.00
01327               1.20    -1600.00
01328              -1.20    -1600.00
01329               0.40    -2400.00
01330               1.00    -3200.00
01331               0.20    -3200.00
01332               1.20    -4000.00
01333              11.60    -4800.00
01334              25.00    -6400.00
01335             -23.20    -8000.00
01336             -25.00    -7200.00
01337              19.00    -8000.00
01338              11.80    -8800.00
01339             -25.00    -8000.00
01340              22.80    -8800.00
01341              25.00    -9600.00
01342             -25.00    -9600.00
01343              25.00   -11200.00
01344              25.00   -11200.00
01345             -25.00   -12000.00
01346              25.00   -13600.00
01347              -7.80   -13600.00
01348               5.00   -13600.00
01349              13.00   -13600.00
01350             -25.00   -14400.00
01351              25.00   -16000.00
01352              -5.40   -16000.00
01353             -25.00   -16800.00
01354              25.00   -16800.00
01355               1.40   -16800.00
01356             -25.00   -17600.00
01357              17.00   -17600.00
01358              13.00   -18400.00
01359             -25.00   -19200.00
01360              22.00   -20000.00
01361               6.60   -20000.00
01362             -16.60   -20800.00
01363              15.60   -20800.00
01364              -8.20   -22400.00
01365              -4.40   -22400.00
01366               7.60   -22400.00
01367              -3.80   -23200.00
01368              -1.40   -24000.00
01369              10.20   -24000.00
01370              -9.20   -24800.00
01371              -0.60   -25600.00
01372               8.60   -25600.00
01373             -11.00   -25600.00
01374               5.80   -26400.00
01375               3.80   -26400.00
01376              -4.60   -26400.00
01377               2.60   -27200.00
01378               1.40   -27200.00
01379              -2.60   -27200.00
01380               2.00   -28000.00
01381               2.20   -28800.00
01382              -2.60   -28800.00
01383               2.60   -29600.00
01384               0.60   -28800.00
01385              -1.40   -29600.00
01386               3.40   -29600.00
01387               1.00   -29600.00
01388              -0.80   -29600.00
01389               4.00   -30400.00
01390              -0.20   -30400.00
01391               0.20   -30400.00
01392               3.40   -31200.00
01393               0.20   -31200.00
01394               2.80   -30400.00
01395               2.60   -32000.00
01396               1.20   -31200.00
01397               2.60   -32000.00
01398               2.60   -32000.00
01399               2.60   -32000.00
01400               3.40   -32000.00
01401               4.40   -32000.00
01402               3.60   -32000.00
01403               5.20   -32000.00
01404               5.80   -32000.00
01405               5.00   -32000.00
01406               8.20   -32000.00
01407               7.40   -32000.00
01408               8.20   -32000.00
01409              11.40   -32800.00
01410               9.80   -32000.00
01411              11.80   -32000.00
01412              13.20   -32000.00
01413              12.40   -32800.00
01414              14.00   -32000.00
01415              14.40   -32000.00
01416              15.00   -32000.00
01417              18.00   -32000.00
01418              22.00   -32000.00
01419              20.20   -31200.00
01420               9.00   -32000.00
01421               8.20   -31200.00
01422              12.20   -30400.00
01423               9.00   -30400.00
01424               5.60   -30400.00
01425               7.60   -30400.00
01426               8.20   -29600.00
01427               4.40   -29600.00
01428               3.60   -29600.00
01429               6.00   -29600.00
01430               3.00   -28800.00
01431               1.80   -28800.00
01432               3.80   -28800.00
01433               2.80   -28800.00
01434               0.60   -28000.00
01435               2.00   -28000.00
01436               2.60   -27200.00
01437               0.40   -27200.00
01438               1.00   -26400.00
01439               1.80   -26400.00
01440               0.20   -26400.00
01441               0.40   -25600.00
01442               0.40   -25600.00
01443               0.60   -25600.00
01444               1.00   -24000.00
01445              -0.20   -24000.00
01446               0.20   -24000.00
01447               0.20   -24000.00
01448              -0.40   -23200.00
01449              -0.40   -22400.00
01450              -0.20   -22400.00
01451               0.20   -21600.00
01452              -0.20   -21600.00
01453              -0.20   -20800.00
01454               0.20   -20000.00
01455              -0.60   -19200.00
01456               0.00   -20000.00
01457              -0.20   -18400.00
01458              -0.40   -18400.00
01459              -0.20   -17600.00
01460              -1.00   -16800.00
01461              -0.60   -16800.00
01462               0.20   -16000.00
01463              -0.40   -16000.00
01464              -0.20   -15200.00
01465               0.20   -14400.00
01466              -0.60   -14400.00
01467              -0.40   -13600.00
01468              -0.20   -12800.00
01469              -0.60   -12800.00
01470              -0.40   -12000.00
01471               0.20   -11200.00
01472              -0.60   -11200.00
01473              -0.40   -10400.00
01474              -0.20    -9600.00
01475              -0.80    -8800.00
01476              -0.40    -8800.00
01477              -0.40    -8000.00
01478              -0.60    -7200.00
01479              -0.40    -7200.00
01480              -0.20    -6400.00
01481              -0.60    -5600.00
01482              -0.40    -4800.00
01483              -0.40    -4000.00
01484              -0.40    -4000.00
01485              -0.20    -3200.00
01486              -0.60    -2400.00
01487              -0.40    -1600.00
01488              -0.80     -800.00
01489              -0.60     -800.00
01490              -0.20        0.00
01491              -0.20      800.00
01492               0.20     1600.00
01493               2.60     1600.00
01494               1.40     2400.00
01495              -2.60     1600.00
01496               1.00     3200.00
01497               1.00     3200.00
01498              -2.00     3200.00
01499               6.60     4800.00
01500              25.00     5600.00
01501              -6.80     7200.00
01502             -25.00     8000.00
01503              10.60     8000.00
01504              19.40     8000.00
01505             -25.00     8000.00
01506              25.00     9600.00
01507              25.00     9600.00
01508             -25.00    11200.00
01509              25.00    11200.00
01510             -21.20    11200.00
01511             -25.00    12800.00
01512              25.00    12800.00
01513             -25.00    12800.00
01514              25.00    14400.00
01515              -8.40    14400.00
01516             -25.00    15200.00
01517              25.00    15200.00
01518             -25.00    16000.00
01519              -9.00    16000.00
01520              25.00    17600.00
01521             -25.00    17600.00
01522             -18.20    18400.00
01523              25.00    18400.00
01524              -7.40    19200.00
01525             -25.00    20800.00
01526              25.00    20000.00
01527             -18.60    20800.00
01528               0.60    21600.00
01529              14.60    21600.00
01530             -25.00    22400.00
01531              15.00    22400.00
01532              -2.40    23200.00
01533             -10.60    24000.00
01534              11.60    24000.00
01535               3.40    24800.00
01536             -17.60    24800.00
01537              14.80    24800.00
01538              -3.40    25600.00
01539             -14.20    25600.00
01540              16.60    25600.00
01541              -8.40    27200.00
01542              -3.80    27200.00
01543               6.00    27200.00
01544              -3.00    28000.00
01545              -5.20    28000.00
01546               4.40    28000.00
01547              -0.60    28800.00
01548              -5.00    28800.00
01549               3.60    29600.00
01550              -3.20    28800.00
01551              -4.40    29600.00
01552               2.80    30400.00
01553              -3.20    30400.00
01554              -1.40    30400.00
01555               1.20    30400.00
01556              -4.20    31200.00
01557              -1.20    31200.00
01558              -1.20    31200.00
01559              -4.40    31200.00
01560               0.20    31200.00
01561              -1.80    32800.00
01562              -2.80    32800.00
01563              -3.40    32000.00
01564              -4.20    32800.00
01565              -2.60    32800.00
01566              -3.60    32000.00
01567              -3.20    32800.00
01568              -5.20    32800.00
01569              -5.20    32800.00
01570              -6.00    32000.00
01571              -7.00    32800.00
01572              -5.60    32800.00
01573              -8.40    32800.00
01574              -7.60    32800.00
01575              -7.80    32800.00
01576             -11.80    32800.00
01577             -10.80    32800.00
01578             -13.20    32000.00
01579             -13.20    32800.00
01580             -12.60    32800.00
01581             -15.40    32000.00
01582             -15.00    32800.00
01583             -15.60    32800.00
01584             -19.00    32800.00
01585             -23.20    32000.00
01586             -20.40    32800.00
01587              -8.60    32000.00
01588              -9.20    32000.00
01589             -12.40    31200.00
01590              -9.20    31200.00
01591              -7.00    31200.00
01592              -7.60    31200.00
01593              -8.20    30400.00
01594              -5.00    30400.00
01595              -4.40    30400.00
01596              -7.00    30400.00
01597              -3.80    29600.00
01598              -2.60    28800.00
01599              -5.00    28800.00
01600              -3.40    28800.00
01601              -1.20    28000.00
01602              -3.00    28000.00
01603              -3.00    28000.00
01604              -1.00    27200.00
01605              -2.20    27200.00
01606              -2.20    27200.00
01607               0.20    25600.00
01608              -2.00    25600.00
01609              -1.80    25600.00
01610              -0.60    25600.00
01611              -1.20    24800.00
01612              -1.00    24800.00
01613              -1.00    24800.00
01614              -0.60    24000.00
01615              -0.60    23200.00
01616              -1.20    22400.00
01617              -0.60    22400.00
01618              -1.00    22400.00
01619              -0.80    21600.00
01620              -0.60    20800.00
01621              -0.40    20800.00
01622              -0.60    20800.00
01623              -1.00    19200.00
01624              -0.20    18400.00
01625              -0.40    19200.00
01626              -1.20    17600.00
01627              -0.60    17600.00
01628              -0.60    16800.00
01629              -0.60    16000.00
01630              -0.60    16000.00
01631              -0.60    15200.00
01632              -0.60    15200.00
01633              -0.60    14400.00
01634              -0.60    13600.00
01635              -0.40    12800.00
01636              -1.00    12800.00
01637              -1.00    12800.00
01638              -0.20    11200.00
01639              -0.40    11200.00
01640              -0.60    11200.00
01641              -0.60     9600.00
01642               0.40     9600.00
01643              -1.20     8800.00
01644              -0.60     8000.00
01645              -0.40     8000.00
01646              -0.60     7200.00
01647              -0.40     6400.00
01648              -0.60     5600.00
01649              -1.00     4800.00
01650              -0.60     4800.00
01651              -0.60     4000.00
01652               0.20     3200.00
01653              -0.20     2400.00
01654              -1.20     2400.00
01655              -0.40     1600.00
01656               0.20      800.00
01657              -0.60        0.00
01658               0.40        0.00
01659               0.40     -800.00
01660               3.60     -800.00
01661              -1.00    -1600.00
01662              -1.40    -1600.00
01663               0.80    -3200.00
01664               1.80    -3200.00
01665              -0.40    -4000.00
01666               4.40    -4000.00
01667              22.20    -4800.00
01668              15.40    -6400.00
01669             -25.00    -7200.00
01670             -13.00    -8000.00
01671              25.00    -8000.00
01672             -22.20    -8000.00
01673             -25.00    -8000.00
01674              25.00    -9600.00
01675              -6.20   -10400.00
01676             -25.00   -10400.00
01677              25.00   -11200.00
01678             -25.00   -11200.00
01679             -25.00   -12800.00
01680              25.00   -13600.00
01681             -25.00   -13600.00
01682              25.00   -14400.00
01683             -25.00   -14400.00
01684              -2.20   -15200.00
01685              25.00   -16000.00
01686             -25.00   -16000.00
01687               4.20   -16800.00
01688              25.00   -16800.00
01689             -25.00   -17600.00
01690             -12.20   -17600.00
01691              25.00   -18400.00
01692             -19.40   -19200.00
01693             -10.80   -20000.00
01694              25.00   -20000.00
01695             -18.00   -20800.00
01696               1.80   -20800.00
01697               9.80   -21600.00
01698             -14.20   -22400.00
01699               5.40   -22400.00
01700               4.20   -23200.00
01701              -7.60   -23200.00
01702               6.60   -24000.00
01703               4.00   -24000.00
01704             -11.40   -24000.00
01705               9.80   -24800.00
01706              -2.00   -25600.00
01707              -6.80   -25600.00
01708               8.60   -26400.00
01709              -3.00   -26400.00
01710              -1.80   -27200.00
01711               3.60   -27200.00
01712              -0.60   -27200.00
01713              -1.20   -27200.00
01714               3.60   -28800.00
01715              -1.00   -28800.00
01716              -1.00   -28800.00
01717               3.40   -29600.00
01718              -1.80   -28800.00
01719               0.40   -29600.00
01720               3.60   -29600.00
01721              -1.20   -29600.00
01722               2.00   -30400.00
01723               2.60   -30400.00
01724              -1.40   -30400.00
01725               2.00   -31200.00
01726               1.80   -30400.00
01727               1.00   -31200.00
01728               3.40   -32000.00
01729               1.80   -32000.00
01730               2.40   -32000.00
01731               2.60   -32000.00
01732               2.20   -32000.00
01733               3.60   -32000.00
01734               4.20   -32000.00
01735               4.20   -32000.00
01736               3.60   -32000.00
01737               6.40   -32000.00
01738               5.80   -32000.00
01739               5.80   -32000.00
01740               8.40   -32800.00
01741               7.60   -32000.00
01742               9.80   -32000.00
01743              10.60   -32800.00
01744              10.60   -32800.00
01745              13.20   -32000.00
01746              12.60   -32000.00
01747              13.20   -32000.00
01748              14.40   -32000.00
01749              14.80   -32000.00
01750              16.20   -32000.00
01751              19.60   -32000.00
01752              22.60   -31200.00
01753              14.80   -32000.00
01754               6.20   -31200.00
01755              10.60   -31200.00
01756              11.60   -31200.00
01757               7.00   -30400.00
01758               6.20   -30400.00
01759               8.20   -29600.00
01760               6.20   -29600.00
01761               3.00   -29600.00
01762               5.20   -29600.00
01763               6.20   -29600.00
01764               2.60   -28800.00
01765               2.20   -28800.00
01766               3.80   -28800.00
01767               1.40   -28000.00
01768               0.40   -28000.00
01769               3.40   -27200.00
01770               1.00   -27200.00
01771               0.40   -27200.00
01772               2.00   -26400.00
01773               1.00   -26400.00
01774               0.20   -25600.00
01775               1.00   -25600.00
01776               0.40   -24800.00
01777               0.40   -25600.00
01778               0.40   -24000.00
01779              -0.20   -24000.00
01780               0.20   -24000.00
01781              -0.40   -23200.00
01782              -0.20   -23200.00
01783               0.20   -22400.00
01784              -0.20   -21600.00
01785              -0.40   -21600.00
01786               0.40   -20800.00
01787               0.40   -20800.00
01788              -1.00   -20000.00
01789               0.40   -18400.00
01790               0.20   -19200.00
01791              -1.00   -18400.00
01792               0.80   -17600.00
01793              -0.20   -17600.00
01794              -1.00   -16800.00
01795               0.20   -16800.00
01796              -0.20   -16000.00
01797              -0.20   -16000.00
01798              -0.40   -15200.00
01799              -0.40   -14400.00
01800              -0.40   -14400.00
01801              -0.40   -13600.00
01802              -0.20   -12800.00
01803              -0.40   -11200.00
01804              -0.60   -11200.00
01805              -0.20   -11200.00
01806              -0.20   -10400.00
01807              -0.40    -9600.00
01808              -0.60    -9600.00
01809              -0.40    -8800.00
01810              -0.20    -8000.00
01811              -0.60    -8000.00
01812              -0.40    -6400.00
01813              -0.20    -6400.00
01814              -0.40    -5600.00
01815               0.00    -5600.00
01816              -0.40    -4800.00
01817              -0.60    -4000.00
01818              -0.40    -3200.00
01819              -0.20    -3200.00
01820              -0.60    -1600.00
01821              -0.20    -1600.00
01822              -0.40     -800.00
01823              -0.60     -800.00
01824              -0.20        0.00
01825               0.20      800.00
01826               0.60     1600.00
01827               3.40     1600.00
01828              -2.20     2400.00
01829              -1.00     2400.00
01830               1.00     3200.00
01831              -0.40     3200.00
01832               0.20     4800.00
01833              16.20     5600.00
01834              25.00     7200.00
01835             -25.00     8000.00
01836             -25.00     8000.00
01837              25.00     8000.00
01838             -15.40     8000.00
01839             -22.80     8800.00
01840              25.00     9600.00
01841             -25.00     9600.00
01842              -1.20    11200.00
01843              25.00    11200.00
01844             -25.00    11200.00
01845              25.00    12800.00
01846             -10.20    12800.00
01847             -22.60    12800.00
01848              25.00    14400.00
01849             -25.00    14400.00
01850              25.00    15200.00
01851              25.00    16000.00
01852             -25.00    16000.00
01853              25.00    16000.00
01854              15.00    16800.00
01855             -25.00    17600.00
01856               8.80    18400.00
01857              25.00    18400.00
01858             -25.00    18400.00
01859              10.00    20000.00
01860              22.80    20800.00
01861             -25.00    21600.00
01862              24.00    22400.00
01863             -14.80    21600.00
01864              -7.40    22400.00
01865              15.00    22400.00
01866             -13.40    24000.00
01867               0.60    24000.00
01868              15.40    24000.00
01869             -12.60    24800.00
01870              -5.80    25600.00
01871              17.80    25600.00
01872             -19.40    25600.00
01873               4.20    25600.00
01874               9.20    26400.00
01875             -12.40    27200.00
01876               4.00    27200.00
01877               1.40    28000.00
01878              -5.60    27200.00
01879               0.40    28000.00
01880               3.00    28800.00
01881              -5.20    28800.00
01882               0.60    28800.00
01883              -0.20    30400.00
01884              -5.20    29600.00
01885               2.60    30400.00
01886              -0.60    30400.00
01887              -4.60    31200.00
01888               2.60    30400.00
01889              -3.20    30400.00
01890              -4.40    30400.00
01891               1.80    31200.00
01892              -4.60    31200.00
01893              -1.80    31200.00
01894               0.40    32800.00
01895              -4.40    32000.00
01896              -2.60    32800.00
01897              -3.00    32000.00
01898              -4.00    32800.00
01899              -3.00    32000.00
01900              -3.00    32800.00
01901              -4.60    32800.00
01902              -4.60    32800.00
01903              -3.60    32800.00
01904              -7.80    32800.00
01905              -6.00    32800.00
01906              -6.80    32800.00
01907              -9.60    32800.00
01908              -6.40    32800.00
01909             -10.60    32000.00
01910             -11.80    32800.00
01911             -10.20    32800.00
01912             -13.40    33600.00
01913             -13.20    32000.00
01914             -14.00    32800.00
01915             -15.00    32800.00
01916             -15.60    32800.00
01917             -16.80    32000.00
01918             -20.20    32800.00
01919             -23.60    32000.00
01920             -15.00    32800.00
01921              -6.80    31200.00
01922             -11.00    32000.00
01923             -11.60    31200.00
01924              -7.80    31200.00
01925              -6.60    32000.00
01926              -8.40    31200.00
01927              -7.00    31200.00
01928              -3.80    30400.00
01929              -5.80    30400.00
01930              -5.80    30400.00
01931              -2.20    29600.00
01932              -3.80    28800.00
01933              -5.00    28800.00
01934              -2.00    28800.00
01935              -1.80    28800.00
01936              -3.60    28000.00
01937              -2.20    28000.00
01938              -0.80    28000.00
01939              -2.60    27200.00
01940              -1.40    27200.00
01941              -0.80    26400.00
01942              -2.20    26400.00
01943              -1.20    25600.00
01944              -0.60    25600.00
01945              -1.20    24800.00
01946              -0.80    24000.00
01947              -0.60    24800.00
01948              -1.00    24800.00
01949              -1.00    23200.00
01950              -0.20    22400.00
01951              -1.00    22400.00
01952              -1.00    21600.00
01953              -0.40    21600.00
01954              -1.00    20800.00
01955              -0.60    20800.00
01956              -1.20    19200.00
01957              -0.60    19200.00
01958               0.00    19200.00
01959              -1.00    18400.00
01960              -0.60    17600.00
01961              -0.40    17600.00
01962              -1.00    16800.00
01963              -0.20    16000.00
01964              -0.40    16000.00
01965              -1.20    15200.00
01966              -1.00    14400.00
01967              -0.40    14400.00
01968              -1.00    13600.00
01969              -1.00    12800.00
01970              -0.60    12800.00
01971              -0.60    12000.00
01972              -0.20    12000.00
01973              -0.40    11200.00
01974              -1.20    10400.00
01975               0.20     9600.00
01976              -0.60     9600.00
01977              -1.20     8800.00
01978              -0.20     8000.00
01979              -0.60     8000.00
01980              -1.00     7200.00
01981               0.20     6400.00
01982              -0.60     5600.00
01983              -0.60     5600.00
01984              -0.20     4000.00
01985              -0.20     3200.00
01986              -0.60     3200.00
01987              -0.40     2400.00
01988              -0.40     1600.00
01989              -0.20     1600.00
01990              -0.40      800.00
01991               0.20        0.00
01992               0.40     -800.00
01993               2.20     -800.00
01994               2.20     -800.00
01995              -1.80    -1600.00
01996               0.40    -2400.00
01997               1.20    -3200.00
01998               0.20    -3200.00
01999               0.60    -4000.00
02000              10.60    -4000.00
02001              25.00    -6400.00
02002             -18.00    -7200.00
02003             -25.00    -8000.00
02004              16.00    -8000.00
02005              15.80    -8800.00
02006             -25.00    -8800.00
02007              15.40    -8800.00
02008              25.00   -10400.00
02009             -25.00   -10400.00
02010              21.20   -11200.00
02011              25.00   -11200.00
02012             -25.00   -11200.00
02013              25.00   -12800.00
02014              -2.20   -12800.00
02015              -0.40   -13600.00
02016              17.40   -14400.00
02017             -25.00   -14400.00
02018              25.00   -16000.00
02019               1.40   -16000.00
02020             -25.00   -16800.00
02021              25.00   -16800.00
02022               5.20   -17600.00
02023             -25.00   -17600.00
02024              13.80   -18400.00
02025              16.20   -19200.00
02026             -25.00   -18400.00
02027              19.00   -20000.00
02028              10.00   -20800.00
02029             -18.80   -20800.00
02030              15.00   -20800.00
02031              -6.80   -21600.00
02032              -6.60   -22400.00
02033               7.80   -22400.00
02034              -2.80   -23200.00
02035              -2.80   -24000.00
02036              10.60   -24000.00
02037              -7.60   -24000.00
02038              -2.20   -24800.00
02039               9.40   -24800.00
02040             -10.20   -24800.00
02041               4.20   -26400.00
02042               4.60   -25600.00
02043              -5.20   -27200.00
02044               2.00   -27200.00
02045               2.20   -26400.00
02046              -2.20   -27200.00
02047               1.40   -28000.00
02048               2.80   -28800.00
02049              -2.60   -28800.00
02050               2.00   -28800.00
02051               1.20   -28800.00
02052              -1.40   -28800.00
02053               2.80   -28800.00
02054               1.80   -29600.00
02055              -0.60   -30400.00
02056               3.40   -29600.00
02057               0.20   -30400.00
02058               0.00   -30400.00
02059               3.00   -30400.00
02060               0.60   -31200.00
02061               2.60   -31200.00
02062               2.60   -31200.00
02063               1.40   -32000.00
02064               2.60   -31200.00
02065               2.60   -32000.00
02066               3.00   -32000.00
02067               3.60   -32000.00
02068               4.40   -32000.00
02069               3.60   -32000.00
02070               5.20   -32000.00
02071               6.20   -32000.00
02072               5.00   -32000.00
02073               7.40   -32000.00
02074               8.00   -32000.00
02075               7.80   -32000.00
02076              11.00   -32000.00
02077              10.00   -32000.00
02078              11.20   -32000.00
02079              13.00   -32000.00
02080              12.80   -32000.00
02081              13.60   -32000.00
02082              14.60   -32000.00
02083              15.60   -32000.00
02084              17.60   -32000.00
02085              22.00   -32000.00
02086              20.80   -31200.00
02087               9.20   -30400.00
02088               7.60   -32000.00
02089              12.00   -30400.00
02090               9.00   -31200.00
02091               5.40   -30400.00
02092               7.40   -30400.00
02093               8.20   -30400.00
02094               4.80   -30400.00
02095               3.00   -29600.00
02096               6.20   -29600.00
02097               3.80   -28800.00
02098               1.80   -28800.00
02099               3.60   -28800.00
02100               3.40   -28800.00
02101               0.60   -28800.00
02102               1.80   -27200.00
02103               2.80   -27200.00
02104               0.40   -27200.00
02105               1.00   -27200.00
02106               1.80   -26400.00
02107              -0.20   -25600.00
02108               0.60   -26400.00
02109               0.60   -25600.00
02110               0.20   -24800.00
02111               1.00   -24800.00
02112               0.40   -24000.00
02113               0.20   -24000.00
02114               0.40   -23200.00
02115              -0.20   -23200.00
02116               0.20   -22400.00
02117               0.20   -22400.00
02118              -0.80   -21600.00
02119              -0.20   -20800.00
02120               1.00   -20800.00
02121              -0.60   -20000.00
02122              -1.00   -19200.00
02123               1.00   -18400.00
02124               0.20   -18400.00
02125              -1.00   -17600.00
02126               1.00   -17600.00
02127              -0.40   -16800.00
02128              -1.00   -16800.00
02129               0.20   -16000.00
02130               0.00   -16000.00
02131              -0.60   -14400.00
02132              -0.60   -14400.00
02133               0.60   -14400.00
02134              -0.40   -13600.00
02135              -1.20   -12800.00
02136               0.40   -12800.00
02137              -0.20   -12800.00
02138              -1.80   -11200.00
02139               0.40   -10400.00
02140               1.00   -10400.00
02141              -2.20    -9600.00
02142              -0.40    -9600.00
02143               1.40    -8000.00
02144              -1.80    -8000.00
02145              -1.00    -7200.00
02146               1.40    -6400.00
02147              -0.60    -6400.00
02148              -1.20    -5600.00
02149               0.40    -5600.00
02150              -0.60    -4000.00
02151              -2.00    -3200.00
02152              -0.20    -3200.00
02153               0.80    -3200.00
02154              -1.20    -1600.00
02155              -1.20     -800.00
02156               0.20     -800.00
02157              -0.80        0.00
02158              -1.40        0.00
02159               1.80      800.00
02160               2.60     1600.00
02161               0.00     1600.00
02162              -1.80     3200.00
02163               1.00     3200.00
02164              -0.60     4000.00
02165              -1.40     4800.00
02166               6.40     5600.00
02167              25.00     6400.00
02168              -1.20     8000.00
02169             -25.00     8000.00
02170               6.20     8000.00
02171              22.40     8000.00
02172             -25.00     8800.00
02173              25.00     9600.00
02174              25.00     9600.00
02175             -25.00    10400.00
02176              25.00    11200.00
02177              -7.40    11200.00
02178             -25.00    12000.00
02179              25.00    12000.00
02180             -25.00    12800.00
02181              25.00    14400.00
02182               6.60    14400.00
02183             -25.00    15200.00
02184              25.00    15200.00
02185             -25.00    16000.00
02186             -19.40    16800.00
02187              25.00    16800.00
02188             -25.00    17600.00
02189             -21.40    18400.00
02190              25.00    18400.00
02191              -2.20    19200.00
02192             -25.00    20000.00
02193              25.00    20800.00
02194             -14.80    20800.00
02195              -4.20    21600.00
02196              19.00    21600.00
02197             -25.00    22400.00
02198              12.60    22400.00
02199               0.60    23200.00
02200             -11.40    24000.00
02201              10.60    24000.00
02202               5.20    24800.00
02203             -17.80    24800.00
02204              13.80    24800.00
02205              -0.60    25600.00
02206             -17.00    25600.00
02207              17.40    26400.00
02208              -6.40    27200.00
02209              -6.60    27200.00
02210               7.40    28000.00
02211              -3.40    28000.00
02212              -5.80    28000.00
02213               5.00    28000.00
02214              -1.40    28800.00
02215              -6.20    28800.00
02216               3.20    28800.00
02217              -2.20    28800.00
02218              -3.00    28800.00
02219               2.20    29600.00
02220              -2.60    30400.00
02221              -1.20    30400.00
02222              -1.00    31200.00
02223              -5.20    31200.00
02224               1.20    31200.00
02225              -1.80    31200.00
02226              -5.20    32800.00
02227               2.00    32000.00
02228              -3.00    32000.00
02229              -5.00    31200.00
02230              -2.00    32000.00
02231              -3.80    32800.00
02232              -3.60    32800.00
02233              -2.20    32800.00
02234              -3.60    32000.00
02235              -6.20    32800.00
02236              -4.40    32800.00
02237              -4.40    32800.00
02238              -7.80    32800.00
02239              -6.00    32800.00
02240              -8.60    32800.00
02241              -7.60    32800.00
02242              -7.20    32800.00
02243             -12.40    32800.00
02244             -10.60    32800.00
02245             -11.80    32800.00
02246             -14.00    32800.00
02247             -13.20    32000.00
02248             -14.80    32800.00
02249             -14.80    32000.00
02250             -15.40    32800.00
02251             -17.80    32000.00
02252             -23.00    32000.00
02253             -21.40    32000.00
02254              -8.80    32000.00
02255              -8.40    31200.00
02256             -12.20    31200.00
02257              -9.00    32000.00
02258              -7.00    31200.00
02259              -7.40    31200.00
02260              -8.20    30400.00
02261              -6.20    30400.00
02262              -4.20    30400.00
02263              -6.80    30400.00
02264              -4.40    29600.00
02265              -2.20    29600.00
02266              -4.40    28800.00
02267              -3.80    28800.00
02268              -1.20    28000.00
02269              -3.00    28000.00
02270              -3.00    27200.00
02271              -0.60    27200.00
02272              -2.20    27200.00
02273              -2.40    27200.00
02274              -1.00    27200.00
02275              -2.00    26400.00
02276              -1.40    25600.00
02277              -0.60    25600.00
02278              -1.40    24800.00
02279              -1.00    24800.00
02280              -1.40    24800.00
02281              -1.80    24000.00
02282              -0.40    23200.00
02283              -0.60    23200.00
02284              -0.60    22400.00
02285              -0.60    21600.00
02286              -0.80    21600.00
02287              -0.60    21600.00
02288              -1.20    20800.00
02289              -1.20    20000.00
02290              -1.20    20000.00
02291              -0.60    19200.00
02292              -0.60    18400.00
02293              -0.60    17600.00
02294              -0.40    17600.00
02295              -0.60    16800.00
02296              -0.40    17600.00
02297              -0.40    16000.00
02298              -1.20    15200.00
02299              -1.00    15200.00
02300              -0.60    15200.00
02301               0.00    13600.00
02302              -0.60    14400.00
02303              -1.00    12800.00
02304              -0.40    12000.00
02305              -0.20    12000.00
02306              -1.00    11200.00
02307              -0.60    11200.00
02308              -0.40     9600.00
02309               0.00     9600.00
02310              -1.00     8800.00
02311              -0.40     8800.00
02312              -0.60     8000.00
02313              -0.40     7200.00
02314              -0.20     6400.00
02315              -0.20     7200.00
02316              -0.80     5600.00
02317              -0.40     4800.00
02318              -0.60     3200.00
02319              -0.20     3200.00
02320              -0.20     2400.00
02321              -0.60     2400.00
02322              -0.20     1600.00
02323              -0.40     1600.00
02324              -0.40        0.00
02325               0.40        0.00
02326               0.60     -800.00
02327               3.60     -800.00
02328              -0.40    -1600.00
02329              -1.00    -1600.00
02330               1.20    -2400.00
02331               1.20    -3200.00
02332              -0.80    -3200.00
02333               4.20    -4000.00
02334              20.20    -5600.00
02335              18.60    -6400.00
02336             -25.00    -7200.00
02337             -17.80    -8000.00
02338              25.00    -8000.00
02339             -16.20    -8800.00
02340             -25.00    -8000.00
02341              25.00    -9600.00
02342               6.00    -9600.00
02343             -25.00   -10400.00
02344              25.00   -11200.00
02345             -15.40   -12000.00
02346             -25.00   -12800.00
02347              25.00   -12800.00
02348             -25.00   -13600.00
02349              25.00   -14400.00
02350             -20.40   -14400.00
02351              -9.20   -15200.00
02352              25.00   -16000.00
02353             -25.00   -16000.00
02354              -1.40   -16800.00
02355              25.00   -16800.00
02356             -22.20   -17600.00
02357             -14.80   -17600.00
02358              25.00   -18400.00
02359             -15.00   -19200.00
02360             -15.00   -19200.00
02361              25.00   -20000.00
02362             -15.40   -20800.00
02363              -1.40   -21600.00
02364              11.20   -21600.00
02365             -13.40   -22400.00
02366               3.80   -22400.00
02367               4.40   -22400.00
02368              -6.80   -23200.00
02369               4.60   -24000.00
02370               4.60   -24000.00
02371             -10.80   -24000.00
02372               8.60   -24800.00
02373              -0.40   -24800.00
02374              -6.60   -25600.00
02375               9.20   -26400.00
02376              -3.00   -26400.00
02377              -1.60   -27200.00
02378               3.60   -27200.00
02379              -1.20   -27200.00
02380              -1.20   -28000.00
02381               3.60   -28000.00
02382              -0.60   -28800.00
02383              -1.40   -28800.00
02384               3.40   -28800.00
02385              -1.60   -28800.00
02386               0.20   -28800.00
02387               3.80   -29600.00
02388              -0.60   -29600.00
02389               1.40   -29600.00
02390               3.00   -29600.00
02391              -1.00   -30400.00
02392               2.00   -30400.00
02393               2.00   -30400.00
02394               1.00   -30400.00
02395               3.60   -32000.00
02396               1.80   -31200.00
02397               2.20   -32000.00
02398               2.80   -32000.00
02399               2.60   -32000.00
02400               3.40   -32000.00
02401               4.20   -32000.00
02402               4.20   -32000.00
02403               3.80   -32000.00
02404               6.20   -32000.00
02405               5.00   -32000.00
02406               5.80   -32000.00
02407               8.60   -32000.00
02408               6.80   -32000.00
02409               9.80   -32800.00
02410              10.60   -32000.00
02411               9.80   -32000.00
02412              12.20   -32000.00
02413              12.80   -32000.00
02414              13.00   -32000.00
02415              14.20   -32000.00
02416              14.60   -32000.00
02417              16.40   -32000.00
02418              19.20   -32000.00
02419              22.60   -32000.00
02420              16.20   -31200.00
02421               6.20   -31200.00
02422              10.00   -31200.00
02423              11.60   -30400.00
02424               6.80   -31200.00
02425               5.80   -30400.00
02426               8.20   -30400.00
02427               7.00   -29600.00
02428               3.40   -29600.00
02429               4.40   -29600.00
02430               5.80   -28800.00
02431               2.00   -28800.00
02432               2.60   -28800.00
02433               4.20   -28800.00
02434               2.00   -28000.00
02435               0.60   -27200.00
02436               2.80   -27200.00
02437               2.00   -27200.00
02438              -0.20   -26400.00
02439               2.00   -27200.00
02440               1.80   -26400.00
02441              -0.40   -26400.00
02442               1.00   -25600.00
02443               0.40   -25600.00
02444               0.20   -25600.00
02445               1.00   -24000.00
02446               0.40   -24000.00
02447               0.20   -23200.00
02448               0.40   -23200.00
02449               0.20   -23200.00
02450               0.00   -22400.00
02451               0.40   -22400.00
02452               0.20   -20800.00
02453              -0.40   -20800.00
02454               0.60   -20800.00
02455               0.20   -20000.00
02456              -0.60   -20000.00
02457               0.40   -18400.00
02458              -0.40   -18400.00
02459              -0.20   -17600.00
02460               0.20   -16800.00
02461              -0.60   -16800.00
02462              -0.20   -16800.00
02463              -0.20   -16000.00
02464              -0.60   -15200.00
02465               0.00   -14400.00
02466              -0.20   -13600.00
02467              -0.40   -13600.00
02468               0.20   -13600.00
02469              -0.20   -12800.00
02470              -0.60   -12000.00
02471              -0.20   -11200.00
02472              -0.20   -11200.00
02473              -0.60   -10400.00
02474              -0.40    -9600.00
02475              -0.60    -9600.00
02476              -1.00    -8800.00
02477              -0.40    -8000.00
02478              -0.60    -7200.00
02479              -0.60    -7200.00
02480              -0.20    -6400.00
02481              -0.60    -6400.00
02482              -0.40    -4800.00
02483              -0.40    -4800.00
02484              -0.60    -4000.00
02485              -0.40    -3200.00
02486              -0.60    -3200.00
02487              -1.00    -1600.00
02488              -0.60    -1600.00
02489              -1.00     -800.00
02490              -1.00        0.00
02491              -0.20        0.00
02492               0.20     1600.00
02493               0.20     1600.00
02494               3.60     1600.00
02495              -1.80     2400.00
02496              -1.80     3200.00
02497               1.20     3200.00
02498               0.20     4000.00
02499              -0.60     4000.00
02500              14.60     5600.00
02501              25.00     7200.00
02502             -25.00     7200.00
02503             -25.00     8000.00
02504              25.00     8000.00
02505              -9.40     8000.00
02506             -25.00     8800.00
02507              25.00     9600.00
02508             -25.00     9600.00
02509             -14.20    11200.00
02510              25.00    11200.00
02511             -25.00    11200.00
02512              25.00    12800.00
02513               1.80    12800.00
02514             -25.00    12800.00
02515              25.00    14400.00
02516             -25.00    14400.00
02517              25.00    15200.00
02518              25.00    15200.00
02519             -25.00    16000.00
02520              25.00    16000.00
02521              21.80    17600.00
02522             -25.00    17600.00
02523               4.60    18400.00
02524              25.00    18400.00
02525             -25.00    19200.00
02526               4.60    20800.00
02527              25.00    20800.00
02528             -25.00    21600.00
02529              22.40    21600.00
02530             -10.60    21600.00
02531             -10.80    22400.00
02532              16.40    22400.00
02533             -12.40    23200.00
02534              -1.20    24000.00
02535              15.40    24000.00
02536             -10.60    24800.00
02537              -9.00    24800.00
02538              18.80    25600.00
02539             -18.00    25600.00
02540               1.00    25600.00
02541              11.40    26400.00
02542             -12.40    26400.00
02543               2.80    27200.00
02544               2.00    27200.00
02545              -5.40    28000.00
02546              -0.60    28800.00
02547               3.00    28800.00
02548              -4.80    28800.00
02549              -0.60    28800.00
02550               0.20    29600.00
02551              -5.20    29600.00
02552               1.80    29600.00
02553              -0.20    30400.00
02554              -4.60    30400.00
02555               2.00    30400.00
02556              -2.60    30400.00
02557              -4.60    31200.00
02558               1.80    31200.00
02559              -4.60    31200.00
02560              -2.60    32000.00
02561               0.40    32800.00
02562              -4.20    32800.00
02563              -2.80    32000.00
02564              -3.00    32800.00
02565              -3.80    32800.00
02566              -3.40    32800.00
02567              -3.40    32800.00
02568              -4.40    32800.00
02569              -5.40    32800.00
02570              -3.80    32800.00
02571              -7.40    32800.00
02572              -6.00    32800.00
02573              -6.20    33600.00
02574             -10.00    32800.00
02575              -6.00    33600.00
02576             -10.20    32800.00
02577             -12.40    32800.00
02578             -10.00    32800.00
02579             -13.20    32800.00
02580             -13.00    32800.00
02581             -13.80    32000.00
02582             -15.00    32800.00
02583             -15.20    32000.00
02584             -16.60    32000.00
02585             -20.00    32800.00
02586             -23.40    32000.00
02587             -15.60    31200.00
02588              -7.00    32000.00
02589             -10.60    32000.00
02590             -11.60    31200.00
02591              -8.20    31200.00
02592              -6.20    31200.00
02593              -8.20    30400.00
02594              -7.60    31200.00
02595              -3.80    30400.00
02596              -5.80    30400.00
02597              -6.20    30400.00
02598              -2.60    29600.00
02599              -3.60    28800.00
02600              -5.00    28800.00
02601              -2.20    28800.00
02602              -1.80    28800.00
02603              -3.40    28000.00
02604              -1.80    28000.00
02605              -1.20    27200.00
02606              -2.80    27200.00
02607              -1.40    27200.00
02608              -1.20    26400.00
02609              -2.20    25600.00
02610              -1.20    25600.00
02611              -0.80    24800.00
02612              -1.20    24800.00
02613              -1.20    24800.00
02614              -1.40    24800.00
02615              -0.60    24000.00
02616              -1.00    23200.00
02617              -1.00    22400.00
02618              -0.60    22400.00
02619              -0.60    21600.00
02620              -1.00    21600.00
02621              -0.80    21600.00
02622              -0.60    20800.00
02623              -1.20    20000.00
02624              -1.00    19200.00
02625               0.20    19200.00
02626              -1.20    18400.00
02627              -1.00    17600.00
02628              -0.40    17600.00
02629              -1.20    16800.00
02630               0.20    16000.00
02631              -0.60    16000.00
02632              -0.60    15200.00
02633              -0.40    14400.00
02634              -0.60    14400.00
02635              -0.40    14400.00
02636              -0.60    12800.00
02637              -0.60    12800.00
02638               0.20    12000.00
02639              -0.60    11200.00
02640              -0.60    11200.00
02641              -0.60    10400.00
02642              -0.20     9600.00
02643              -0.60     8800.00
02644              -0.60     8800.00
02645              -0.20     8000.00
02646              -0.40     8000.00
02647              -0.60     7200.00
02648              -0.20     6400.00
02649              -0.60     5600.00
02650              -0.40     4800.00
02651              -0.20     4000.00
02652              -0.60     4000.00
02653              -0.40     3200.00
02654              -0.20     3200.00
02655              -0.60     1600.00
02656              -0.20     1600.00
02657              -0.20      800.00
02658              -0.20        0.00
02659               0.40     -800.00
02660               2.00     -800.00
02661               2.20    -1600.00
02662              -1.40    -1600.00
02663               0.60    -2400.00
02664               1.00    -3200.00
02665               0.20    -3200.00
02666               0.20    -4000.00
02667               9.60    -4800.00
02668              25.00    -6400.00
02669             -12.60    -7200.00
02670             -25.00    -8000.00
02671              12.20    -8000.00
02672              18.80    -8000.00
02673             -25.00    -8800.00
02674               7.20    -9600.00
02675              25.00   -10400.00
02676             -25.00   -10400.00
02677              10.00   -11200.00
02678              25.00   -11200.00
02679             -25.00   -11200.00
02680              22.80   -12800.00
02681               3.60   -12800.00
02682              -5.20   -13600.00
02683              21.20   -14400.00
02684             -25.00   -14400.00
02685              25.00   -14400.00
02686               8.40   -16000.00
02687             -25.00   -16000.00
02688              25.00   -16000.00
02689               9.40   -16800.00
02690             -25.00   -17600.00
02691              10.00   -18400.00
02692              19.60   -18400.00
02693             -25.00   -19200.00
02694              15.40   -20000.00
02695              14.00   -20000.00
02696             -19.80   -21600.00
02697              14.60   -21600.00
02698              -4.80   -22400.00
02699              -7.80   -22400.00
02700               8.60   -23200.00
02701              -1.40   -23200.00
02702              -4.40   -24000.00
02703              10.60   -23200.00
02704              -6.20   -24000.00
02705              -4.40   -24800.00
02706              10.60   -25600.00
02707              -9.40   -25600.00
02708               2.80   -25600.00
02709               5.40   -26400.00
02710              -5.00   -26400.00
02711               1.80   -27200.00
02712               2.60   -27200.00
02713              -2.20   -28000.00
02714               1.40   -27200.00
02715               3.00   -28000.00
02716              -2.80   -28800.00
02717               2.00   -28800.00
02718               1.80   -28800.00
02719              -2.20   -29600.00
02720               3.00   -29600.00
02721               2.60   -29600.00
02722              -1.40   -29600.00
02723               3.00   -29600.00
02724               1.00   -30400.00
02725              -0.40   -30400.00
02726               3.00   -30400.00
02727               1.00   -31200.00
02728               2.40   -32000.00
02729               3.20   -31200.00
02730               1.40   -32000.00
02731               2.20   -32000.00
02732               2.60   -32000.00
02733               2.60   -32000.00
02734               3.40   -32000.00
02735               4.40   -32000.00
02736               3.60   -32000.00
02737               5.00   -32000.00
02738               6.20   -32000.00
02739               4.40   -32000.00
02740               7.40   -32000.00
02741               7.60   -32000.00
02742               7.60   -32000.00
02743              10.80   -32000.00
02744              10.20   -32000.00
02745              10.80   -32000.00
02746              13.00   -32000.00
02747              13.00   -32000.00
02748              13.40   -32000.00
02749              14.20   -32000.00
02750              15.40   -32000.00
02751              17.20   -32000.00
02752              21.00   -31200.00
02753              21.20   -32000.00
02754              10.40   -30400.00
02755               7.40   -32000.00
02756              11.60   -30400.00
02757              10.00   -31200.00
02758               5.40   -30400.00
02759               6.80   -30400.00
02760               8.40   -29600.00
02761               4.60   -29600.00
02762               3.40   -29600.00
02763               6.60   -29600.00
02764               4.40   -28800.00
02765               1.60   -28800.00
02766               3.60   -28800.00
02767               3.60   -28000.00
02768               0.40   -28000.00
02769               2.00   -28000.00
02770               2.80   -27200.00
02771               0.40   -27200.00
02772               1.00   -26400.00
02773               2.20   -26400.00
02774               0.20   -26400.00
02775               1.20   -25600.00
02776               1.00   -25600.00
02777               0.20   -25600.00
02778               0.60   -24800.00
02779               1.00   -24000.00
02780              -0.60   -24000.00
02781               0.20   -23200.00
02782               0.80   -23200.00
02783              -0.20   -22400.00
02784              -0.60   -22400.00
02785              -0.20   -22400.00
02786               0.60   -20800.00
02787              -0.60   -20800.00
02788              -0.20   -20000.00
02789               1.00   -20000.00
02790              -0.20   -18400.00
02791              -1.00   -18400.00
02792               1.00   -18400.00
02793               0.20   -17600.00
02794              -1.80   -17600.00
02795               0.60   -16800.00
02796               0.20   -16000.00
02797              -1.40   -16000.00
02798               0.00   -14400.00
02799               0.20   -14400.00
02800              -0.40   -14400.00
02801              -1.00   -13600.00
02802               0.00   -13600.00
02803               0.20   -12800.00
02804              -1.20   -12000.00
02805              -0.20   -11200.00
02806               0.60   -11200.00
02807              -0.80   -10400.00
02808              -1.40    -9600.00
02809               0.20    -9600.00
02810              -0.40    -8800.00
02811              -1.20    -8000.00
02812              -0.40    -8000.00
02813               0.40    -6400.00
02814              -1.80    -6400.00
02815              -0.80    -4800.00
02816               0.60    -4800.00
02817              -0.40    -4000.00
02818              -1.20    -3200.00
02819              -0.40    -3200.00
02820              -0.60    -3200.00
02821              -0.60    -1600.00
02822              -1.00     -800.00
02823              -0.80     -800.00
02824              -0.20        0.00
02825              -0.20        0.00
02826               0.20      800.00
02827               2.20     1600.00
02828               1.80     2400.00
02829              -2.60     2400.00
02830               0.20     3200.00
02831               1.00     3200.00
02832              -1.20     4000.00
02833               4.40     4800.00
02834              25.00     5600.00
02835               6.00     7200.00
02836             -25.00     8000.00
02837               1.20     8000.00
02838              25.00     8000.00
02839             -25.00     8000.00
02840              25.00     9600.00
02841              25.00     9600.00
02842             -25.00     9600.00
02843              25.00    11200.00
02844               5.80    11200.00
02845             -25.00    12000.00
02846              25.00    12800.00
02847             -25.00    12800.00
02848              25.00    14400.00
02849              19.80    14400.00
02850             -25.00    15200.00
02851              25.00    15200.00
02852             -25.00    15200.00
02853             -25.00    16000.00
02854              25.00    17600.00
02855             -23.40    17600.00
02856             -25.00    18400.00
02857              25.00    18400.00
02858               4.20    19200.00
02859             -25.00    20000.00
02860              25.00    19200.00
02861              -8.60    20800.00
02862              -8.20    21600.00
02863              21.20    21600.00
02864             -25.00    22400.00
02865              10.20    22400.00
02866               1.40    23200.00
02867             -13.40    24000.00
02868              10.60    24000.00
02869              10.60    24800.00
02870             -19.80    24800.00
02871              10.80    24800.00
02872               4.20    25600.00
02873             -21.80    25600.00
02874              14.80    25600.00
02875              -3.60    27200.00
02876              -7.80    26400.00
02877               7.60    28000.00
02878              -2.00    28000.00
02879              -4.40    28000.00
02880               3.60    28800.00
02881              -2.20    28800.00
02882              -4.60    28800.00
02883               2.40    29600.00
02884              -5.20    28800.00
02885              -2.00    30400.00
02886               4.20    30400.00
02887              -5.20    30400.00
02888              -0.60    30400.00
02889               1.80    30400.00
02890              -6.60    31200.00
02891              -0.60    31200.00
02892              -2.00    32000.00
02893              -5.20    32000.00
02894               1.00    32800.00
02895              -2.00    32000.00
02896              -2.80    32000.00
02897              -2.00    32800.00
02898              -4.40    32800.00
02899              -3.20    32800.00
02900              -3.60    32800.00
02901              -4.40    32800.00
02902              -5.20    32800.00
02903              -3.80    32800.00
02904              -4.60    33600.00
02905              -7.60    32800.00
02906              -5.00    32800.00
02907              -8.60    32800.00
02908              -8.40    33600.00
02909              -7.40    32800.00
02910             -12.40    32800.00
02911             -10.80    32800.00
02912             -11.40    32800.00
02913             -12.60    32800.00
02914             -12.60    32800.00
02915             -14.60    32800.00
02916             -14.80    32800.00
02917             -16.20    32800.00
02918             -18.20    32800.00
02919             -22.20    32000.00
02920             -21.80    32000.00
02921              -9.40    32800.00
02922              -8.20    32000.00
02923             -12.20    32000.00
02924              -9.80    31200.00
02925              -7.00    32000.00
02926              -7.00    30400.00
02927              -8.20    31200.00
02928              -6.00    31200.00
02929              -3.80    30400.00
02930              -6.20    29600.00
02931              -5.00    29600.00
02932              -2.20    28800.00
02933              -4.80    29600.00
02934              -4.60    28800.00
02935              -1.60    28000.00
02936              -2.80    28000.00
02937              -3.40    27200.00
02938              -1.00    27200.00
02939              -1.80    27200.00
02940              -2.60    27200.00
02941              -0.80    26400.00
02942              -1.80    25600.00
02943              -2.20    25600.00
02944              -0.60    25600.00
02945              -1.20    24800.00
02946              -0.80    24800.00
02947              -1.20    24000.00
02948              -1.20    24000.00
02949              -1.00    24000.00
02950              -1.20    23200.00
02951              -0.60    22400.00
02952              -1.00    22400.00
02953              -0.60    21600.00
02954              -0.60    20800.00
02955              -1.00    20800.00
02956              -1.20    20000.00
02957              -1.00    19200.00
02958              -0.60    19200.00
02959              -0.40    18400.00
02960              -0.60    18400.00
02961              -0.20    17600.00
02962              -0.80    17600.00
02963              -0.60    16000.00
02964              -0.60    16000.00
02965              -0.80    16000.00
02966              -0.60    15200.00
02967              -0.60    14400.00
02968              -0.60    14400.00
02969              -0.60    13600.00
02970               0.20    12800.00
02971              -0.60    12800.00
02972              -0.40    12000.00
02973               0.20    11200.00
02974              -1.20    11200.00
02975              -0.60     9600.00
02976               1.20     9600.00
02977              -1.20     8800.00
02978              -0.40     8000.00
02979               0.60     8000.00
02980              -1.00     7200.00
02981              -0.60     6400.00
02982               0.60     6400.00
02983              -1.20     5600.00
02984              -0.40     4800.00
02985               0.20     4800.00
02986              -0.60     3200.00
02987               0.20     2400.00
02988              -0.20     3200.00
02989              -1.00     1600.00
02990               0.20      800.00
02991              -0.20        0.00
02992              -0.20        0.00
02993               1.00     -800.00
02994               3.60     -800.00
02995              -0.60    -1600.00
02996              -1.00    -1600.00
02997               1.00    -1600.00
02998               0.40    -3200.00
02999              -0.40    -4000.00
03000               3.20    -4800.00
03001              18.00    -5600.00
03002              21.60    -6400.00
03003             -25.00    -7200.00
03004             -22.20    -8000.00
03005              25.00    -8000.00
03006             -11.00    -8800.00
03007             -25.00    -8000.00
03008              25.00    -9600.00
03009              17.40    -9600.00
03010             -25.00    -9600.00
03011              25.00   -11200.00
03012              -3.80   -11200.00
03013             -25.00   -11200.00
03014              25.00   -12800.00
03015             -25.00   -12800.00
03016              23.00   -13600.00
03017             -14.60   -13600.00
03018             -15.60   -14400.00
03019              25.00   -15200.00
03020             -25.00   -16000.00
03021              -7.00   -16000.00
03022              25.00   -16800.00
03023             -18.40   -17600.00
03024             -18.20   -17600.00
03025              25.00   -18400.00
03026              -9.80   -19200.00
03027             -19.00   -19200.00
03028              25.00   -19200.00
03029             -12.20   -20000.00
03030              -4.40   -20800.00
03031              13.00   -20800.00
03032             -13.40   -21600.00
03033               3.00   -22400.00
03034               5.80   -22400.00
03035              -6.80   -23200.00
03036               3.60   -24000.00
03037               6.80   -24000.00
03038             -11.20   -24000.00
03039               7.40   -24800.00
03040               1.60   -25600.00
03041              -8.60   -25600.00
03042               9.00   -26400.00
03043              -1.40   -26400.00
03044              -2.60   -27200.00
03045               3.80   -26400.00
03046              -0.20   -27200.00
03047              -1.80   -27200.00
03048               3.40   -28000.00
03049               0.20   -28800.00
03050              -2.20   -28800.00
03051               3.60   -28800.00
03052              -1.00   -28800.00
03053              -0.20   -29600.00
03054               4.20   -29600.00
03055              -0.60   -29600.00
03056               0.40   -29600.00
03057               3.20   -29600.00
03058              -0.60   -30400.00
03059               1.80   -30400.00
03060               2.00   -30400.00
03061               0.40   -31200.00
03062               3.40   -31200.00
03063               1.80   -32000.00
03064               1.00   -32000.00
03065               2.80   -32000.00
03066               2.60   -32000.00
03067               2.80   -32000.00
03068               4.40   -32000.00
03069               3.80   -32000.00
03070               3.60   -32000.00
03071               6.60   -32000.00
03072               5.20   -32000.00
03073               5.00   -32000.00
03074               8.40   -32000.00
03075               6.80   -32800.00
03076               9.00   -32000.00
03077              10.60   -32000.00
03078               9.80   -32000.00
03079              12.40   -32800.00
03080              12.60   -32000.00
03081              12.40   -32000.00
03082              14.20   -32000.00
03083              14.20   -32000.00
03084              15.60   -31200.00
03085              19.40   -32000.00
03086              22.60   -32000.00
03087              16.60   -30400.00
03088               7.00   -32000.00
03089               9.80   -31200.00
03090              11.60   -30400.00
03091               7.40   -30400.00
03092               5.80   -29600.00
03093               7.80   -30400.00
03094               7.20   -30400.00
03095               3.80   -29600.00
03096               5.20   -29600.00
03097               5.80   -29600.00
03098               2.40   -29600.00
03099               2.60   -28800.00
03100               4.20   -28800.00
03101               2.00   -28000.00
03102               1.00   -28000.00
03103               2.60   -27200.00
03104               1.40   -27200.00
03105               0.40   -26400.00
03106               2.00   -26400.00
03107               1.60   -25600.00
03108              -0.20   -25600.00
03109               1.20   -25600.00
03110               0.20   -24800.00
03111               0.00   -24000.00
03112               1.40   -24800.00
03113               0.40   -24000.00
03114               0.20   -24000.00
03115               1.20   -23200.00
03116               0.20   -22400.00
03117              -0.60   -22400.00
03118               0.20   -22400.00
03119              -0.20   -20800.00
03120              -0.60   -20800.00
03121               0.40   -20000.00
03122               0.40   -20000.00
03123              -0.20   -18400.00
03124              -0.20   -18400.00
03125               0.00   -18400.00
03126               0.40   -17600.00
03127              -0.40   -17600.00
03128              -1.00   -16800.00
03129               0.60   -16800.00
03130              -0.60   -15200.00
03131              -1.20   -16000.00
03132              -0.20   -14400.00
03133              -0.20   -14400.00
03134              -0.60   -13600.00
03135              -0.20   -13600.00
03136              -0.40   -12800.00
03137              -0.60   -12800.00
03138              -0.60   -12000.00
03139              -0.40   -11200.00
03140              -0.60   -11200.00
03141              -0.40    -9600.00
03142              -0.60    -9600.00
03143              -0.60    -8800.00
03144              -0.20    -8800.00
03145              -0.40    -7200.00
03146              -0.40    -6400.00
03147              -0.60    -6400.00
03148              -0.80    -6400.00
03149              -0.40    -4800.00
03150              -0.60    -4800.00
03151              -0.60    -4000.00
03152               0.20    -3200.00
03153              -0.60    -3200.00
03154              -0.60    -1600.00
03155              -0.20    -1600.00
03156              -1.00     -800.00
03157              -1.20     -800.00
03158               0.20        0.00
03159               0.60        0.00
03160               0.40     1600.00
03161               3.60     1600.00
03162              -0.60     2400.00
03163              -1.20     3200.00
03164               0.60     3200.00
03165               0.20     4000.00
03166              -0.60     4800.00
03167              13.00     5600.00
03168              25.00     7200.00
03169             -25.00     7200.00
03170             -25.00     8000.00
03171              25.00     8000.00
03172              -3.80     8000.00
03173             -25.00     8800.00
03174              25.00     9600.00
03175             -25.00     9600.00
03176             -25.00    11200.00
03177              25.00    11200.00
03178             -25.00    12000.00
03179              25.00    12800.00
03180              13.20    12800.00
03181             -25.00    12800.00
03182              25.00    14400.00
03183             -25.00    14400.00
03184              13.00    15200.00
03185              25.00    16000.00
03186             -25.00    16000.00
03187              25.00    16000.00
03188              25.00    17600.00
03189             -25.00    18400.00
03190               0.40    18400.00
03191              25.00    19200.00
03192             -25.00    19200.00
03193              -1.80    20800.00
03194              25.00    20800.00
03195             -25.00    20800.00
03196              19.80    22400.00
03197              -7.00    21600.00
03198             -14.20    22400.00
03199              17.20    22400.00
03200             -11.60    23200.00
03201              -3.00    24000.00
03202              15.40    24000.00
03203              -8.40    24800.00
03204             -11.00    24000.00
03205              19.40    24800.00
03206             -16.20    25600.00
03207              -2.00    25600.00
03208              12.60    26400.00
03209             -12.40    27200.00
03210               2.00    27200.00
03211               2.60    28000.00
03212              -5.20    28000.00
03213              -1.20    28000.00
03214               3.20    28800.00
03215              -4.60    28000.00
03216              -1.00    28800.00
03217               1.20    29600.00
03218              -5.20    29600.00
03219               1.20    29600.00
03220               1.00    30400.00
03221              -4.60    30400.00
03222               1.40    30400.00
03223              -2.00    31200.00
03224              -5.20    31200.00
03225               1.60    31200.00
03226              -3.80    31200.00
03227              -2.60    32000.00
03228               0.40    32800.00
03229              -3.60    32000.00
03230              -2.80    32800.00
03231              -2.80    32800.00
03232              -3.80    32800.00
03233              -3.20    32800.00
03234              -3.00    32000.00
03235              -4.40    32800.00
03236              -5.20    32800.00
03237              -3.40    32800.00
03238              -6.60    32800.00
03239              -6.60    32800.00
03240              -6.20    32000.00
03241              -9.80    32800.00
03242              -6.40    32800.00
03243              -9.40    32800.00
03244             -12.60    32800.00
03245             -10.20    32800.00
03246             -12.60    33600.00
03247             -13.20    32800.00
03248             -13.40    32800.00
03249             -14.80    32800.00
03250             -15.40    32800.00
03251             -16.80    32800.00
03252             -19.60    32800.00
03253             -23.80    32000.00
03254             -16.60    32800.00
03255              -7.00    31200.00
03256             -10.80    32000.00
03257             -11.80    32800.00
03258              -8.40    31200.00
03259              -6.60    31200.00
03260              -8.40    30400.00
03261              -7.80    31200.00
03262              -4.00    30400.00
03263              -5.40    30400.00
03264              -6.80    29600.00
03265              -3.00    30400.00
03266              -3.40    28800.00
03267              -5.00    28800.00
03268              -2.80    28800.00
03269              -1.80    28800.00
03270              -3.40    28000.00
03271              -2.20    28000.00
03272              -1.20    27200.00
03273              -2.80    27200.00
03274              -1.80    26400.00
03275              -1.00    26400.00
03276              -2.60    25600.00
03277              -1.40    25600.00
03278              -1.00    25600.00
03279              -1.00    24800.00
03280              -1.00    24800.00
03281              -1.40    24000.00
03282              -0.60    24000.00
03283              -0.60    23200.00
03284              -0.60    22400.00
03285              -0.60    22400.00
03286              -1.00    21600.00
03287              -0.60    21600.00
03288              -0.60    20800.00
03289              -1.20    20800.00
03290              -1.00    19200.00
03291              -0.60    19200.00
03292              -0.60    18400.00
03293              -1.00    18400.00
03294              -0.60    17600.00
03295              -0.40    17600.00
03296              -1.00    17600.00
03297               0.40    16000.00
03298              -0.40    16000.00
03299              -0.40    15200.00
03300              -0.60    14400.00
03301              -0.40    14400.00
03302              -0.40    13600.00
03303              -0.60    12800.00
03304              -1.00    12800.00
03305               0.20    12000.00
03306              -0.40    12000.00
03307              -0.40    11200.00
03308              -0.60    11200.00
03309               0.20     9600.00
03310              -0.60     9600.00
03311              -0.60     8800.00
03312               0.20     8000.00
03313              -0.40     7200.00
03314              -1.00     6400.00
03315               0.20     7200.00
03316              -0.60     5600.00
03317              -0.20     5600.00
03318              -0.40     4800.00
03319              -0.60     4000.00
03320               0.20     2400.00
03321              -0.60     2400.00
03322              -1.20     1600.00
03323               0.20     1600.00
03324              -0.40      800.00
03325               0.20        0.00
03326               0.40        0.00
03327               1.20    -1600.00
03328               3.00    -1600.00
03329              -1.20    -1600.00
03330              -0.40    -1600.00
03331               1.60    -3200.00
03332               0.60    -3200.00
03333              -1.00    -4000.00
03334               8.80    -4800.00
03335              25.00    -6400.00
03336              -7.80    -7200.00
03337             -25.00    -8000.00
03338               8.40    -8000.00
03339              21.40    -8800.00
03340             -25.00    -8000.00
03341              -0.60    -8800.00
03342              25.00    -9600.00
03343             -25.00    -9600.00
03344              -2.60   -10400.00
03345              25.00   -11200.00
03346             -25.00   -11200.00
03347              15.60   -12800.00
03348              11.00   -12800.00
03349             -10.40   -13600.00
03350              23.80   -14400.00
03351             -25.00   -14400.00
03352              25.00   -14400.00
03353              15.00   -16000.00
03354             -25.00   -16000.00
03355              25.00   -16800.00
03356              13.40   -17600.00
03357             -25.00   -17600.00
03358               6.60   -17600.00
03359              22.80   -18400.00
03360             -25.00   -20000.00
03361              11.40   -20000.00
03362              17.40   -20000.00
03363             -20.80   -20800.00
03364              13.00   -20800.00
03365              -2.20   -21600.00
03366              -9.40   -22400.00
03367               8.20   -22400.00
03368              -1.00   -23200.00
03369              -4.40   -23200.00
03370              10.60   -23200.00
03371              -4.40   -24000.00
03372              -6.20   -24000.00
03373              11.00   -24800.00
03374              -8.60   -25600.00
03375               1.40   -25600.00
03376               6.80   -25600.00
03377              -4.40   -26400.00
03378               1.80   -27200.00
03379               2.40   -27200.00
03380              -1.80   -27200.00
03381               0.80   -28000.00
03382               2.80   -28000.00
03383              -2.20   -28800.00
03384               1.40   -28800.00
03385               1.20   -28800.00
03386              -2.20   -28800.00
03387               3.00   -29600.00
03388               2.20   -29600.00
03389              -1.40   -29600.00
03390               3.60   -29600.00
03391               1.00   -30400.00
03392              -1.00   -30400.00
03393               2.80   -30400.00
03394               0.60   -31200.00
03395               2.20   -31200.00
03396               3.00   -32000.00
03397               1.20   -32000.00
03398               2.00   -32000.00
03399               2.20   -32000.00
03400               2.60   -32000.00
03401               3.60   -32000.00
03402               3.60   -32000.00
03403               3.80   -32000.00
03404               5.20   -32000.00
03405               6.00   -32000.00
03406               4.40   -32000.00
03407               7.40   -32000.00
03408               7.80   -32000.00
03409               7.20   -32000.00
03410              10.20   -32000.00
03411               9.40   -32000.00
03412              10.80   -32000.00
03413              13.00   -32000.00
03414              12.20   -32000.00
03415              13.60   -32000.00
03416              14.40   -32000.00
03417              15.00   -32000.00
03418              17.20   -32000.00
03419              21.00   -32000.00
03420              21.40   -31200.00
03421              10.80   -30400.00
03422               7.40   -30400.00
03423              12.40   -31200.00
03424               9.80   -30400.00
03425               5.20   -30400.00
03426               7.60   -29600.00
03427               8.40   -30400.00
03428               3.80   -29600.00
03429               4.40   -29600.00
03430               6.80   -28800.00
03431               3.60   -28800.00
03432               1.40   -29600.00
03433               3.80   -28800.00
03434               4.40   -28800.00
03435              -0.80   -28000.00
03436               2.60   -27200.00
03437               5.20   -27200.00
03438              -1.20   -27200.00
03439               1.40   -26400.00
03440               3.60   -26400.00
03441              -2.40   -25600.00
03442               0.40   -25600.00
03443               3.00   -25600.00
03444              -1.00   -24800.00
03445               0.40   -24000.00
03446               2.00   -24000.00
03447              -1.00   -24000.00
03448               0.20   -24000.00
03449               0.40   -23200.00
03450              -0.40   -23200.00
03451               1.00   -22400.00
03452               0.20   -22400.00
03453              -0.60   -20800.00
03454               0.00   -20800.00
03455              -0.20   -20000.00
03456               0.20   -20000.00
03457               0.40   -18400.00
03458              -0.60   -18400.00
03459              -0.60   -18400.00
03460              -0.20   -17600.00
03461              -1.00   -17600.00
03462              -0.20   -16800.00
03463               0.40   -16000.00
03464              -1.00   -15200.00
03465              -0.20   -16000.00
03466              -0.20   -14400.00
03467              -1.20   -14400.00
03468              -0.60   -13600.00
03469              -0.20   -12800.00
03470               0.20   -12800.00
03471              -0.40   -12800.00
03472              -0.40   -11200.00
03473               0.20   -11200.00
03474              -0.60   -10400.00
03475              -1.00    -9600.00
03476              -0.60    -8800.00
03477              -0.60    -8000.00
03478              -0.40    -8000.00
03479               0.20    -7200.00
03480               0.00    -6400.00
03481              -0.40    -6400.00
03482              -0.60    -5600.00
03483              -0.20    -4800.00
03484              -0.20    -4000.00
03485              -0.60    -4000.00
03486              -0.60    -3200.00
03487              -0.20    -2400.00
03488              -0.40    -1600.00
03489              -0.60    -1600.00
03490              -0.40     -800.00
03491               0.20        0.00
03492              -0.40        0.00
03493              -0.20     1600.00
03494               1.80     1600.00
03495               2.20     1600.00
03496              -2.20     2400.00
03497               0.40     2400.00
03498               1.40     3200.00
03499              -1.20     4800.00
03500               3.80     4800.00
03501              25.00     7200.00
03502              11.60     7200.00
03503             -25.00     8000.00
03504              -3.40     8000.00
03505              25.00     8800.00
03506             -25.00     8800.00
03507              18.00     8800.00
03508              25.00     9600.00
03509             -25.00     9600.00
03510              25.00    11200.00
03511              19.40    11200.00
03512             -25.00    12000.00
03513              25.00    12800.00
03514             -25.00    12800.00
03515              25.00    14400.00
03516              25.00    14400.00
03517             -25.00    15200.00
03518              25.00    15200.00
03519             -19.80    16000.00
03520             -25.00    16000.00
03521              25.00    16800.00
03522             -17.20    17600.00
03523             -25.00    17600.00
03524              25.00    19200.00
03525               6.80    19200.00
03526             -25.00    20000.00
03527              25.00    20000.00
03528              -4.40    20800.00
03529             -12.40    21600.00
03530              23.60    21600.00
03531             -25.00    22400.00
03532               8.40    22400.00
03533               4.20    22400.00
03534             -13.60    23200.00
03535               8.60    24000.00
03536               9.20    24000.00
03537             -18.20    24800.00
03538               8.20    24800.00
03539               5.80    25600.00
03540             -19.80    25600.00
03541              14.60    25600.00
03542              -2.60    27200.00
03543              -7.60    27200.00
03544               6.40    27200.00
03545              -3.00    27200.00
03546              -4.40    28000.00
03547               2.60    28000.00
03548              -0.40    28800.00
03549              -3.80    28800.00
03550               2.00    28800.00
03551              -3.00    29600.00
03552              -3.60    30400.00
03553               2.80    29600.00
03554              -3.60    30400.00
03555              -1.80    30400.00
03556               2.60    31200.00
03557              -5.80    31200.00
03558              -1.20    31200.00
03559               0.20    31200.00
03560              -6.20    32000.00
03561               0.40    32000.00
03562              -0.60    32800.00
03563              -4.40    32800.00
03564              -2.20    32800.00
03565              -3.00    32800.00
03566              -3.40    32000.00
03567              -3.20    32800.00
03568              -3.60    32800.00
03569              -5.60    32000.00
03570              -4.40    32800.00
03571              -4.40    33600.00
03572              -7.80    33600.00
03573              -5.00    32800.00
03574              -7.80    33600.00
03575              -8.00    33600.00
03576              -6.80    32800.00
03577             -12.20    32800.00
03578             -11.00    32800.00
03579             -11.00    32800.00
03580             -13.80    32000.00
03581             -12.80    32800.00
03582             -14.20    32800.00
03583             -15.00    32800.00
03584             -16.00    32000.00
03585             -18.00    32800.00
03586             -22.00    32000.00
03587             -22.20    32000.00
03588             -10.80    31200.00
03589              -7.60    32000.00
03590             -12.40    32000.00
03591             -10.60    31200.00
03592              -7.00    31200.00
03593              -7.40    31200.00
03594              -8.60    31200.00
03595              -5.80    30400.00
03596              -4.40    30400.00
03597              -7.00    30400.00
03598              -5.00    30400.00
03599              -2.60    28800.00
03600              -4.60    28800.00
03601              -4.40    28800.00
03602              -2.00    28800.00
03603              -2.20    28000.00
03604              -3.40    28000.00
03605              -1.40    27200.00
03606              -1.80    28000.00
03607              -2.20    27200.00
03608              -0.60    27200.00
03609              -1.20    26400.00
03610              -2.20    25600.00
03611              -1.00    25600.00
03612              -1.20    24800.00
03613              -1.20    24800.00
03614              -1.20    24000.00
03615              -1.00    24000.00
03616              -0.60    24000.00
03617              -1.00    23200.00
03618              -1.00    22400.00
03619              -0.60    22400.00
03620              -0.40    21600.00
03621              -0.40    21600.00
03622              -0.80    20800.00
03623              -0.60    20000.00
03624              -1.40    19200.00
03625              -0.20    19200.00
03626              -0.20    19200.00
03627              -1.00    18400.00
03628              -0.40    17600.00
03629              -0.40    17600.00
03630              -0.60    16800.00
03631              -0.40    16000.00
03632              -0.60    16000.00
03633              -0.40    15200.00
03634              -0.60    14400.00
03635              -0.20    14400.00
03636              -0.60    13600.00
03637              -0.80    12800.00
03638              -0.40    12000.00
03639              -0.20    12000.00
03640              -0.60    11200.00
03641              -0.40    11200.00
03642              -0.40    11200.00
03643               0.20     9600.00
03644              -1.00     8800.00
03645              -0.20     8000.00
03646               0.00     8000.00
03647              -1.00     8000.00
03648              -0.40     6400.00
03649               0.20     6400.00
03650              -1.00     5600.00
03651              -0.20     5600.00
03652              -0.60     4000.00
03653              -0.60     3200.00
03654               0.00     3200.00
03655              -0.80     3200.00
03656              -0.60     1600.00
03657              -0.20      800.00
03658              -0.60        0.00
03659              -0.20        0.00
03660               0.60     -800.00
03661               2.80    -1600.00
03662               0.20    -1600.00
03663              -1.40    -2400.00
03664               1.00    -2400.00
03665               1.20    -3200.00
03666              -0.60    -3200.00
03667               3.00    -4000.00
03668              16.40    -4800.00
03669              23.40    -6400.00
03670             -25.00    -7200.00
03671             -25.00    -8000.00
03672              25.00    -8000.00
03673              -5.40    -8000.00
03674             -25.00    -8000.00
03675              25.00    -8800.00
03676              25.00   -10400.00
03677             -25.00    -9600.00
03678              25.00   -11200.00
03679               7.80   -11200.00
03680             -25.00   -12000.00
03681              25.00   -12800.00
03682             -24.20   -12800.00
03683              19.60   -13600.00
03684              -7.60   -14400.00
03685             -21.80   -14400.00
03686              25.00   -15200.00
03687             -25.00   -16000.00
03688             -12.20   -16800.00
03689              25.00   -16800.00
03690             -14.80   -17600.00
03691             -21.20   -17600.00
03692              25.00   -18400.00
03693              -5.20   -19200.00
03694             -23.20   -18400.00
03695              25.00   -20000.00
03696              -8.40   -20000.00
03697              -8.20   -20800.00
03698              14.80   -21600.00
03699             -12.20   -22400.00
03700               1.40   -22400.00
03701               7.00   -23200.00
03702              -6.20   -23200.00
03703               2.00   -23200.00
03704               7.80   -24000.00
03705             -11.40   -24000.00
03706               6.20   -24800.00
03707               3.80   -24800.00
03708              -9.80   -25600.00
03709               8.60   -26400.00
03710              -0.80   -26400.00
03711              -3.60   -26400.00
03712               3.80   -27200.00
03713               0.60   -27200.00
03714              -2.20   -27200.00
03715               3.00   -28000.00
03716               0.40   -28000.00
03717              -3.00   -28800.00
03718               3.40   -28800.00
03719              -0.40   -29600.00
03720              -0.40   -29600.00
03721               3.80   -29600.00
03722              -0.60   -29600.00
03723               0.40   -29600.00
03724               3.00   -30400.00
03725              -1.00   -30400.00
03726               1.40   -30400.00
03727               2.20   -30400.00
03728               0.40   -31200.00
03729               3.60   -31200.00
03730               1.80   -32000.00
03731               1.40   -32000.00
03732               2.60   -32000.00
03733               2.60   -32000.00
03734               3.00   -32000.00
03735               3.60   -32000.00
03736               4.20   -32000.00
03737               3.80   -32000.00
03738               5.80   -32000.00
03739               5.40   -32000.00
03740               5.60   -32000.00
03741               8.20   -32000.00
03742               7.40   -32000.00
03743               9.00   -32000.00
03744              10.60   -32000.00
03745               9.80   -32000.00
03746              12.20   -32000.00
03747              12.80   -32000.00
03748              13.00   -32000.00
03749              13.80   -32800.00
03750              14.60   -32000.00
03751              16.20   -32000.00
03752              18.80   -32000.00
03753              22.80   -32000.00
03754              18.00   -32000.00
03755               6.60   -31200.00
03756               9.40   -30400.00
03757              11.80   -30400.00
03758               7.60   -30400.00
03759               6.00   -29600.00
03760               7.80   -30400.00
03761               8.00   -29600.00
03762               4.40   -29600.00
03763               4.20   -29600.00
03764               5.80   -29600.00
03765               2.60   -28800.00
03766               2.00   -28800.00
03767               4.40   -28000.00
03768               2.60   -28800.00
03769               0.20   -27200.00
03770               2.80   -27200.00
03771               2.00   -27200.00
03772              -0.20   -27200.00
03773               1.80   -26400.00
03774               2.20   -26400.00
03775               0.20   -26400.00
03776               1.00   -25600.00
03777               0.80   -24800.00
03778               0.40   -24800.00
03779               0.60   -24000.00
03780               0.60   -24000.00
03781               0.20   -24000.00
03782              -0.20   -23200.00
03783              -0.60   -22400.00
03784               0.20   -22400.00
03785              -0.20   -22400.00
03786              -0.20   -21600.00
03787               0.40   -20000.00
03788              -0.20   -20000.00
03789              -0.60   -20000.00
03790              -0.40   -19200.00
03791              -0.20   -19200.00
03792              -0.20   -18400.00
03793               0.20   -17600.00
03794              -0.40   -17600.00
03795              -0.20   -17600.00
03796              -0.20   -16800.00
03797              -0.60   -16000.00
03798              -0.20   -16000.00
03799              -0.60   -15200.00
03800              -0.60   -14400.00
03801              -0.20   -13600.00
03802              -0.60   -13600.00
03803              -0.40   -12800.00
03804               0.20   -12800.00
03805              -0.60   -11200.00
03806              -0.20   -11200.00
03807               0.00   -10400.00
03808              -0.40    -9600.00
03809              -0.40    -9600.00
03810              -0.60    -8800.00
03811              -0.60    -8000.00
03812              -0.40    -7200.00
03813              -0.60    -7200.00
03814              -0.40    -6400.00
03815              -0.20    -6400.00
03816              -0.60    -4800.00
03817              -0.40    -4800.00
03818              -0.40    -3200.00
03819              -0.60    -3200.00
03820              -0.20    -2400.00
03821              -0.20    -2400.00
03822              -0.20    -1600.00
03823              -0.60     -800.00
03824              -0.40     -800.00
03825              -0.20        0.00
03826              -0.20      800.00
03827               0.40     1600.00
03828               3.40     1600.00
03829              -0.20     2400.00
03830              -1.80     2400.00
03831               1.20     3200.00
03832               0.60     3200.00
03833              -1.20     4800.00
03834              11.60     5600.00
03835              25.00     7200.00
03836             -25.00     8000.00
03837             -25.00     8000.00
03838              23.80     8000.00
03839               2.00     8800.00
03840             -25.00     8800.00
03841              25.00     9600.00
03842             -15.00     9600.00
03843             -25.00    11200.00
03844              25.00    11200.00
03845             -25.00    11200.00
03846              14.20    12800.00
03847              24.20    12800.00
03848             -25.00    12800.00
03849              25.00    14400.00
03850             -25.00    14400.00
03851              -2.20    15200.00
03852              25.00    15200.00
03853             -25.00    16000.00
03854              25.00    16000.00
03855              25.00    17600.00
03856             -25.00    17600.00
03857              -3.80    18400.00
03858              25.00    19200.00
03859             -25.00    19200.00
03860              -7.80    20800.00
03861              25.00    20800.00
03862             -25.00    20800.00
03863              15.80    21600.00
03864              -2.20    22400.00
03865             -17.00    22400.00
03866              18.00    22400.00
03867             -10.00    22400.00
03868              -5.20    24000.00
03869              15.00    24000.00
03870              -5.20    24800.00
03871             -13.40    24800.00
03872              19.40    24800.00
03873             -13.20    25600.00
03874              -5.20    25600.00
03875              14.00    27200.00
03876             -11.60    27200.00
03877               0.60    27200.00
03878               3.40    27200.00
03879              -4.60    27200.00
03880              -1.80    28000.00
03881               3.60    28000.00
03882              -3.80    28000.00
03883              -1.40    28800.00
03884               1.40    29600.00
03885              -5.00    29600.00
03886               0.60    29600.00
03887               1.80    30400.00
03888              -5.20    31200.00
03889               1.20    31200.00
03890              -1.00    31200.00
03891              -5.40    31200.00
03892               1.80    31200.00
03893              -3.60    32000.00
03894              -3.40    31200.00
03895               1.00    32000.00
03896              -3.60    32800.00
03897              -3.00    32000.00
03898              -2.00    32000.00
03899              -3.80    33600.00
03900              -3.40    32000.00
03901              -2.80    32800.00
03902              -4.40    33600.00
03903              -5.20    32800.00
03904              -3.00    32800.00
03905              -6.80    32800.00
03906              -6.80    33600.00
03907              -5.20    32800.00
03908              -9.80    32800.00
03909              -6.60    32800.00
03910              -9.20    33600.00
03911             -12.60    32800.00
03912             -10.00    32800.00
03913             -13.00    33600.00
03914             -13.40    32800.00
03915             -13.40    32800.00
03916             -15.00    32000.00
03917             -15.00    32800.00
03918             -16.60    32800.00
03919             -19.60    32000.00
03920             -23.80    32000.00
03921             -17.40    32000.00
03922              -7.60    32000.00
03923             -10.60    31200.00
03924             -12.20    31200.00
03925              -8.60    31200.00
03926              -6.80    31200.00
03927              -7.80    30400.00
03928              -7.60    30400.00
03929              -4.60    30400.00
03930              -5.40    30400.00
03931              -6.80    29600.00
03932              -3.20    28800.00
03933              -3.00    29600.00
03934              -5.20    28800.00
03935              -3.40    28800.00
03936              -1.60    28800.00
03937              -3.00    28000.00
03938              -2.80    28000.00
03939              -1.00    27200.00
03940              -2.20    27200.00
03941              -2.20    27200.00
03942              -0.60    27200.00
03943              -2.20    25600.00
03944              -1.40    25600.00
03945              -0.40    25600.00
03946              -1.00    24800.00
03947              -1.00    24800.00
03948              -1.20    24800.00
03949              -1.00    24000.00
03950              -0.80    24000.00
03951              -1.00    23200.00
03952              -1.00    22400.00
03953              -1.00    22400.00
03954              -0.40    21600.00
03955              -0.60    21600.00
03956              -0.60    20800.00
03957              -0.60    20000.00
03958              -1.00    19200.00
03959              -0.20    19200.00
03960              -0.60    18400.00
03961              -0.60    17600.00
03962              -0.40    18400.00
03963              -0.60    16800.00
03964               0.20    16000.00
03965              -0.20    16000.00
03966              -0.60    14400.00
03967              -0.60    14400.00
03968              -0.40    14400.00
03969              -0.60    14400.00
03970              -0.60    13600.00
03971              -1.00    12800.00
03972              -0.40    12000.00
03973              -0.20    11200.00
03974              -0.40    11200.00
03975              -0.60    10400.00
03976              -0.20     9600.00
03977              -0.40     8800.00
03978              -0.40     8800.00
03979              -0.20     8000.00
03980              -1.00     7200.00
03981              -1.00     8000.00
03982              -0.40     6400.00
03983              -0.60     5600.00
03984              -0.60     4800.00
03985              -0.60     4000.00
03986              -0.60     4000.00
03987              -0.20     3200.00
03988              -0.60     2400.00
03989              -1.00     2400.00
03990               0.00     1600.00
03991              -0.40      800.00
03992              -0.20        0.00
03993               0.20        0.00
03994               1.00     -800.00
03995               3.80    -1600.00
03996              -1.80    -1600.00
03997              -0.40    -2400.00
03998               1.40    -3200.00
03999               0.40    -3200.00
04000              -0.60    -4000.00
04001               7.80    -4000.00
04002              25.00    -6400.00
04003              -1.40    -6400.00
04004             -25.00    -7200.00
04005               3.60    -8000.00
04006              24.60    -8000.00
04007             -25.00    -8000.00
04008              -8.40    -8000.00
04009              25.00   -10400.00
04010             -25.00    -9600.00
04011             -15.60   -10400.00
04012              25.00   -11200.00
04013             -25.00   -11200.00
04014               7.80   -12800.00
04015              17.20   -12800.00
04016             -15.40   -12800.00
04017              25.00   -14400.00
04018             -25.00   -14400.00
04019              21.80   -16000.00
04020              22.20   -15200.00
04021             -25.00   -16000.00
04022              22.80   -16800.00
04023              19.40   -16800.00
04024             -25.00   -17600.00
04025               2.20   -17600.00
04026              25.00   -18400.00
04027             -25.00   -19200.00
04028               6.20   -19200.00
04029              22.20   -20000.00
04030             -21.20   -20800.00
04031              10.00   -20800.00
04032               1.00   -21600.00
04033             -10.20   -22400.00
04034               6.80   -23200.00
04035               0.60   -23200.00
04036              -4.40   -24000.00
04037               9.20   -24000.00
04038              -3.60   -24000.00
04039              -6.60   -24000.00
04040              11.40   -24800.00
04041              -9.20   -25600.00
04042               1.20   -25600.00
04043               8.60   -26400.00
04044              -7.40   -26400.00
04045               1.60   -27200.00
04046               4.20   -27200.00
04047              -3.80   -27200.00
04048               0.40   -27200.00
04049               5.40   -28000.00
04050              -3.00   -28000.00
04051              -0.40   -28800.00
04052               3.40   -28800.00
04053              -2.60   -28800.00
04054               1.40   -28800.00
04055               3.40   -29600.00
04056              -0.20   -29600.00
04057               2.00   -29600.00
04058               1.00   -30400.00
04059               0.20   -30400.00
04060               1.80   -29600.00
04061               0.40   -31200.00
04062               3.40   -31200.00
04063               2.80   -30400.00
04064              -0.40   -31200.00
04065               3.00   -32000.00
04066               2.80   -32000.00
04067               1.80   -32000.00
04068               3.60   -32000.00
04069               5.40   -32000.00
04070               3.60   -32000.00
04071               4.20   -32000.00
04072               6.60   -32000.00
04073               4.60   -32800.00
04074               6.20   -32000.00
04075               8.60   -32000.00
04076               8.00   -32000.00
04077              10.00   -32800.00
04078              10.00   -32000.00
04079              11.00   -32000.00
04080              12.80   -32000.00
04081              12.20   -32000.00
04082              14.00   -32000.00
04083              14.60   -32000.00
04084              14.00   -32000.00
04085              17.20   -32000.00
04086              21.80   -32000.00
04087              21.80   -31200.00
04088              11.40   -30400.00
04089               8.40   -30400.00
04090              11.80   -30400.00
04091               8.40   -30400.00
04092               6.20   -30400.00
04093               7.80   -29600.00
04094               8.20   -29600.00
04095               5.00   -30400.00
04096               4.20   -29600.00
04097               6.60   -29600.00
04098               4.20   -28800.00
04099               1.60   -28800.00
04100               4.40   -28800.00
04101               3.20   -28000.00
04102               0.40   -28800.00
04103               3.40   -27200.00
04104               2.40   -27200.00
04105              -1.20   -26400.00
04106               1.80   -26400.00
04107               2.80   -26400.00
04108              -1.20   -26400.00
04109               1.00   -26400.00
04110               2.60   -25600.00
04111              -1.80   -25600.00
04112              -0.60   -24000.00
04113               1.40   -24000.00
04114               0.20   -24000.00
04115               0.40   -23200.00
04116               0.60   -23200.00
04117               0.20   -22400.00
04118              -0.60   -22400.00
04119              -0.60   -22400.00
04120              -0.60   -20800.00
04121               0.20   -20800.00
04122               0.40   -20800.00
04123               0.40   -18400.00
04124               0.00   -19200.00
04125              -1.00   -18400.00
04126              -0.40   -18400.00
04127               0.60   -17600.00
04128              -0.80   -17600.00
04129              -0.80   -16800.00
04130               0.40   -16000.00
04131              -0.20   -16000.00
04132              -0.40   -15200.00
04133              -0.20   -14400.00
04134               0.20   -14400.00
04135              -0.40   -13600.00
04136              -0.40   -12800.00
04137              -0.40   -12800.00
04138              -1.00   -12000.00
04139              -0.60   -11200.00
04140               0.00   -10400.00
04141              -0.60   -10400.00
04142              -0.20   -10400.00
04143              -0.40    -9600.00
04144              -0.60    -8800.00
04145              -0.20    -8000.00
04146              -0.60    -7200.00
04147              -0.40    -7200.00
04148              -0.20    -5600.00
04149              -0.60    -4800.00
04150               0.20    -4800.00
04151              -0.20    -4000.00
04152              -0.60    -4000.00
04153               0.20    -3200.00
04154              -0.40    -2400.00
04155              -0.80    -1600.00
04156              -0.60    -1600.00
04157              -0.60     -800.00
04158              -0.20        0.00
04159              -0.20        0.00
04160               0.40     1600.00
04161               2.20     1600.00
04162               2.80     2400.00
04163              -2.80     3200.00
04164               0.00     2400.00
04165               1.80     3200.00
04166              -1.00     4000.00
04167               3.00     4800.00
04168              24.60     5600.00
04169              17.80     7200.00
04170             -25.00     8000.00
04171              -9.40     8000.00
04172              25.00     8000.00
04173             -25.00     8000.00
04174               8.20     9600.00
04175              25.00     9600.00
04176             -25.00     9600.00
04177              25.00    11200.00
04178              25.00    11200.00
04179             -25.00    12000.00
04180              25.00    12800.00
04181             -25.00    12800.00
04182              23.00    14400.00
04183              25.00    14400.00
04184             -25.00    15200.00
04185              25.00    16000.00
04186              -4.60    16000.00
04187             -25.00    16000.00
04188              25.00    16000.00
04189              -9.80    17600.00
04190             -25.00    17600.00
04191              22.80    18400.00
04192              13.00    18400.00
04193             -25.00    19200.00
04194              25.00    20800.00
04195               3.40    20800.00
04196             -16.80    21600.00
04197              24.40    21600.00
04198             -24.40    22400.00
04199               6.20    22400.00
04200               6.60    23200.00
04201             -15.00    23200.00
04202               8.40    24000.00
04203              12.00    24800.00
04204             -19.40    24800.00
04205               5.80    25600.00
04206              10.60    24800.00
04207             -22.80    25600.00
04208              13.20    26400.00
04209               2.20    27200.00
04210             -10.00    27200.00
04211               6.00    27200.00
04212              -0.60    28000.00
04213              -5.20    28000.00
04214               1.40    28000.00
04215               0.60    28800.00
04216              -3.80    28800.00
04217               1.60    28800.00
04218              -2.80    28800.00
04219              -2.80    29600.00
04220               3.60    29600.00
04221              -3.80    30400.00
04222              -2.20    30400.00
04223               2.60    30400.00
04224              -6.00    31200.00
04225              -1.20    31200.00
04226               1.00    32000.00
04227              -5.80    31200.00
04228               1.00    31200.00
04229              -0.60    32800.00
04230              -4.60    32000.00
04231              -2.60    32800.00
04232              -3.80    32000.00
04233              -4.40    32800.00
04234              -3.00    32800.00
04235              -3.00    32800.00
04236              -4.60    33600.00
04237              -4.20    32800.00
04238              -5.00    32800.00
04239              -7.80    32800.00
04240              -5.80    32000.00
04241              -8.60    32800.00
04242              -8.60    32800.00
04243              -6.60    32800.00
04244             -11.60    32800.00
04245             -10.40    32800.00
04246             -11.00    32800.00
04247             -13.80    32800.00
04248             -13.20    32800.00
04249             -14.80    32800.00
04250             -15.00    32800.00
04251             -16.40    32000.00
04252             -18.20    32800.00
04253             -21.20    32000.00
04254             -22.00    32000.00
04255             -11.20    32800.00
04256              -7.20    32000.00
04257             -12.20    31200.00
04258             -11.00    31200.00
04259              -7.80    31200.00
04260              -7.00    31200.00
04261              -8.40    30400.00
04262              -6.00    31200.00
04263              -3.80    30400.00
04264              -6.20    30400.00
04265              -5.00    29600.00
04266              -2.80    29600.00
04267              -5.00    28800.00
04268              -5.00    28800.00
04269              -2.00    28800.00
04270              -1.80    28000.00
04271              -2.80    28000.00
04272              -1.20    27200.00
04273              -1.20    27200.00
04274              -2.60    27200.00
04275              -0.60    26400.00
04276              -2.00    25600.00
04277              -2.80    25600.00
04278              -0.60    25600.00
04279              -1.00    25600.00
04280              -0.60    24800.00
04281              -0.60    24000.00
04282              -0.80    24000.00
04283              -1.00    24000.00
04284              -1.00    22400.00
04285              -1.00    22400.00
04286              -0.80    22400.00
04287              -0.60    21600.00
04288              -0.40    20800.00
04289              -0.60    20800.00
04290              -0.60    20000.00
04291              -1.00    20000.00
04292              -0.20    19200.00
04293              -0.40    18400.00
04294              -1.00    18400.00
04295              -0.60    17600.00
04296              -0.60    17600.00
04297              -0.60    16800.00
04298               0.00    16000.00
04299              -0.60    16000.00
04300              -0.40    15200.00
04301              -0.80    14400.00
04302              -0.80    14400.00
04303              -0.40    13600.00
04304              -1.00    12800.00
04305              -1.00    12800.00
04306              -0.20    12000.00
04307              -0.60    11200.00
04308              -0.20    11200.00
04309              -0.60    10400.00
04310              -0.60     9600.00
04311              -1.00     8800.00
04312              -0.20     8000.00
04313              -0.40     8000.00
04314              -0.60     8000.00
04315              -0.60     7200.00
04316               0.20     5600.00
04317              -0.60     5600.00
04318              -0.60     4800.00
04319              -0.40     4000.00
04320               0.00     3200.00
04321              -1.00     3200.00
04322              -0.60     2400.00
04323              -0.40     1600.00
04324              -0.20      800.00
04325               0.20        0.00
04326               0.40        0.00
04327               0.20     -800.00
04328               3.40     -800.00
04329               0.60    -1600.00
04330              -2.20    -1600.00
04331               1.20    -2400.00
04332               1.40    -3200.00
04333              -0.80    -4000.00
04334               2.60    -4000.00
04335              15.60    -5600.00
04336              25.00    -6400.00
04337             -25.00    -7200.00
04338             -25.00    -8000.00
04339              25.00    -8000.00
04340              -0.40    -8000.00
04341             -25.00    -8000.00
04342              25.00    -9600.00
04343              25.00   -10400.00
04344             -25.00   -10400.00
04345              25.00   -11200.00
04346              20.20   -11200.00
04347             -25.00   -12000.00
04348              25.00   -12800.00
04349             -21.20   -12800.00
04350              15.80   -14400.00
04351              -1.00   -14400.00
04352             -25.00   -15200.00
04353              25.00   -15200.00
04354             -22.60   -16000.00
04355             -18.00   -16800.00
04356              25.00   -16800.00
04357             -10.80   -17600.00
04358             -23.60   -17600.00
04359              25.00   -18400.00
04360              -0.20   -19200.00
04361             -25.00   -19200.00
04362              25.00   -20000.00
04363              -5.00   -20000.00
04364             -10.40   -20800.00
04365              15.60   -20800.00
04366             -11.80   -22400.00
04367              -0.40   -22400.00
04368               6.60   -23200.00
04369              -6.00   -23200.00
04370               1.40   -24000.00
04371               9.00   -24000.00
04372             -10.80   -24000.00
04373               4.20   -24800.00
04374               5.00   -25600.00
04375             -10.40   -25600.00
04376               7.80   -25600.00
04377               0.40   -26400.00
04378              -3.60   -26400.00
04379               3.80   -27200.00
04380               0.40   -27200.00
04381              -2.20   -28000.00
04382               3.00   -28000.00
04383               1.00   -28800.00
04384              -2.20   -28800.00
04385               2.80   -28800.00
04386              -0.20   -28800.00
04387              -0.60   -28800.00
04388               3.40   -29600.00
04389              -0.40   -29600.00
04390               1.00   -29600.00
04391               3.00   -29600.00
04392              -0.60   -30400.00
04393               1.80   -30400.00
04394               2.20   -31200.00
04395               0.60   -31200.00
04396               3.60   -30400.00
04397               1.80   -31200.00
04398               1.80   -32000.00
04399               3.00   -32000.00
04400               2.20   -32000.00
04401               3.00   -32000.00
04402               4.00   -32000.00
04403               4.20   -32000.00
04404               4.20   -32000.00
04405               5.60   -31200.00
04406               5.40   -32000.00
04407               5.40   -32000.00
04408               8.20   -32000.00
04409               7.40   -32000.00
04410               9.00   -32000.00
04411              11.00   -32000.00
04412               9.80   -32000.00
04413              11.80   -31200.00
04414              13.00   -32000.00
04415              12.80   -32000.00
04416              14.00   -32000.00
04417              14.60   -32000.00
04418              15.60   -32000.00
04419              18.60   -32000.00
04420              22.60   -32000.00
04421              18.40   -32000.00
04422               7.60   -31200.00
04423               9.00   -30400.00
04424              12.20   -31200.00
04425               8.20   -30400.00
04426               5.40   -29600.00
04427               7.60   -29600.00
04428               8.20   -29600.00
04429               4.00   -29600.00
04430               3.60   -29600.00
04431               6.00   -28800.00
04432               2.80   -29600.00
04433               1.80   -28800.00
04434               4.20   -28800.00
04435               2.60   -28800.00
04436               0.20   -27200.00
04437               2.60   -28000.00
04438               2.00   -27200.00
04439               0.20   -27200.00
04440               1.80   -26400.00
04441               1.80   -26400.00
04442              -0.20   -25600.00
04443               1.00   -25600.00
04444               0.40   -25600.00
04445               0.40   -24800.00
04446               0.60   -24000.00
04447               0.20   -24000.00
04448              -0.20   -23200.00
04449               0.20   -23200.00
04450              -0.40   -23200.00
04451              -0.20   -22400.00
04452              -0.20   -22400.00
04453               0.20   -21600.00
04454              -0.20   -20800.00
04455               0.20   -20800.00
04456              -0.40   -20000.00
04457              -0.20   -19200.00
04458               0.20   -18400.00
04459              -0.40   -19200.00
04460               0.20   -17600.00
04461               0.20   -17600.00
04462              -0.60   -16800.00
04463              -0.20   -16800.00
04464              -0.40   -16800.00
04465              -0.60   -16000.00
04466              -0.60   -15200.00
04467              -0.40   -14400.00
04468              -0.20   -13600.00
04469              -0.20   -13600.00
04470               0.20   -12800.00
04471              -0.20   -12800.00
04472              -0.60   -11200.00
04473              -0.20   -11200.00
04474              -0.20   -10400.00
04475              -0.40    -9600.00
04476              -0.60    -9600.00
04477              -0.60    -9600.00
04478               0.20    -8000.00
04479              -0.60    -7200.00
04480              -0.60    -8000.00
04481              -0.20    -6400.00
04482              -0.60    -6400.00
04483              -0.40    -4800.00
04484               0.20    -4800.00
04485              -1.00    -4000.00
04486              -0.40    -3200.00
04487               0.20    -2400.00
04488              -0.60    -2400.00
04489              -0.60    -1600.00
04490              -0.40     -800.00
04491              -0.60        0.00
04492              -0.20        0.00
04493              -0.20        0.00
04494               0.20      800.00
04495               3.60     1600.00
04496              -0.40     2400.00
04497              -2.00     2400.00
04498               1.20     3200.00
04499               0.60     3200.00
04500              -1.40     4800.00
04501               9.80     5600.00
04502              25.00     6400.00
04503             -22.80     8000.00
04504             -25.00     8000.00
04505              20.60     7200.00
04506               7.80     8000.00
04507             -25.00     8000.00
04508              25.00     9600.00
04509              -1.00     9600.00
04510             -25.00    11200.00
04511              25.00    11200.00
04512             -25.00    11200.00
04513               1.80    12800.00
04514              25.00    12800.00
04515             -25.00    13600.00
04516              25.00    14400.00
04517             -25.00    14400.00
04518             -17.80    14400.00
04519              25.00    15200.00
04520             -25.00    16000.00
04521              18.60    16800.00
04522              25.00    17600.00
04523             -25.00    17600.00
04524              -8.40    17600.00
04525              25.00    18400.00
04526             -21.80    19200.00
04527             -14.40    20000.00
04528              25.00    20000.00
04529             -25.00    20800.00
04530              11.80    21600.00
04531               3.00    21600.00
04532             -19.60    22400.00
04533              18.00    23200.00
04534              -8.20    23200.00
04535              -6.80    24000.00
04536              14.80    24000.00
04537              -2.80    24800.00
04538             -15.40    24800.00
04539              19.20    24800.00
04540             -10.20    25600.00
04541              -8.20    25600.00
04542              15.40    25600.00
04543             -11.00    27200.00
04544              -0.60    27200.00
04545               4.60    28000.00
04546              -4.60    28000.00
04547              -2.20    28000.00
04548               3.60    28000.00
04549              -3.40    28800.00
04550              -2.00    28800.00
04551               2.00    28800.00
04552              -5.00    29600.00
04553               0.60    29600.00
04554               2.00    30400.00
04555              -5.80    30400.00
04556               1.00    31200.00
04557              -0.60    30400.00
04558              -5.80    31200.00
04559               1.20    31200.00
04560              -2.80    31200.00
04561              -3.80    32000.00
04562               1.20    32000.00
04563              -3.00    32000.00
04564              -2.80    32800.00
04565              -2.60    32000.00
04566              -4.00    32800.00
04567              -2.80    32800.00
04568              -3.20    32000.00
04569              -4.40    32800.00
04570              -5.20    32800.00
04571              -3.80    33600.00
04572              -6.80    32800.00
04573              -6.80    32800.00
04574              -5.40    32800.00
04575              -9.60    32800.00
04576              -6.80    32800.00
04577              -8.60    32800.00
04578             -12.40    32800.00
04579             -10.60    33600.00
04580             -12.60    32800.00
04581             -13.20    32800.00
04582             -13.40    32800.00
04583             -15.00    32800.00
04584             -15.20    32800.00
04585             -16.40    32000.00
04586             -19.40    32000.00
04587             -23.60    32000.00
04588             -18.80    32000.00
04589              -7.60    31200.00
04590              -9.80    32000.00
04591             -12.20    32000.00
04592              -8.60    31200.00
04593              -7.00    32000.00
04594              -7.60    30400.00
04595              -7.80    30400.00
04596              -5.00    30400.00
04597              -5.20    30400.00
04598              -6.60    30400.00
04599              -3.00    28800.00
04600              -2.80    30400.00
04601              -5.00    28800.00
04602              -3.00    28800.00
04603              -1.20    28800.00
04604              -3.40    28000.00
04605              -2.80    28000.00
04606              -1.00    28000.00
04607              -2.20    27200.00
04608              -1.80    27200.00
04609              -0.40    26400.00
04610              -2.20    25600.00
04611              -1.20    25600.00
04612              -0.60    25600.00
04613              -1.00    24800.00
04614              -0.60    24800.00
04615              -1.60    24000.00
04616              -0.80    24000.00
04617              -0.40    23200.00
04618              -1.20    23200.00
04619              -0.40    22400.00
04620              -0.80    21600.00
04621              -0.60    21600.00
04622              -0.80    20800.00
04623              -0.80    20800.00
04624              -1.20    20000.00
04625              -1.20    19200.00
04626               0.20    19200.00
04627              -0.60    18400.00
04628              -0.60    18400.00
04629              -0.40    17600.00
04630              -0.60    16800.00
04631              -0.60    16000.00
04632              -0.60    16000.00
04633              -0.60    15200.00
04634              -0.80    15200.00
04635              -0.60    14400.00
04636              -0.40    14400.00
04637              -0.60    13600.00
04638              -1.20    12800.00
04639              -0.20    12000.00
04640              -0.40    12000.00
04641              -0.40    11200.00
04642              -0.80    10400.00
04643              -0.20     9600.00
04644              -0.60     9600.00
04645              -0.60     8800.00
04646              -0.40     8000.00
04647              -0.60     7200.00
04648              -1.00     7200.00
04649              -0.20     6400.00
04650              -0.40     4800.00
04651              -0.60     4800.00
04652              -0.80     4800.00
04653              -0.20     4000.00
04654              -0.40     3200.00
04655              -0.40     3200.00
04656              -0.60     2400.00
04657              -0.40     1600.00
04658              -0.40      800.00
04659              -0.20        0.00
04660               0.40        0.00
04661               1.20     -800.00
04662               3.60    -1600.00
04663              -1.60    -2400.00
04664              -0.60    -2400.00
04665               1.40    -3200.00
04666               0.60    -3200.00
04667              -0.80    -4000.00
04668               6.80    -4800.00
04669              25.00    -4800.00
04670               3.60    -7200.00
04671             -25.00    -8000.00
04672              -0.60    -8000.00
04673              25.00    -8800.00
04674             -25.00    -8800.00
04675             -14.80    -8000.00
04676              25.00    -9600.00
04677             -25.00    -9600.00
04678             -25.00   -10400.00
04679              25.00   -11200.00
04680             -25.00   -11200.00
04681              -0.80   -12800.00
04682              23.80   -12800.00
04683             -20.40   -13600.00
04684              25.00   -14400.00
04685             -25.00   -14400.00
04686              14.80   -14400.00
04687              25.00   -15200.00
04688             -25.00   -16000.00
04689              17.80   -16800.00
04690              21.80   -17600.00
04691             -25.00   -17600.00
04692              -1.40   -17600.00
04693              25.00   -19200.00
04694             -25.00   -18400.00
04695               2.20   -20000.00
04696              23.40   -20000.00
04697             -21.20   -20800.00
04698               9.00   -20800.00
04699               3.00   -22400.00
04700             -12.40   -22400.00
04701               7.60   -22400.00
04702               2.00   -23200.00
04703              -6.60   -23200.00
04704               9.00   -24000.00
04705              -0.40   -24000.00
04706              -9.60   -24800.00
04707              11.00   -24800.00
04708              -5.20   -25600.00
04709              -2.00   -25600.00
04710               7.40   -26400.00
04711              -4.60   -26400.00
04712               0.20   -26400.00
04713               2.60   -27200.00
04714              -1.40   -27200.00
04715               0.40   -27200.00
04716               3.40   -28000.00
04717              -2.20   -28800.00
04718              -0.40   -28800.00
04719               2.80   -28800.00
04720              -1.80   -28800.00
04721               1.80   -29600.00
04722               3.20   -28800.00
04723              -1.20   -30400.00
04724               2.60   -30400.00
04725               1.80   -30400.00
04726              -0.60   -30400.00
04727               2.20   -30400.00
04728               1.00   -31200.00
04729               1.80   -32000.00
04730               3.60   -32000.00
04731               1.80   -31200.00
04732               2.20   -32000.00
04733               2.80   -32000.00
04734               2.20   -32000.00
04735               3.00   -32000.00
04736               4.20   -32000.00
04737               4.20   -32000.00
04738               4.60   -32000.00
04739               6.80   -32000.00
04740               4.80   -32000.00
04741               6.80   -32000.00
04742               8.20   -32000.00
04743               6.60   -32000.00
04744              10.60   -32000.00
04745              10.60   -32800.00
04746              10.60   -32000.00
04747              13.20   -32000.00
04748              13.00   -32000.00
04749              13.20   -32000.00
04750              14.60   -32000.00
04751              14.80   -32000.00
04752              16.60   -32000.00
04753              21.00   -31200.00
04754              22.20   -32000.00
04755              12.80   -32000.00
04756               6.80   -31200.00
04757              11.00   -31200.00
04758              10.60   -30400.00
04759               6.00   -31200.00
04760               5.80   -29600.00
04761               8.40   -30400.00
04762               5.80   -29600.00
04763               3.00   -29600.00
04764               5.80   -29600.00
04765               5.40   -29600.00
04766               1.80   -28800.00
04767               3.00   -28800.00
04768               3.40   -28800.00
04769               1.20   -28000.00
04770               1.40   -27200.00
04771               2.80   -27200.00
04772               0.40   -27200.00
04773              -0.20   -27200.00
04774               2.20   -26400.00
04775               0.60   -26400.00
04776               0.20   -25600.00
04777               1.00   -25600.00
04778               0.40   -25600.00
04779               0.20   -24000.00
04780               0.20   -24000.00
04781               0.40   -24000.00
04782               0.40   -24000.00
04783               0.20   -23200.00
04784               0.20   -23200.00
04785              -0.20   -22400.00
04786              -0.40   -22400.00
04787              -0.40   -20800.00
04788               0.00   -20800.00
04789               0.20   -20800.00
04790              -0.40   -20000.00
04791              -0.20   -19200.00
04792              -0.20   -18400.00
04793              -0.60   -17600.00
04794               0.20   -17600.00
04795              -0.20   -17600.00
04796              -0.60   -16800.00
04797              -0.20   -16800.00
04798              -0.20   -16000.00
04799              -0.20   -15200.00
04800              -0.40   -14400.00
04801              -0.60   -14400.00
04802              -0.20   -13600.00
04803               0.20   -12800.00
04804              -0.40   -12800.00
04805              -0.60   -12000.00
04806              -0.20   -12000.00
04807              -0.40   -11200.00
04808              -0.60   -10400.00
04809              -0.20    -9600.00
04810              -0.40    -8800.00
04811              -0.20    -8800.00
04812               0.00    -8000.00
04813              -1.00    -7200.00
04814              -0.40    -7200.00
04815              -0.20    -6400.00
04816              -0.60    -6400.00
04817              -0.20    -4800.00
04818              -0.40    -4000.00
04819              -1.00    -4000.00
04820               0.00    -3200.00
04821              -0.60    -3200.00
04822              -0.80    -1600.00
04823              -0.40    -1600.00
04824              -0.60     -800.00
04825              -0.60        0.00
04826              -0.20        0.00
04827               0.40        0.00
04828               1.40     1600.00
04829               3.00     1600.00
04830              -2.60     2400.00
04831              -0.60     3200.00
04832               1.20     3200.00
04833              -0.60     3200.00
04834               1.40     4800.00
04835              21.80     7200.00
04836              23.40     7200.00
04837             -25.00     7200.00
04838             -15.60     8000.00
04839              25.00     8000.00
04840             -25.00     8800.00
04841              -1.40     8800.00
04842              25.00     9600.00
04843             -25.00     9600.00
04844              25.00    11200.00
04845              25.00    11200.00
04846             -25.00    12000.00
04847              25.00    12800.00
04848             -25.00    13600.00
04849               9.80    14400.00
04850              25.00    14400.00
04851             -25.00    14400.00
04852              25.00    15200.00
04853               9.80    16000.00
04854             -25.00    16000.00
04855              25.00    16800.00
04856              -2.60    17600.00
04857             -25.00    17600.00
04858              19.40    18400.00
04859              17.60    19200.00
04860             -25.00    19200.00
04861              23.40    20800.00
04862               9.40    20800.00
04863             -21.40    20800.00
04864              25.00    21600.00
04865             -22.20    21600.00
04866               1.40    22400.00
04867               9.60    22400.00
04868             -14.20    23200.00
04869               5.40    24000.00
04870              13.40    24800.00
04871             -16.80    24800.00
04872               1.40    24800.00
04873              13.20    25600.00
04874             -21.40    25600.00
04875              10.60    27200.00
04876               3.60    27200.00
04877             -10.60    27200.00
04878               5.80    27200.00
04879              -0.40    27200.00
04880              -5.40    28000.00
04881               1.40    28000.00
04882               1.40    28000.00
04883              -5.20    28800.00
04884               1.80    28800.00
04885              -1.40    29600.00
04886              -4.20    29600.00
04887               2.80    29600.00
04888              -2.20    30400.00
04889              -3.40    30400.00
04890               2.60    30400.00
04891              -4.60    31200.00
04892              -2.80    31200.00
04893               1.00    31200.00
04894              -5.40    31200.00
04895              -0.60    32000.00
04896              -0.60    31200.00
04897              -4.20    32800.00
04898              -2.20    32000.00
04899              -3.80    32800.00
04900              -3.20    32800.00
04901              -3.20    32800.00
04902              -3.80    32800.00
04903              -4.40    33600.00
04904              -3.60    32000.00
04905              -9.20    32800.00
04906              -3.00    33600.00
04907              -8.60    32800.00
04908             -12.40    32800.00
04909              -2.20    32000.00
04910             -10.60    32800.00
04911              -1.40    32800.00
04912             -14.60    32800.00
04913             -13.40    32800.00
04914             -10.00    32800.00
04915             -21.40    32800.00
04916             -14.00    32000.00
04917             -13.60    32800.00
04918             -14.80    32800.00
04919             -13.80    32000.00
04920             -21.80    32800.00
04921             -24.60    32800.00
04922              -9.40    32000.00
04923              -7.00    32000.00
04924             -14.20    31200.00
04925             -12.20    32000.00
04926              -7.40    31200.00
04927              -8.40    32000.00
04928              -7.00    31200.00
04929              -4.20    31200.00
04930              -3.80    31200.00
04931              -4.40    30400.00
04932              -7.40    29600.00
04933              -5.00    28800.00
04934              -2.80    28800.00
04935              -5.80    28800.00
04936              -2.60    28800.00
04937              -2.20    28000.00
04938              -1.20    28000.00
04939               0.20    28000.00
04940              -1.80    27200.00
04941              -3.00    27200.00
04942              -0.80    27200.00
04943              -4.40    26400.00
04944              -3.40    25600.00
04945               1.40    25600.00
04946              -1.40    24800.00
04947              -0.80    24800.00
04948               1.00    24800.00
04949              -1.60    24000.00
04950              -1.00    24000.00
04951              -1.00    22400.00
04952              -2.00    23200.00
04953              -0.60    22400.00
04954              -1.40    21600.00
04955              -0.60    21600.00
04956               0.60    20800.00
04957               0.20    20000.00
04958              -1.80    19200.00
04959              -0.60    19200.00
04960              -1.20    19200.00
04961              -2.00    18400.00
04962              -0.40    17600.00
04963              -0.80    17600.00
04964               0.20    16800.00
04965               0.40    16000.00
04966              -1.20    15200.00
04967              -0.20    15200.00
04968              -0.80    14400.00
04969              -1.20    15200.00
04970              -0.60    14400.00
04971              -1.20    12800.00
04972              -1.00    12000.00
04973               0.60    12000.00
04974              -0.80    12000.00
04975              -0.60    10400.00
04976              -0.40     9600.00
04977              -0.40     8800.00
04978              -1.20     8800.00
04979              -0.40     8800.00
04980              -0.20     8000.00
04981              -0.60     7200.00
04982              -0.60     6400.00
04983               0.20     7200.00
04984              -0.60     5600.00
04985              -0.20     4800.00
04986              -0.40     4800.00
04987              -0.20     3200.00
04988              -0.40     3200.00
04989              -1.00     1600.00
04990              -0.40     1600.00
04991               0.20      800.00
04992              -0.60      800.00
04993               0.20        0.00
04994               0.60     -800.00
04995               2.00     -800.00
04996               1.00    -1600.00
04997              -1.20    -1600.00
04998               0.60    -3200.00
04999               1.80    -3200.00
05000               0.00    -3200.00
