Unit:(mV)
                     CH1         CH2
Frequency              ? 299.810 kHz
00001             -25.00    -8000.00
00002              11.80    -8000.00
00003              19.60    -8000.00
00004             -25.00    -8800.00
00005               1.00    -8800.00
00006              25.00   -10400.00
00007             -25.00    -9600.00
00008              -3.60   -11200.00
00009              25.00   -11200.00
00010             -25.00   -12000.00
00011              14.00   -12800.00
00012               8.00   -13600.00
00013              -5.40   -14400.00
00014              21.40   -14400.00
00015             -25.00   -14400.00
00016              25.00   -15200.00
00017              12.60   -16000.00
00018             -25.00   -16800.00
00019              25.00   -16800.00
00020              14.20   -17600.00
00021             -25.00   -17600.00
00022               8.20   -18400.00
00023              24.00   -19200.00
00024             -25.00   -20000.00
00025              12.80   -20000.00
00026              17.00   -20800.00
00027             -19.80   -20800.00
00028              12.20   -21600.00
00029              -3.40   -22400.00
00030              -6.20   -22400.00
00031               6.60   -23200.00
00032              -2.40   -23200.00
00033              -1.80   -24000.00
00034               9.80   -24000.00
00035              -7.20   -24000.00
00036              -2.20   -25600.00
00037              10.80   -25600.00
00038             -11.00   -25600.00
00039               4.40   -26400.00
00040               6.80   -26400.00
00041              -6.20   -27200.00
00042               2.60   -26400.00
00043               2.60   -27200.00
00044              -2.60   -28000.00
00045               1.80   -28800.00
00046               3.40   -28800.00
00047              -2.60   -28800.00
00048               2.00   -28800.00
00049               1.40   -28800.00
00050              -1.40   -29600.00
00051               3.40   -29600.00
00052               1.80   -30400.00
00053              -0.40   -30400.00
00054               3.80   -30400.00
00055               0.40   -30400.00
00056               0.20   -30400.00
00057               3.40   -31200.00
00058               0.60   -31200.00
00059               2.80   -31200.00
00060               3.40   -32000.00
00061               1.20   -32000.00
00062               2.80   -32000.00
00063               2.80   -32000.00
00064               2.60   -32000.00
00065               4.20   -32000.00
00066               4.60   -32000.00
00067               4.20   -32800.00
00068               6.00   -32000.00
00069               6.60   -32800.00
00070               5.00   -32800.00
00071               8.40   -32800.00
00072               8.80   -32800.00
00073               8.20   -32800.00
00074              11.60   -32800.00
00075              10.60   -32000.00
00076              11.60   -32800.00
00077              13.80   -32000.00
00078              13.00   -32800.00
00079              14.00   -32800.00
00080              15.00   -32000.00
00081              15.80   -32000.00
00082              19.00   -32000.00
00083              22.80   -32000.00
00084              18.60   -32000.00
00085               8.20   -32000.00
00086               9.80   -32000.00
00087              12.00   -32000.00
00088               8.00   -31200.00
00089               6.20   -30400.00
00090               7.40   -30400.00
00091               7.60   -30400.00
00092               5.00   -30400.00
00093               3.80   -29600.00
00094               6.20   -30400.00
00095               3.00   -29600.00
00096               2.00   -28800.00
00097               4.40   -29600.00
00098               2.80   -28800.00
00099               0.80   -28800.00
00100               2.80   -28000.00
00101               2.00   -27200.00
00102               0.40   -27200.00
00103               1.40   -27200.00
00104               2.00   -27200.00
00105               0.40   -25600.00
00106               1.00   -25600.00
00107               0.60   -26400.00
00108               0.40   -25600.00
00109               0.60   -24800.00
00110               0.40   -24800.00
00111               0.40   -24000.00
00112               0.40   -24000.00
00113               0.20   -23200.00
00114               0.40   -22400.00
00115              -0.20   -22400.00
00116               0.20   -22400.00
00117               0.60   -22400.00
00118              -0.20   -20000.00
00119               0.20   -20000.00
00120               0.20   -20000.00
00121               0.00   -19200.00
00122              -0.40   -18400.00
00123               0.20   -18400.00
00124               0.20   -17600.00
00125              -0.40   -17600.00
00126              -0.20   -16800.00
00127              -0.40   -16800.00
00128              -0.20   -16000.00
00129               0.20   -16000.00
00130              -0.40   -15200.00
00131               0.20   -14400.00
00132               0.00   -13600.00
00133              -0.20   -13600.00
00134              -0.20   -12800.00
00135              -0.20   -12000.00
00136              -0.40   -11200.00
00137              -0.20   -11200.00
00138              -0.40   -10400.00
00139              -0.40    -9600.00
00140              -0.60    -9600.00
00141              -0.60    -8000.00
00142              -0.20    -8000.00
00143              -0.60    -7200.00
00144              -0.20    -7200.00
00145              -0.40    -6400.00
00146              -0.40    -6400.00
00147              -0.20    -4800.00
00148              -0.60    -4000.00
00149              -0.60    -4000.00
00150              -0.60    -3200.00
00151              -0.40    -2400.00
00152              -0.60    -1600.00
00153              -0.60    -1600.00
00154              -0.80     -800.00
00155              -0.60        0.00
00156              -0.40        0.00
00157               0.20      800.00
00158               1.80     1600.00
00159               2.00     1600.00
00160              -2.60     3200.00
00161              -0.20     2400.00
00162               1.00     3200.00
00163              -1.20     4000.00
00164               4.60     5600.00
00165              25.00     6400.00
00166               6.40     7200.00
00167             -25.00     8000.00
00168               1.80     8000.00
00169              25.00     8000.00
00170             -25.00     8000.00
00171              20.40     9600.00
00172              25.00     9600.00
00173             -25.00     9600.00
00174              25.00    11200.00
00175              18.60    11200.00
00176             -25.00    12000.00
00177              25.00    12800.00
00178             -25.00    12800.00
00179              25.00    14400.00
00180              25.00    14400.00
00181             -25.00    14400.00
00182              25.00    15200.00
00183             -25.00    16000.00
00184             -25.00    16800.00
00185              25.00    17600.00
00186             -17.40    17600.00
00187             -24.20    18400.00
00188              24.00    18400.00
00189               5.80    19200.00
00190             -25.00    20800.00
00191              25.00    20000.00
00192              -8.00    21600.00
00193             -10.20    21600.00
00194              23.60    21600.00
00195             -25.00    22400.00
00196               7.60    22400.00
00197               4.60    24000.00
00198             -12.00    24000.00
00199               5.60    24800.00
00200              10.00    24800.00
00201             -16.60    24800.00
00202               6.40    25600.00
00203               5.80    25600.00
00204             -17.60    26400.00
00205              12.20    27200.00
00206              -3.40    27200.00
00207              -6.00    27200.00
00208               5.40    28000.00
00209              -3.60    28000.00
00210              -3.60    28000.00
00211               2.00    28800.00
00212              -1.40    28800.00
00213              -4.40    28800.00
00214               1.80    29600.00
00215              -3.00    30400.00
00216              -3.60    30400.00
00217               2.60    30400.00
00218              -3.80    31200.00
00219              -2.20    30400.00
00220               1.20    31200.00
00221              -5.40    31200.00
00222              -1.40    32000.00
00223              -1.00    32000.00
00224              -5.40    32800.00
00225              -0.20    32000.00
00226              -1.80    32000.00
00227              -4.20    32000.00
00228              -2.60    32800.00
00229              -4.20    32800.00
00230              -3.80    32800.00
00231              -3.80    32000.00
00232              -4.20    32800.00
00233              -5.80    32800.00
00234              -5.00    33600.00
00235              -5.00    32800.00
00236              -8.20    32800.00
00237              -5.80    32800.00
00238              -9.00    32800.00
00239              -8.60    32800.00
00240              -7.60    33600.00
00241             -12.60    32800.00
00242             -11.60    33600.00
00243             -12.00    33600.00
00244             -14.00    32800.00
00245             -13.80    33600.00
00246             -15.40    32800.00
00247             -15.80    32800.00
00248             -17.00    32800.00
00249             -19.80    32800.00
00250             -23.20    32000.00
00251             -19.00    32000.00
00252              -7.60    31200.00
00253             -10.20    32800.00
00254             -12.40    31200.00
00255              -8.20    32000.00
00256              -7.40    31200.00
00257              -8.20    31200.00
00258              -7.60    31200.00
00259              -5.20    30400.00
00260              -5.40    31200.00
00261              -6.80    30400.00
00262              -3.80    30400.00
00263              -2.80    29600.00
00264              -5.20    28800.00
00265              -3.00    28800.00
00266              -1.80    28800.00
00267              -3.00    28800.00
00268              -2.60    28000.00
00269              -1.20    28000.00
00270              -2.60    27200.00
00271              -2.20    27200.00
00272              -1.00    27200.00
00273              -2.20    26400.00
00274              -2.00    26400.00
00275              -0.60    25600.00
00276              -1.80    25600.00
00277              -1.20    24800.00
00278              -1.40    24800.00
00279              -1.80    24000.00
00280              -1.00    24000.00
00281              -1.00    22400.00
00282              -1.00    23200.00
00283              -0.80    22400.00
00284              -1.20    22400.00
00285              -0.60    21600.00
00286              -1.00    20800.00
00287              -1.20    20800.00
00288              -1.20    19200.00
00289              -0.60    19200.00
00290              -0.60    19200.00
00291              -1.00    18400.00
00292              -0.60    17600.00
00293              -1.00    17600.00
00294              -0.60    16800.00
00295              -0.60    16000.00
00296              -1.20    15200.00
00297               0.20    15200.00
00298              -1.00    14400.00
00299              -0.40    14400.00
00300               0.40    13600.00
00301              -1.20    12800.00
00302              -0.60    12000.00
00303               0.40    12000.00
00304              -1.40    11200.00
00305              -0.60    11200.00
00306              -0.60     9600.00
00307              -0.40     9600.00
00308              -0.60     8800.00
00309              -0.40     8000.00
00310              -0.20     8000.00
00311              -0.20     7200.00
00312              -1.20     6400.00
00313              -0.40     6400.00
00314              -0.60     5600.00
00315              -1.00     4800.00
00316               0.20     4800.00
00317               1.00     3200.00
00318              -0.60     2400.00
00319              -0.60     1600.00
00320              -0.60     1600.00
00321              -0.60     1600.00
00322              -0.60        0.00
00323               0.60     -800.00
00324               1.00     -800.00
00325               4.20    -1600.00
00326               0.40    -1600.00
00327              -1.40    -1600.00
00328               1.40    -3200.00
00329               0.60    -3200.00
00330              -1.40    -4000.00
00331               3.80    -4800.00
00332              18.00    -4800.00
00333              22.00    -7200.00
00334             -25.00    -8000.00
00335             -22.80    -8000.00
00336              25.00    -8000.00
00337              -8.60    -9600.00
00338             -25.00    -8800.00
00339              25.00    -9600.00
00340              25.00    -9600.00
00341             -25.00    -9600.00
00342              25.00   -11200.00
00343               9.40   -11200.00
00344             -25.00   -12000.00
00345              25.00   -12800.00
00346             -21.80   -13600.00
00347              21.80   -13600.00
00348             -14.20   -14400.00
00349             -18.60   -14400.00
00350              25.00   -16000.00
00351             -25.00   -16000.00
00352             -10.80   -16800.00
00353              25.00   -16800.00
00354             -16.40   -17600.00
00355             -22.80   -17600.00
00356              25.00   -18400.00
00357              -6.00   -19200.00
00358             -23.40   -20000.00
00359              25.00   -20000.00
00360              -8.60   -20800.00
00361              -5.80   -20800.00
00362              12.40   -22400.00
00363             -10.80   -22400.00
00364               3.40   -22400.00
00365               2.80   -23200.00
00366              -5.80   -24000.00
00367               5.20   -24000.00
00368               5.20   -24000.00
00369             -11.40   -24800.00
00370               9.80   -25600.00
00371               1.00   -25600.00
00372              -9.80   -26400.00
00373              11.00   -26400.00
00374              -2.20   -26400.00
00375              -3.20   -27200.00
00376               5.40   -27200.00
00377               0.20   -27200.00
00378              -1.40   -28000.00
00379               3.80   -28800.00
00380               0.40   -28800.00
00381              -1.60   -28800.00
00382               3.40   -29600.00
00383              -1.20   -28800.00
00384               0.40   -29600.00
00385               3.60   -29600.00
00386              -0.60   -30400.00
00387               1.80   -30400.00
00388               3.40   -30400.00
00389              -1.00   -30400.00
00390               2.60   -31200.00
00391               2.80   -32000.00
00392               0.20   -31200.00
00393               4.40   -32000.00
00394               2.20   -32000.00
00395               1.40   -31200.00
00396               3.40   -32000.00
00397               2.80   -32000.00
00398               3.40   -32000.00
00399               4.20   -32800.00
00400               4.20   -32000.00
00401               4.40   -32000.00
00402               6.20   -32000.00
00403               5.20   -32000.00
00404               6.20   -32800.00
00405               9.20   -32800.00
00406               7.00   -32800.00
00407               9.80   -32800.00
00408              11.80   -32800.00
00409               9.80   -32800.00
00410              13.00   -32000.00
00411              14.00   -32000.00
00412              12.80   -32800.00
00413              14.80   -32800.00
00414              15.60   -32000.00
00415              17.00   -32000.00
00416              21.00   -31200.00
00417              22.00   -32000.00
00418              13.00   -32000.00
00419               7.00   -31200.00
00420              11.40   -32000.00
00421              11.40   -31200.00
00422               6.20   -30400.00
00423               6.20   -31200.00
00424               9.00   -30400.00
00425               6.00   -30400.00
00426               3.00   -29600.00
00427               6.20   -30400.00
00428               5.20   -29600.00
00429               1.80   -29600.00
00430               3.60   -28800.00
00431               4.40   -28800.00
00432               1.20   -28800.00
00433               1.60   -28800.00
00434               3.20   -28000.00
00435               0.80   -27200.00
00436               0.60   -27200.00
00437               2.20   -26400.00
00438               1.00   -26400.00
00439               0.80   -25600.00
00440               1.20   -25600.00
00441               0.60   -25600.00
00442               0.20   -24800.00
00443               1.00   -24800.00
00444               0.60   -24000.00
00445               0.60   -24000.00
00446               0.00   -23200.00
00447               0.40   -23200.00
00448               0.60   -22400.00
00449              -0.60   -22400.00
00450               0.40   -22400.00
00451               1.00   -20800.00
00452              -0.20   -20800.00
00453               0.00   -20000.00
00454               0.40   -20000.00
00455              -0.60   -18400.00
00456               0.20   -18400.00
00457               0.60   -17600.00
00458              -0.20   -17600.00
00459              -0.40   -16800.00
00460               0.40   -16800.00
00461              -0.60   -16000.00
00462              -0.60   -16000.00
00463              -0.20   -15200.00
00464              -0.40   -14400.00
00465              -0.20   -13600.00
00466              -0.40   -13600.00
00467              -0.20   -12800.00
00468              -0.20   -12800.00
00469              -0.60   -11200.00
00470              -0.20   -11200.00
00471              -0.20   -11200.00
00472              -0.60   -10400.00
00473              -0.60    -9600.00
00474              -0.40    -8800.00
00475              -0.60    -8000.00
00476              -0.60    -8000.00
00477              -0.40    -7200.00
00478              -0.40    -6400.00
00479              -0.60    -6400.00
00480              -0.40    -5600.00
00481              -0.20    -4800.00
00482              -0.80    -4000.00
00483              -0.40    -4000.00
00484               0.00    -3200.00
00485              -1.20    -2400.00
00486              -0.40    -1600.00
00487              -0.40     -800.00
00488              -0.80     -800.00
00489              -0.60     -800.00
00490              -0.40        0.00
00491               0.60     1600.00
00492               3.40     1600.00
00493              -1.40     2400.00
00494              -1.40     3200.00
00495               1.20     3200.00
00496               0.20     4000.00
00497              -0.40     4000.00
00498              12.80     5600.00
00499              25.00     7200.00
00500             -25.00     8000.00
00501             -25.00     8000.00
00502              25.00     8000.00
00503              -2.00     8800.00
00504             -25.00     8800.00
00505              25.00     9600.00
00506             -16.20     9600.00
00507             -25.00    11200.00
00508              25.00    12000.00
00509             -25.00    12000.00
00510              14.80    12800.00
00511              22.20    12800.00
00512             -25.00    13600.00
00513              25.00    14400.00
00514             -25.00    14400.00
00515               3.20    15200.00
00516              25.00    15200.00
00517             -25.00    16000.00
00518              25.00    17600.00
00519              25.00    17600.00
00520             -25.00    18400.00
00521              -3.40    18400.00
00522              25.00    19200.00
00523             -25.00    20000.00
00524              -4.20    20800.00
00525              25.00    20800.00
00526             -25.00    21600.00
00527              18.80    21600.00
00528              -3.60    22400.00
00529             -17.40    22400.00
00530              16.40    23200.00
00531              -7.60    24000.00
00532              -5.40    24000.00
00533              12.40    24800.00
00534              -4.20    24800.00
00535             -13.20    24800.00
00536              16.20    25600.00
00537             -12.20    25600.00
00538              -3.00    26400.00
00539              10.60    27200.00
00540             -11.40    27200.00
00541               2.60    27200.00
00542               1.00    28000.00
00543              -5.40    28000.00
00544               0.20    28000.00
00545               2.00    28800.00
00546              -4.80    28800.00
00547              -1.20    29600.00
00548               0.60    29600.00
00549              -5.60    30400.00
00550               0.60    30400.00
00551               1.00    30400.00
00552              -5.20    30400.00
00553               0.60    31200.00
00554              -1.80    31200.00
00555              -5.00    31200.00
00556              -0.20    32800.00
00557              -4.40    32000.00
00558              -2.00    32000.00
00559              -0.20    32800.00
00560              -4.40    32800.00
00561              -1.80    32000.00
00562              -3.40    32800.00
00563              -5.40    32800.00
00564              -2.80    32800.00
00565              -3.80    32800.00
00566              -5.40    33600.00
00567              -5.20    32800.00
00568              -4.20    33600.00
00569              -7.00    33600.00
00570              -7.00    33600.00
00571              -6.00    32800.00
00572             -10.20    33600.00
00573              -7.60    33600.00
00574             -10.00    33600.00
00575             -12.60    33600.00
00576             -11.20    33600.00
00577             -13.40    33600.00
00578             -13.00    33600.00
00579             -14.40    32800.00
00580             -15.80    32800.00
00581             -15.60    32000.00
00582             -18.40    32800.00
00583             -22.00    32000.00
00584             -22.60    32800.00
00585             -12.60    32000.00
00586              -7.60    32000.00
00587             -12.40    32000.00
00588             -10.20    31200.00
00589              -7.60    32000.00
00590              -7.60    32000.00
00591              -7.80    31200.00
00592              -6.60    31200.00
00593              -4.40    31200.00
00594              -6.20    30400.00
00595              -6.00    30400.00
00596              -2.80    29600.00
00597              -4.20    29600.00
00598              -4.60    28800.00
00599              -2.40    28800.00
00600              -2.80    28800.00
00601              -3.40    28000.00
00602              -2.00    28800.00
00603              -1.80    27200.00
00604              -2.60    27200.00
00605              -1.00    27200.00
00606              -1.20    26400.00
00607              -2.60    25600.00
00608              -1.20    25600.00
00609              -1.20    25600.00
00610              -1.20    25600.00
00611              -1.00    24800.00
00612              -2.00    24800.00
00613              -1.00    24000.00
00614              -1.00    23200.00
00615              -1.60    23200.00
00616              -0.60    23200.00
00617              -1.00    21600.00
00618              -0.80    21600.00
00619              -1.00    21600.00
00620              -1.00    20800.00
00621              -1.40    20000.00
00622              -1.00    19200.00
00623              -0.20    20000.00
00624              -0.60    18400.00
00625              -0.80    18400.00
00626              -0.60    17600.00
00627              -1.00    17600.00
00628              -0.20    17600.00
00629              -1.20    16000.00
00630              -0.60    16000.00
00631              -0.20    15200.00
00632              -1.00    14400.00
00633              -0.60    14400.00
00634              -0.40    12800.00
00635              -1.20    12800.00
00636              -0.40    12000.00
00637               0.20    12000.00
00638              -0.40    11200.00
00639              -1.00    10400.00
00640              -0.20     9600.00
00641              -0.40     9600.00
00642              -0.80     8800.00
00643              -0.20     8000.00
00644              -0.40     8000.00
00645              -0.60     6400.00
00646              -0.40     6400.00
00647              -0.40     5600.00
00648               0.20     5600.00
00649              -0.60     4800.00
00650              -0.40     4000.00
00651               0.20     3200.00
00652              -0.60     3200.00
00653              -0.80     1600.00
00654               0.00     1600.00
00655              -0.20      800.00
00656               0.40      800.00
00657               0.40        0.00
00658               1.40     -800.00
00659               3.40    -1600.00
00660              -1.80    -1600.00
00661              -0.20    -2400.00
00662               1.20    -3200.00
00663               0.40    -3200.00
00664              -0.20    -4000.00
00665               8.40    -4000.00
00666              25.00    -6400.00
00667              -6.00    -7200.00
00668             -25.00    -7200.00
00669               7.40    -8000.00
00670              22.80    -8800.00
00671             -25.00    -8800.00
00672              -7.40    -8800.00
00673              25.00    -9600.00
00674             -25.00   -10400.00
00675             -17.20   -11200.00
00676              25.00   -12800.00
00677             -25.00   -12000.00
00678               5.80   -12800.00
00679              14.20   -12800.00
00680             -10.20   -13600.00
00681              24.40   -14400.00
00682             -25.00   -14400.00
00683              25.00   -15200.00
00684              19.80   -16000.00
00685             -25.00   -16000.00
00686              25.00   -16800.00
00687              18.60   -17600.00
00688             -25.00   -17600.00
00689               3.20   -17600.00
00690              25.00   -19200.00
00691             -25.00   -20000.00
00692               7.60   -20000.00
00693              21.00   -20800.00
00694             -19.80   -20800.00
00695              10.00   -21600.00
00696              -1.20   -22400.00
00697              -6.60   -22400.00
00698               6.60   -22400.00
00699              -1.60   -23200.00
00700              -1.80   -24000.00
00701               9.80   -24000.00
00702              -6.00   -24800.00
00703              -4.00   -24800.00
00704              11.60   -25600.00
00705             -10.20   -25600.00
00706               2.60   -26400.00
00707               7.40   -26400.00
00708              -6.40   -27200.00
00709               2.60   -27200.00
00710               2.80   -27200.00
00711              -2.20   -28000.00
00712               2.00   -28800.00
00713               3.40   -28800.00
00714              -2.00   -28800.00
00715               2.00   -28800.00
00716               1.40   -29600.00
00717              -2.00   -29600.00
00718               3.80   -29600.00
00719               1.80   -30400.00
00720              -0.80   -29600.00
00721               3.60   -30400.00
00722               0.60   -30400.00
00723              -0.40   -31200.00
00724               3.60   -32000.00
00725               1.00   -31200.00
00726               2.60   -32000.00
00727               3.60   -32000.00
00728               0.60   -32000.00
00729               2.80   -32000.00
00730               3.00   -32000.00
00731               2.20   -32000.00
00732               4.20   -32000.00
00733               4.40   -32000.00
00734               3.60   -32000.00
00735               5.20   -32000.00
00736               6.60   -32800.00
00737               4.40   -32000.00
00738               7.60   -32800.00
00739               9.00   -32800.00
00740               7.40   -32800.00
00741              10.60   -32800.00
00742              11.00   -32800.00
00743              11.60   -32000.00
00744              13.00   -32000.00
00745              13.20   -32000.00
00746              15.00   -32000.00
00747              14.00   -32000.00
00748              15.40   -32000.00
00749              19.80   -32000.00
00750              22.00   -32000.00
00751              18.80   -32000.00
00752               9.60   -32000.00
00753               8.40   -32000.00
00754              11.00   -31200.00
00755               9.00   -31200.00
00756               6.80   -31200.00
00757               6.80   -30400.00
00758               8.20   -29600.00
00759               6.00   -29600.00
00760               2.80   -30400.00
00761               6.00   -29600.00
00762               4.20   -29600.00
00763               1.80   -28800.00
00764               4.00   -28800.00
00765               4.00   -28800.00
00766               0.40   -28000.00
00767               1.60   -28000.00
00768               2.80   -27200.00
00769               1.00   -27200.00
00770               1.40   -27200.00
00771               2.60   -26400.00
00772               0.60   -26400.00
00773               0.60   -26400.00
00774               0.40   -25600.00
00775               1.00   -25600.00
00776               1.40   -24000.00
00777               0.20   -24800.00
00778               0.60   -24000.00
00779               1.00   -24000.00
00780              -0.80   -23200.00
00781               0.40   -22400.00
00782               0.60   -22400.00
00783              -0.20   -22400.00
00784               0.20   -21600.00
00785               0.60   -20800.00
00786              -0.20   -20000.00
00787              -1.00   -20000.00
00788               0.40   -20000.00
00789               0.40   -18400.00
00790              -0.40   -18400.00
00791               0.20   -17600.00
00792               0.20   -17600.00
00793              -0.20   -16800.00
00794              -0.60   -16800.00
00795              -0.40   -16000.00
00796               0.20   -15200.00
00797              -0.60   -15200.00
00798              -0.40   -14400.00
00799              -0.20   -13600.00
00800              -0.60   -13600.00
00801              -0.40   -12800.00
00802              -0.20   -12800.00
00803              -0.40   -12000.00
00804              -0.40   -11200.00
00805              -0.20   -10400.00
00806              -0.40    -9600.00
00807              -0.60    -9600.00
00808              -0.20    -8000.00
00809              -0.20    -8000.00
00810              -0.60    -7200.00
00811              -0.60    -6400.00
00812              -0.40    -6400.00
00813              -0.80    -5600.00
00814              -0.40    -5600.00
00815              -0.60    -4800.00
00816              -0.40    -4000.00
00817              -0.40    -3200.00
00818              -0.40    -2400.00
00819              -0.40    -1600.00
00820              -0.40    -1600.00
00821              -0.60     -800.00
00822               0.00        0.00
00823              -0.40        0.00
00824              -0.40      800.00
00825               2.20     1600.00
00826               1.80     1600.00
00827              -3.00     2400.00
00828               0.60     3200.00
00829               0.60     3200.00
00830              -1.20     4000.00
00831               4.00     4800.00
00832              25.00     5600.00
00833              13.40     7200.00
00834             -25.00     7200.00
00835              -4.20     8000.00
00836              25.00     8800.00
00837             -25.00     8000.00
00838              10.20     9600.00
00839              25.00     9600.00
00840             -25.00    10400.00
00841              25.00    11200.00
00842              25.00    11200.00
00843             -25.00    12000.00
00844              25.00    12800.00
00845             -25.00    12800.00
00846              24.40    14400.00
00847              25.00    14400.00
00848             -25.00    14400.00
00849              25.00    15200.00
00850             -10.40    16000.00
00851             -25.00    16000.00
00852              25.00    16800.00
00853             -10.60    17600.00
00854             -25.00    18400.00
00855              20.60    19200.00
00856              11.40    19200.00
00857             -25.00    19200.00
00858              25.00    20800.00
00859              -0.60    20800.00
00860             -15.80    21600.00
00861              25.00    21600.00
00862             -25.00    22400.00
00863               3.80    22400.00
00864               7.00    23200.00
00865             -12.60    24000.00
00866               3.80    24800.00
00867              11.60    24800.00
00868             -16.20    24000.00
00869               3.40    25600.00
00870               8.40    25600.00
00871             -19.60    25600.00
00872              11.60    26400.00
00873              -0.60    27200.00
00874              -7.40    27200.00
00875               4.40    27200.00
00876              -2.60    28000.00
00877              -3.60    28000.00
00878               0.40    28800.00
00879              -0.40    28800.00
00880              -3.40    28800.00
00881               0.60    29600.00
00882              -3.60    29600.00
00883              -2.60    30400.00
00884               2.60    30400.00
00885              -4.40    30400.00
00886              -1.00    31200.00
00887               2.00    31200.00
00888              -6.80    31200.00
00889              -1.40    31200.00
00890              -0.20    32000.00
00891              -6.20    32000.00
00892              -0.40    32800.00
00893              -0.40    32000.00
00894              -4.40    32800.00
00895              -2.80    32800.00
00896              -3.80    32000.00
00897              -3.60    32800.00
00898              -4.20    32800.00
00899              -3.80    32800.00
00900              -4.40    33600.00
00901              -5.20    32800.00
00902              -5.00    33600.00
00903              -7.40    33600.00
00904              -6.20    33600.00
00905              -8.60    32800.00
00906              -9.00    32800.00
00907              -7.60    32800.00
00908             -12.60    33600.00
00909             -11.60    33600.00
00910             -11.40    33600.00
00911             -14.00    32800.00
00912             -13.20    32800.00
00913             -15.40    32800.00
00914             -15.80    32800.00
00915             -17.00    32800.00
00916             -19.60    32800.00
00917             -23.00    32800.00
00918             -19.60    32000.00
00919              -8.40    32000.00
00920             -10.20    32800.00
00921             -13.00    32000.00
00922              -9.00    31200.00
00923              -7.80    31200.00
00924              -8.20    31200.00
00925              -7.60    31200.00
00926              -5.40    31200.00
00927              -5.40    30400.00
00928              -7.00    30400.00
00929              -3.60    30400.00
00930              -2.80    29600.00
00931              -5.00    28800.00
00932              -3.60    28800.00
00933              -2.20    28800.00
00934              -3.40    28800.00
00935              -3.00    28000.00
00936              -1.40    28000.00
00937              -2.20    28000.00
00938              -2.20    27200.00
00939              -0.60    27200.00
00940              -2.20    25600.00
00941              -2.20    25600.00
00942              -1.00    25600.00
00943              -1.80    24800.00
00944              -1.00    24800.00
00945              -1.20    24800.00
00946              -1.20    24000.00
00947              -0.60    24000.00
00948              -1.20    24000.00
00949              -0.80    23200.00
00950              -0.60    22400.00
00951              -1.00    21600.00
00952              -0.60    21600.00
00953              -1.20    21600.00
00954              -1.40    20800.00
00955              -1.20    20000.00
00956              -0.20    19200.00
00957              -0.20    18400.00
00958              -1.00    18400.00
00959              -0.60    17600.00
00960              -0.60    17600.00
00961              -1.00    17600.00
00962              -0.20    16000.00
00963              -0.60    16000.00
00964              -0.40    15200.00
00965              -0.60    14400.00
00966              -0.40    14400.00
00967              -0.40    13600.00
00968              -0.60    12800.00
00969              -0.60    12800.00
00970              -0.40    12000.00
00971              -0.80    11200.00
00972              -0.60    11200.00
00973              -0.80     9600.00
00974               0.40     9600.00
00975              -0.80     8800.00
00976              -0.40     8000.00
00977              -0.20     8000.00
00978              -0.60     7200.00
00979              -0.60     6400.00
00980               0.00     6400.00
00981              -0.60     5600.00
00982              -0.40     4800.00
00983              -0.20     4000.00
00984               0.20     4000.00
00985              -0.40     2400.00
00986              -0.60     2400.00
00987              -0.60     1600.00
00988               0.00     1600.00
00989              -0.40        0.00
00990               0.40        0.00
00991               0.60     -800.00
00992               3.60    -1600.00
00993               0.20    -1600.00
00994              -1.60    -1600.00
00995               1.20    -2400.00
00996               1.00    -3200.00
00997              -0.60    -4000.00
00998               2.60    -4000.00
00999              16.40    -4800.00
01000              24.20    -6400.00
01001             -25.00    -7200.00
01002             -25.00    -8000.00
01003              25.00    -8000.00
01004              -3.00    -8800.00
01005             -25.00    -8800.00
01006              25.00    -9600.00
01007              25.00   -10400.00
01008             -25.00    -9600.00
01009              25.00   -11200.00
01010              21.00   -11200.00
01011             -25.00   -12000.00
01012              25.00   -12800.00
01013             -18.80   -12800.00
01014              18.80   -13600.00
01015              -7.20   -14400.00
01016             -25.00   -14400.00
01017              25.00   -16000.00
01018             -25.00   -16000.00
01019             -17.00   -16800.00
01020              25.00   -16800.00
01021             -12.40   -17600.00
01022             -25.00   -18400.00
01023              25.00   -19200.00
01024              -0.20   -20000.00
01025             -25.00   -19200.00
01026              25.00   -20000.00
01027              -5.20   -20800.00
01028              -9.00   -20800.00
01029              12.80   -22400.00
01030             -10.20   -22400.00
01031               2.60   -22400.00
01032               2.60   -23200.00
01033              -4.20   -23200.00
01034               5.20   -24000.00
01035               5.20   -24000.00
01036             -10.60   -24800.00
01037               8.40   -25600.00
01038               2.00   -25600.00
01039             -10.80   -26400.00
01040              11.00   -26400.00
01041              -0.60   -26400.00
01042              -3.80   -27200.00
01043               5.20   -27200.00
01044               0.20   -28000.00
01045              -2.00   -28000.00
01046               3.00   -28000.00
01047               1.40   -28800.00
01048              -1.40   -28800.00
01049               3.40   -28800.00
01050              -0.20   -29600.00
01051               0.20   -29600.00
01052               3.40   -30400.00
01053              -0.60   -29600.00
01054               1.00   -31200.00
01055               2.60   -30400.00
01056               0.20   -30400.00
01057               1.80   -30400.00
01058               2.60   -31200.00
01059               1.00   -32000.00
01060               3.60   -32000.00
01061               1.40   -32000.00
01062               2.00   -32000.00
01063               3.40   -32000.00
01064               2.00   -32000.00
01065               4.20   -32000.00
01066               4.20   -32800.00
01067               3.60   -32000.00
01068               5.00   -32000.00
01069               5.80   -32800.00
01070               5.20   -32000.00
01071               6.40   -32000.00
01072               8.40   -32800.00
01073               7.60   -32800.00
01074               9.80   -32800.00
01075              11.00   -32800.00
01076              10.40   -32800.00
01077              13.20   -32800.00
01078              13.00   -32800.00
01079              13.20   -32000.00
01080              15.00   -32000.00
01081              15.40   -32000.00
01082              17.20   -32000.00
01083              21.20   -32000.00
01084              22.60   -32000.00
01085              14.00   -32000.00
01086               6.80   -32000.00
01087              11.40   -32000.00
01088              11.00   -30400.00
01089               6.80   -30400.00
01090               6.20   -31200.00
01091               8.40   -30400.00
01092               6.80   -30400.00
01093               3.60   -29600.00
01094               5.40   -30400.00
01095               5.80   -29600.00
01096               2.20   -28800.00
01097               2.80   -29600.00
01098               4.60   -28800.00
01099               1.80   -28800.00
01100               1.80   -28800.00
01101               3.40   -28000.00
01102               1.00   -28000.00
01103               0.60   -27200.00
01104               1.80   -27200.00
01105               1.00   -26400.00
01106               0.40   -26400.00
01107               1.20   -26400.00
01108               0.40   -25600.00
01109               0.80   -25600.00
01110               1.20   -24800.00
01111               0.40   -24000.00
01112               0.40   -24000.00
01113               0.40   -23200.00
01114               0.20   -23200.00
01115               0.40   -23200.00
01116               0.20   -22400.00
01117               0.00   -22400.00
01118               0.00   -20800.00
01119               0.00   -20800.00
01120              -0.40   -20800.00
01121              -0.40   -20000.00
01122               0.00   -18400.00
01123               0.20   -18400.00
01124               0.40   -18400.00
01125              -0.20   -17600.00
01126              -0.40   -17600.00
01127               0.20   -16800.00
01128              -0.20   -16000.00
01129              -0.20   -16000.00
01130               0.20   -16000.00
01131              -0.60   -14400.00
01132              -0.60   -13600.00
01133              -0.20   -13600.00
01134              -0.40   -12800.00
01135              -0.60   -12000.00
01136              -0.40   -12800.00
01137              -0.40   -11200.00
01138              -0.40   -10400.00
01139              -0.40    -9600.00
01140              -0.60    -9600.00
01141              -0.40    -9600.00
01142              -0.20    -8000.00
01143              -0.60    -8000.00
01144              -0.60    -7200.00
01145               0.20    -7200.00
01146              -1.00    -6400.00
01147              -0.20    -5600.00
01148               0.20    -4800.00
01149              -2.00    -4000.00
01150               0.20    -3200.00
01151               0.20    -3200.00
01152              -1.00    -2400.00
01153              -0.20    -1600.00
01154              -0.60    -1600.00
01155               0.20        0.00
01156              -0.60        0.00
01157              -1.20        0.00
01158               2.20      800.00
01159               2.80     1600.00
01160              -1.40     2400.00
01161               0.40     3200.00
01162               0.20     3200.00
01163              -0.40     3200.00
01164              -0.40     4800.00
01165              10.80     4800.00
01166              25.00     6400.00
01167             -25.00     8000.00
01168             -25.00     8000.00
01169              23.00     8000.00
01170               2.40     8000.00
01171             -25.00     8800.00
01172              25.00    10400.00
01173              -3.40    10400.00
01174             -25.00    10400.00
01175              25.00    11200.00
01176             -25.00    11200.00
01177               3.00    12800.00
01178              25.00    12800.00
01179             -25.00    12800.00
01180              25.00    14400.00
01181             -25.00    14400.00
01182             -14.00    15200.00
01183              25.00    16000.00
01184             -25.00    16000.00
01185              21.00    16800.00
01186              25.00    17600.00
01187             -25.00    17600.00
01188              -7.00    18400.00
01189              25.00    18400.00
01190             -23.40    19200.00
01191             -10.20    20000.00
01192              25.00    20000.00
01193             -25.00    21600.00
01194              15.20    21600.00
01195               2.20    21600.00
01196             -21.40    22400.00
01197              17.00    22400.00
01198              -6.00    24000.00
01199              -8.20    24000.00
01200              11.80    24800.00
01201              -1.20    24800.00
01202             -15.00    24800.00
01203              15.80    25600.00
01204              -9.40    25600.00
01205              -6.00    26400.00
01206              12.40    27200.00
01207             -11.00    27200.00
01208               1.00    27200.00
01209               2.60    28000.00
01210              -5.20    28000.00
01211              -1.00    28000.00
01212               2.20    28800.00
01213              -4.40    28800.00
01214              -2.00    29600.00
01215               0.60    29600.00
01216              -5.20    30400.00
01217               0.20    30400.00
01218               1.20    30400.00
01219              -4.80    31200.00
01220               1.00    30400.00
01221              -1.40    31200.00
01222              -5.20    31200.00
01223               1.00    32000.00
01224              -3.80    32000.00
01225              -3.40    32800.00
01226               0.60    32000.00
01227              -4.40    32800.00
01228              -3.40    32000.00
01229              -3.00    32800.00
01230              -4.40    32800.00
01231              -3.00    32800.00
01232              -3.80    33600.00
01233              -4.40    32800.00
01234              -5.40    32800.00
01235              -4.20    33600.00
01236              -6.60    32800.00
01237              -7.00    32800.00
01238              -6.00    32800.00
01239             -10.00    32800.00
01240              -7.40    32800.00
01241              -9.80    33600.00
01242             -13.00    32800.00
01243             -10.80    32800.00
01244             -13.40    33600.00
01245             -13.80    32800.00
01246             -14.20    32800.00
01247             -15.60    32800.00
01248             -16.20    33600.00
01249             -17.80    32000.00
01250             -21.20    32800.00
01251             -23.60    32000.00
01252             -14.00    32000.00
01253              -7.60    32800.00
01254             -12.40    32000.00
01255             -11.00    31200.00
01256              -7.80    32000.00
01257              -7.80    31200.00
01258              -8.20    31200.00
01259              -7.40    31200.00
01260              -4.60    30400.00
01261              -6.20    30400.00
01262              -5.80    30400.00
01263              -2.40    30400.00
01264              -4.60    28800.00
01265              -5.00    30400.00
01266              -2.20    28800.00
01267              -3.40    28800.00
01268              -3.20    28800.00
01269              -1.80    28000.00
01270              -2.20    28000.00
01271              -2.80    28000.00
01272              -1.20    27200.00
01273              -1.40    27200.00
01274              -3.00    26400.00
01275              -1.20    25600.00
01276              -1.00    25600.00
01277              -1.80    25600.00
01278              -0.60    24800.00
01279              -1.40    24800.00
01280              -0.60    24000.00
01281              -1.00    23200.00
01282              -1.40    22400.00
01283              -0.60    22400.00
01284              -1.60    21600.00
01285              -1.20    22400.00
01286               0.20    20800.00
01287              -0.60    20800.00
01288              -0.60    20800.00
01289              -0.60    19200.00
01290              -1.00    19200.00
01291              -1.20    18400.00
01292              -0.60    18400.00
01293              -0.60    17600.00
01294              -0.60    16800.00
01295              -0.20    16800.00
01296              -1.00    16000.00
01297              -0.40    15200.00
01298              -0.20    15200.00
01299              -1.00    14400.00
01300              -0.40    14400.00
01301              -0.40    13600.00
01302              -1.40    12800.00
01303              -0.40    12000.00
01304               0.20    12000.00
01305              -0.80    11200.00
01306              -1.00     9600.00
01307              -0.60     9600.00
01308              -0.60     8800.00
01309              -0.80     8800.00
01310              -0.20     8000.00
01311              -0.40     8000.00
01312              -0.80     7200.00
01313              -0.40     6400.00
01314              -0.40     5600.00
01315              -0.40     5600.00
01316              -0.40     4000.00
01317              -0.40     4000.00
01318              -0.40     3200.00
01319              -1.00     2400.00
01320              -1.00     1600.00
01321              -0.60     1600.00
01322               0.00     1600.00
01323               0.00        0.00
01324               0.20     -800.00
01325               1.80     -800.00
01326               3.40    -1600.00
01327              -2.00    -1600.00
01328              -0.20    -3200.00
01329               1.80    -3200.00
01330               0.40    -3200.00
01331              -0.40    -4000.00
01332               7.40    -4800.00
01333              25.00    -6400.00
01334              -0.40    -7200.00
01335             -25.00    -7200.00
01336               2.60    -8000.00
01337              25.00    -8000.00
01338             -25.00    -8800.00
01339             -14.80    -9600.00
01340              25.00    -9600.00
01341             -25.00    -9600.00
01342             -25.00   -11200.00
01343              25.00   -11200.00
01344             -25.00   -12000.00
01345              -2.80   -12800.00
01346              20.40   -12800.00
01347             -14.80   -13600.00
01348              25.00   -14400.00
01349             -25.00   -14400.00
01350              19.80   -14400.00
01351              25.00   -16000.00
01352             -25.00   -16000.00
01353              20.20   -16800.00
01354              23.60   -16800.00
01355             -25.00   -17600.00
01356              -1.20   -17600.00
01357              25.00   -19200.00
01358             -25.00   -19200.00
01359               2.60   -20000.00
01360              24.20   -20000.00
01361             -19.80   -20800.00
01362               8.20   -21600.00
01363               1.40   -21600.00
01364              -8.80   -22400.00
01365               6.80   -22400.00
01366              -0.20   -23200.00
01367              -2.80   -23200.00
01368               9.20   -24000.00
01369              -3.80   -24800.00
01370              -6.20   -25600.00
01371              12.40   -24800.00
01372              -8.60   -25600.00
01373               0.20   -26400.00
01374               9.00   -27200.00
01375              -6.00   -26400.00
01376               1.40   -27200.00
01377               3.60   -27200.00
01378              -2.60   -28000.00
01379               1.00   -28000.00
01380               3.60   -28800.00
01381              -1.80   -28800.00
01382               0.80   -28800.00
01383               2.20   -29600.00
01384              -1.80   -29600.00
01385               2.60   -29600.00
01386               2.00   -29600.00
01387              -1.00   -30400.00
01388               3.40   -30400.00
01389               1.00   -30400.00
01390              -0.60   -31200.00
01391               3.60   -31200.00
01392               0.60   -32000.00
01393               2.00   -32000.00
01394               4.40   -32000.00
01395               0.40   -32000.00
01396               2.60   -31200.00
01397               3.40   -32000.00
01398               2.00   -32000.00
01399               4.20   -32000.00
01400               4.40   -32000.00
01401               4.00   -32800.00
01402               4.60   -32000.00
01403               6.60   -32800.00
01404               5.20   -32800.00
01405               7.40   -32800.00
01406               8.60   -32000.00
01407               8.20   -32800.00
01408              11.20   -32800.00
01409              10.60   -32800.00
01410              11.20   -32000.00
01411              14.00   -32000.00
01412              13.00   -32800.00
01413              14.00   -32000.00
01414              15.40   -32000.00
01415              15.40   -32000.00
01416              18.60   -32000.00
01417              22.80   -32000.00
01418              20.20   -32000.00
01419               9.20   -32000.00
01420               9.00   -32000.00
01421              12.40   -32000.00
01422               9.00   -31200.00
01423               6.20   -30400.00
01424               7.80   -31200.00
01425               8.20   -30400.00
01426               5.20   -30400.00
01427               3.60   -29600.00
01428               6.00   -29600.00
01429               3.40   -29600.00
01430               2.20   -28800.00
01431               4.40   -28800.00
01432               3.20   -28800.00
01433               1.00   -28800.00
01434               2.80   -28000.00
01435               2.40   -27200.00
01436               0.60   -27200.00
01437               1.80   -27200.00
01438               2.20   -27200.00
01439               0.40   -26400.00
01440               1.00   -25600.00
01441               1.00   -25600.00
01442              -0.20   -24800.00
01443               1.00   -24000.00
01444               0.60   -24000.00
01445               0.20   -24000.00
01446               0.40   -24000.00
01447               0.20   -23200.00
01448               0.20   -22400.00
01449               0.20   -22400.00
01450               0.40   -22400.00
01451               0.20   -20800.00
01452              -0.40   -20800.00
01453               0.20   -20800.00
01454              -0.40   -20000.00
01455               0.20   -19200.00
01456              -0.40   -18400.00
01457              -0.20   -17600.00
01458              -0.20   -17600.00
01459              -0.40   -17600.00
01460              -0.60   -16800.00
01461               0.00   -16800.00
01462              -0.60   -16000.00
01463              -0.20   -15200.00
01464              -0.20   -14400.00
01465              -0.60   -14400.00
01466              -0.20   -13600.00
01467              -0.20   -13600.00
01468              -0.60   -12800.00
01469              -0.40   -12800.00
01470              -0.40   -11200.00
01471               0.20   -11200.00
01472              -0.40   -10400.00
01473              -0.40    -9600.00
01474              -0.40    -9600.00
01475              -0.60    -8800.00
01476              -0.40    -8000.00
01477              -0.40    -7200.00
01478              -0.40    -7200.00
01479              -0.60    -6400.00
01480              -0.20    -6400.00
01481              -0.40    -4800.00
01482              -0.40    -4000.00
01483              -0.20    -4000.00
01484              -0.40    -3200.00
01485              -0.40    -3200.00
01486              -0.40    -1600.00
01487              -0.20    -1600.00
01488              -0.60     -800.00
01489              -0.60     -800.00
01490               0.40        0.00
01491               0.40      800.00
01492               1.00     1600.00
01493               2.80     1600.00
01494              -2.20     2400.00
01495              -1.20     3200.00
01496               1.40     3200.00
01497              -0.20     4000.00
01498               2.60     4800.00
01499              24.00     6400.00
01500              19.40     7200.00
01501             -25.00     8000.00
01502             -10.80     8000.00
01503              25.00     8800.00
01504             -25.00     8000.00
01505              -0.40     9600.00
01506              25.00     9600.00
01507             -25.00     9600.00
01508              25.00    11200.00
01509              25.00    11200.00
01510             -25.00    12000.00
01511              25.00    12800.00
01512             -25.00    12800.00
01513              11.60    14400.00
01514              25.00    14400.00
01515             -25.00    14400.00
01516              25.00    16000.00
01517               3.80    16000.00
01518             -25.00    16000.00
01519              25.00    16800.00
01520              -5.20    17600.00
01521             -25.00    18400.00
01522              17.40    17600.00
01523              15.60    19200.00
01524             -25.00    20000.00
01525              25.00    20000.00
01526               5.20    20800.00
01527             -19.80    21600.00
01528              25.00    21600.00
01529             -23.00    22400.00
01530               1.20    22400.00
01531               8.60    23200.00
01532             -12.80    24000.00
01533               2.80    24000.00
01534              12.60    24800.00
01535             -15.00    24800.00
01536               0.40    25600.00
01537              10.80    25600.00
01538             -19.00    25600.00
01539               9.80    27200.00
01540               1.20    27200.00
01541              -8.40    27200.00
01542               5.40    27200.00
01543              -2.60    28000.00
01544              -4.40    28000.00
01545               1.40    28800.00
01546              -0.20    28800.00
01547              -4.40    28800.00
01548               1.20    29600.00
01549              -2.20    29600.00
01550              -4.40    30400.00
01551               3.00    30400.00
01552              -3.00    30400.00
01553              -3.00    31200.00
01554               2.00    31200.00
01555              -4.80    31200.00
01556              -2.60    31200.00
01557               0.40    31200.00
01558              -5.20    32000.00
01559              -0.60    32800.00
01560              -1.20    32800.00
01561              -4.40    32000.00
01562              -2.20    32800.00
01563              -4.20    32800.00
01564              -3.80    32800.00
01565              -3.40    32000.00
01566              -3.80    32800.00
01567              -5.20    32800.00
01568              -5.40    32800.00
01569              -4.40    32800.00
01570              -7.80    33600.00
01571              -6.20    32800.00
01572              -7.80    32800.00
01573              -9.40    33600.00
01574              -7.40    32800.00
01575             -12.60    33600.00
01576             -12.20    32800.00
01577             -11.80    33600.00
01578             -14.00    33600.00
01579             -13.40    32800.00
01580             -15.40    32800.00
01581             -16.00    32800.00
01582             -17.00    33600.00
01583             -19.00    32000.00
01584             -23.00    32800.00
01585             -20.60    32000.00
01586              -9.00    32000.00
01587              -9.40    32800.00
01588             -13.20    32000.00
01589              -9.20    31200.00
01590              -7.80    31200.00
01591              -8.20    31200.00
01592              -7.60    31200.00
01593              -6.00    31200.00
01594              -5.00    30400.00
01595              -7.00    30400.00
01596              -4.40    30400.00
01597              -2.80    28800.00
01598              -5.20    29600.00
01599              -4.20    28800.00
01600              -2.20    28800.00
01601              -3.00    28800.00
01602              -3.00    28800.00
01603              -1.20    28000.00
01604              -2.20    27200.00
01605              -2.80    27200.00
01606              -0.60    27200.00
01607              -2.00    27200.00
01608              -2.60    25600.00
01609              -0.40    25600.00
01610              -1.40    25600.00
01611              -1.20    24800.00
01612              -1.20    24800.00
01613              -1.20    24000.00
01614              -0.60    24000.00
01615              -1.60    22400.00
01616              -0.40    24000.00
01617              -0.60    22400.00
01618              -1.40    21600.00
01619              -0.20    22400.00
01620              -0.60    20800.00
01621              -1.00    20800.00
01622              -1.40    19200.00
01623              -0.60    19200.00
01624               0.20    19200.00
01625              -1.40    18400.00
01626              -0.60    18400.00
01627              -0.40    17600.00
01628              -1.00    16000.00
01629              -0.60    16000.00
01630              -0.60    16000.00
01631               0.40    15200.00
01632              -0.60    14400.00
01633              -4.60    14400.00
01634               6.00    12800.00
01635              -6.20    12800.00
01636              -0.60    12800.00
01637               1.40    12000.00
01638               2.00    11200.00
01639               6.20    11200.00
01640             -10.80     9600.00
01641               3.80     9600.00
01642              -1.40     8000.00
01643              -5.80     8800.00
01644               1.60     8000.00
01645              -1.40     7200.00
01646               2.40     6400.00
01647              -1.20     6400.00
01648               2.20     4800.00
01649              -1.80     4800.00
01650              -0.20     4000.00
01651               0.80     3200.00
01652              -4.60     3200.00
01653              -0.20     2400.00
01654              -2.20     1600.00
01655               2.60     1600.00
01656               0.20        0.00
01657              -2.00        0.00
01658               4.20     -800.00
01659               2.40     -800.00
01660               1.00    -1600.00
01661              -3.60    -1600.00
01662              -0.20    -3200.00
01663               1.80    -3200.00
01664              -2.00    -4000.00
01665               5.20    -4800.00
01666              15.40    -5600.00
01667              25.00    -7200.00
01668             -25.00    -7200.00
01669             -25.00    -8000.00
01670              23.40    -8000.00
01671               1.20    -8800.00
01672             -25.00    -8000.00
01673              25.00    -9600.00
01674              25.00    -9600.00
01675             -25.00   -10400.00
01676              25.00   -11200.00
01677              25.00   -11200.00
01678             -25.00   -12000.00
01679              25.00   -12800.00
01680             -15.60   -13600.00
01681              14.20   -13600.00
01682               0.20   -14400.00
01683             -25.00   -14400.00
01684              25.00   -15200.00
01685             -19.40   -16000.00
01686             -22.80   -16800.00
01687              25.00   -16800.00
01688              -7.80   -18400.00
01689             -25.00   -17600.00
01690              24.40   -18400.00
01691               5.80   -19200.00
01692             -25.00   -19200.00
01693              25.00   -20000.00
01694              -0.40   -20800.00
01695             -12.60   -20800.00
01696              13.60   -21600.00
01697              -9.60   -22400.00
01698               0.00   -22400.00
01699               5.00   -23200.00
01700              -3.80   -23200.00
01701               3.40   -24000.00
01702               7.40   -24000.00
01703             -10.60   -24000.00
01704               5.60   -25600.00
01705               4.20   -25600.00
01706             -11.40   -25600.00
01707               9.20   -26400.00
01708               0.40   -27200.00
01709              -4.20   -27200.00
01710               5.40   -27200.00
01711               1.00   -28000.00
01712              -2.20   -28000.00
01713               3.00   -28800.00
01714               0.40   -28800.00
01715              -1.40   -28800.00
01716               3.60   -29600.00
01717              -1.00   -29600.00
01718               0.40   -29600.00
01719               4.20   -30400.00
01720              -0.60   -30400.00
01721               1.00   -29600.00
01722               3.00   -30400.00
01723              -1.40   -31200.00
01724               2.20   -31200.00
01725               2.60   -31200.00
01726               0.40   -32000.00
01727               4.40   -32000.00
01728               2.80   -32000.00
01729               1.20   -32000.00
01730               3.00   -32000.00
01731               3.00   -32000.00
01732               2.80   -32000.00
01733               3.80   -32000.00
01734               5.00   -32000.00
01735               4.40   -32800.00
01736               5.40   -32800.00
01737               5.80   -32000.00
01738               6.20   -32800.00
01739               9.00   -32000.00
01740               7.00   -32800.00
01741              10.00   -32800.00
01742              11.80   -32800.00
01743               9.80   -32800.00
01744              13.40   -32000.00
01745              14.20   -32000.00
01746              12.40   -32000.00
01747              14.80   -32800.00
01748              15.40   -32000.00
01749              16.40   -32000.00
01750              20.20   -32000.00
01751              23.40   -32000.00
01752              14.80   -32000.00
01753               6.80   -32000.00
01754              11.60   -31200.00
01755              11.80   -31200.00
01756               6.80   -30400.00
01757               6.60   -30400.00
01758               8.40   -30400.00
01759               6.60   -30400.00
01760               3.60   -29600.00
01761               5.40   -29600.00
01762               6.20   -28800.00
01763               2.00   -29600.00
01764               2.60   -28800.00
01765               4.40   -28800.00
01766               1.40   -28800.00
01767               1.20   -28000.00
01768               3.60   -27200.00
01769               1.00   -27200.00
01770               0.40   -27200.00
01771               2.00   -27200.00
01772               1.20   -26400.00
01773               0.40   -26400.00
01774               1.40   -25600.00
01775               0.40   -25600.00
01776               0.00   -25600.00
01777               1.00   -24800.00
01778               0.40   -24800.00
01779               0.40   -24000.00
01780               0.40   -23200.00
01781               0.20   -23200.00
01782               0.20   -23200.00
01783              -0.40   -22400.00
01784              -0.20   -22400.00
01785               0.20   -21600.00
01786              -0.20   -20800.00
01787               0.20   -20000.00
01788              -0.20   -20000.00
01789              -0.60   -18400.00
01790              -0.60   -19200.00
01791               0.20   -17600.00
01792              -0.40   -17600.00
01793              -0.40   -16800.00
01794               0.20   -16800.00
01795              -0.60   -16000.00
01796              -0.40   -16000.00
01797              -0.20   -15200.00
01798              -0.60   -14400.00
01799              -0.20   -14400.00
01800              -0.40   -13600.00
01801              -0.20   -12800.00
01802              -0.40   -12800.00
01803              -0.60   -11200.00
01804               0.40   -11200.00
01805               0.00   -10400.00
01806              -0.60   -10400.00
01807              -0.20    -9600.00
01808              -0.20    -8800.00
01809              -0.60    -8800.00
01810              -0.40    -8000.00
01811              -0.40    -8000.00
01812              -0.40    -6400.00
01813              -0.60    -5600.00
01814              -0.20    -4800.00
01815              -0.60    -4800.00
01816              -0.40    -4000.00
01817              -0.20    -3200.00
01818              -0.40    -3200.00
01819              -0.40    -1600.00
01820              -0.20    -1600.00
01821              -0.60     -800.00
01822              -0.60     -800.00
01823               0.20        0.00
01824              -0.20      800.00
01825               0.40     1600.00
01826               3.20     1600.00
01827              -0.20     2400.00
01828              -2.00     3200.00
01829               0.60     3200.00
01830               0.60     4000.00
01831              -1.00     4800.00
01832               9.40     5600.00
01833              25.00     6400.00
01834             -21.20     8000.00
01835             -25.00     8000.00
01836              20.40     8000.00
01837               9.40     8800.00
01838             -25.00     8000.00
01839              25.00     9600.00
01840              13.40     9600.00
01841             -25.00    11200.00
01842              25.00    11200.00
01843             -25.00    11200.00
01844             -12.80    12800.00
01845              25.00    12800.00
01846             -25.00    12800.00
01847              25.00    14400.00
01848             -25.00    14400.00
01849             -25.00    15200.00
01850              25.00    16000.00
01851             -25.00    16000.00
01852              10.60    16800.00
01853              25.00    17600.00
01854             -25.00    18400.00
01855             -11.80    18400.00
01856              25.00    19200.00
01857             -16.60    19200.00
01858             -17.20    20000.00
01859              25.00    20800.00
01860             -25.00    20800.00
01861               9.80    21600.00
01862               7.40    21600.00
01863             -22.60    22400.00
01864              16.20    23200.00
01865              -4.20    24000.00
01866              -8.40    24000.00
01867              10.60    24000.00
01868               1.20    24800.00
01869             -16.40    24800.00
01870              14.80    25600.00
01871              -6.80    25600.00
01872              -8.60    25600.00
01873              13.00    27200.00
01874             -10.00    27200.00
01875               0.20    27200.00
01876               3.60    27200.00
01877              -4.60    28000.00
01878              -1.20    28800.00
01879               2.60    28800.00
01880              -3.80    28800.00
01881              -2.00    28800.00
01882               1.20    29600.00
01883              -5.00    29600.00
01884               0.00    29600.00
01885               1.80    30400.00
01886              -5.20    30400.00
01887               0.40    31200.00
01888              -0.60    31200.00
01889              -5.40    31200.00
01890               0.60    31200.00
01891              -3.00    32000.00
01892              -4.00    32000.00
01893               0.80    32800.00
01894              -3.80    32000.00
01895              -3.40    32000.00
01896              -2.80    32800.00
01897              -4.40    32800.00
01898              -3.40    32800.00
01899              -3.80    32800.00
01900              -4.40    32000.00
01901              -5.80    33600.00
01902              -4.40    32800.00
01903              -6.20    33600.00
01904              -7.40    33600.00
01905              -6.20    33600.00
01906              -9.80    33600.00
01907              -7.80    33600.00
01908              -9.40    33600.00
01909             -13.40    32800.00
01910             -11.00    32800.00
01911             -13.20    33600.00
01912             -14.00    33600.00
01913             -14.00    33600.00
01914             -15.60    32800.00
01915             -16.00    32800.00
01916             -17.80    32800.00
01917             -21.00    32800.00
01918             -23.60    32000.00
01919             -15.00    32800.00
01920              -7.40    32000.00
01921             -12.40    32000.00
01922             -11.40    31200.00
01923              -8.20    32000.00
01924              -7.60    31200.00
01925              -7.80    31200.00
01926              -7.00    31200.00
01927              -4.60    31200.00
01928              -6.00    30400.00
01929              -6.20    30400.00
01930              -2.60    30400.00
01931              -3.80    29600.00
01932              -5.40    28800.00
01933              -2.60    28800.00
01934              -2.20    28800.00
01935              -3.60    28800.00
01936              -2.20    28000.00
01937              -1.40    28000.00
01938              -2.80    27200.00
01939              -1.60    27200.00
01940              -0.60    27200.00
01941              -2.40    26400.00
01942              -1.40    25600.00
01943              -0.60    25600.00
01944              -1.00    24800.00
01945              -1.20    24800.00
01946              -1.80    24000.00
01947              -0.60    24000.00
01948              -1.20    24000.00
01949              -1.40    23200.00
01950              -0.60    23200.00
01951              -0.80    22400.00
01952              -0.80    21600.00
01953              -1.00    21600.00
01954              -0.60    20800.00
01955              -0.60    20000.00
01956              -1.00    19200.00
01957               0.00    19200.00
01958              -0.40    18400.00
01959              -1.20    18400.00
01960              -0.60    17600.00
01961              -0.60    16800.00
01962              -1.00    16000.00
01963              -0.80    16000.00
01964              -0.60    15200.00
01965              -1.20    14400.00
01966              -0.60    14400.00
01967              -0.40    14400.00
01968              -1.00    13600.00
01969              -1.00    12800.00
01970              -0.40    12000.00
01971              -0.40    11200.00
01972              -0.60    11200.00
01973              -1.00    10400.00
01974              -0.60     9600.00
01975              -0.40     9600.00
01976              -1.20     8800.00
01977              -0.40     8800.00
01978              -1.00     8000.00
01979              -1.00     6400.00
01980              -0.20     6400.00
01981              -0.60     5600.00
01982              -0.60     5600.00
01983              -0.20     4800.00
01984              -0.40     4000.00
01985              -0.20     3200.00
01986              -0.60     2400.00
01987              -0.60     2400.00
01988              -0.20     1600.00
01989              -0.20      800.00
01990              -0.60        0.00
01991               0.40        0.00
01992               1.80     -800.00
01993               3.00     -800.00
01994              -1.20    -2400.00
01995              -0.40    -2400.00
01996               1.20    -3200.00
01997               0.80    -3200.00
01998              -0.60    -4000.00
01999               6.40    -4800.00
02000              24.60    -4800.00
02001               5.40    -7200.00
02002             -25.00    -8000.00
02003              -2.20    -8000.00
02004              25.00    -8000.00
02005             -25.00    -8000.00
02006             -21.60    -8800.00
02007              25.00    -9600.00
02008             -23.00   -10400.00
02009             -25.00   -11200.00
02010              25.00   -11200.00
02011             -25.00   -11200.00
02012             -12.40   -12800.00
02013              25.00   -13600.00
02014             -18.60   -13600.00
02015              25.00   -14400.00
02016             -25.00   -14400.00
02017              12.40   -16000.00
02018              25.00   -16000.00
02019             -25.00   -16000.00
02020              14.80   -16800.00
02021              25.00   -17600.00
02022             -25.00   -18400.00
02023              -5.80   -18400.00
02024              25.00   -19200.00
02025             -25.00   -19200.00
02026              -3.00   -20000.00
02027              25.00   -20000.00
02028             -19.00   -20800.00
02029               5.20   -21600.00
02030               3.80   -22400.00
02031              -9.80   -22400.00
02032               6.20   -22400.00
02033               0.40   -23200.00
02034              -3.60   -24000.00
02035               8.60   -24000.00
02036              -2.40   -24000.00
02037              -7.60   -24000.00
02038              12.40   -25600.00
02039              -7.40   -25600.00
02040              -2.00   -26400.00
02041               9.80   -26400.00
02042              -6.00   -27200.00
02043               0.20   -27200.00
02044               4.20   -27200.00
02045              -2.20   -27200.00
02046               0.60   -27200.00
02047               4.00   -28800.00
02048              -2.00   -28800.00
02049               0.60   -28800.00
02050               2.80   -29600.00
02051              -2.00   -29600.00
02052               2.60   -29600.00
02053               2.60   -30400.00
02054              -1.20   -30400.00
02055               3.20   -30400.00
02056               1.80   -31200.00
02057              -1.20   -30400.00
02058               3.60   -31200.00
02059               1.60   -31200.00
02060               1.40   -32000.00
02061               4.40   -32000.00
02062               1.20   -32000.00
02063               2.60   -32000.00
02064               3.40   -32000.00
02065               2.60   -32000.00
02066               4.00   -32000.00
02067               4.60   -32000.00
02068               4.00   -32000.00
02069               4.60   -32800.00
02070               6.80   -32800.00
02071               5.00   -32800.00
02072               7.20   -32000.00
02073               9.00   -32800.00
02074               7.60   -32800.00
02075              11.00   -32800.00
02076              11.40   -32800.00
02077              11.00   -32000.00
02078              14.00   -32800.00
02079              13.40   -32000.00
02080              14.00   -32800.00
02081              15.00   -32000.00
02082              15.60   -32800.00
02083              18.20   -32000.00
02084              22.20   -32000.00
02085              20.80   -32000.00
02086              10.00   -31200.00
02087               8.20   -32000.00
02088              12.40   -31200.00
02089               9.00   -31200.00
02090               6.40   -31200.00
02091               7.60   -30400.00
02092               8.20   -30400.00
02093               5.40   -29600.00
02094               3.60   -29600.00
02095               5.80   -29600.00
02096               4.20   -29600.00
02097               1.80   -29600.00
02098               3.60   -29600.00
02099               3.60   -28800.00
02100               1.00   -28000.00
02101               2.20   -28800.00
02102               2.80   -28000.00
02103               0.40   -27200.00
02104               1.20   -27200.00
02105               2.00   -27200.00
02106               0.20   -26400.00
02107               1.00   -25600.00
02108               0.80   -26400.00
02109               0.20   -24800.00
02110               1.00   -25600.00
02111               0.60   -24000.00
02112              -0.20   -24000.00
02113               0.60   -24000.00
02114              -0.20   -24000.00
02115               0.20   -23200.00
02116               0.40   -22400.00
02117              -0.40   -21600.00
02118               0.20   -20800.00
02119               0.40   -20800.00
02120              -0.40   -20000.00
02121              -0.40   -20000.00
02122               0.20   -20000.00
02123              -0.60   -18400.00
02124               0.20   -18400.00
02125               0.40   -17600.00
02126              -0.40   -17600.00
02127              -0.20   -16800.00
02128               0.20   -16800.00
02129              -0.60   -16000.00
02130               0.40   -16000.00
02131              -0.40   -14400.00
02132              -1.00   -14400.00
02133               0.40   -13600.00
02134              -0.40   -13600.00
02135              -0.60   -12800.00
02136              -0.20   -12800.00
02137              -0.40   -11200.00
02138              -0.40   -11200.00
02139               0.20   -10400.00
02140              -0.60    -9600.00
02141              -0.40    -9600.00
02142               0.20    -8800.00
02143              -0.20    -8000.00
02144              -0.40    -7200.00
02145              -0.20    -7200.00
02146              -0.60    -7200.00
02147              -0.40    -5600.00
02148              -0.40    -5600.00
02149              -1.00    -4800.00
02150              -0.40    -4000.00
02151              -0.20    -3200.00
02152              -0.60    -2400.00
02153              -0.20    -1600.00
02154              -0.20    -1600.00
02155              -0.80     -800.00
02156               0.20        0.00
02157               0.40        0.00
02158              -0.40        0.00
02159               1.60     1600.00
02160               3.20     1600.00
02161              -3.40     2400.00
02162              -0.40     3200.00
02163               1.20     3200.00
02164              -1.20     3200.00
02165               1.40     4000.00
02166              21.20     5600.00
02167              24.20     7200.00
02168             -25.00     7200.00
02169             -16.60     8000.00
02170              25.00     8000.00
02171             -25.00     8800.00
02172             -10.40     8800.00
02173              25.00    10400.00
02174             -25.00     9600.00
02175              17.80    11200.00
02176              25.00    11200.00
02177             -25.00    12000.00
02178              25.00    12800.00
02179             -25.00    12800.00
02180              -2.00    13600.00
02181              25.00    14400.00
02182             -25.00    14400.00
02183              25.00    15200.00
02184              18.20    16000.00
02185             -25.00    16000.00
02186              25.00    16800.00
02187               2.00    17600.00
02188             -25.00    17600.00
02189              13.20    18400.00
02190              19.40    19200.00
02191             -25.00    19200.00
02192              20.20    20000.00
02193              11.80    20800.00
02194             -23.80    21600.00
02195              25.00    21600.00
02196             -21.00    21600.00
02197              -2.60    22400.00
02198              10.80    23200.00
02199             -11.40    24000.00
02200               2.00    24000.00
02201              12.80    24000.00
02202             -12.60    24800.00
02203              -2.00    25600.00
02204              11.80    25600.00
02205             -18.20    25600.00
02206               8.00    26400.00
02207               2.80    27200.00
02208              -9.00    27200.00
02209               5.40    27200.00
02210              -1.80    28000.00
02211              -4.00    28000.00
02212               0.60    28800.00
02213               0.40    28800.00
02214              -4.60    28800.00
02215               0.40    29600.00
02216              -1.00    29600.00
02217              -3.60    29600.00
02218               2.00    30400.00
02219              -2.00    30400.00
02220              -3.40    30400.00
02221               1.00    31200.00
02222              -4.20    31200.00
02223              -2.60    30400.00
02224               0.20    32000.00
02225              -5.00    32000.00
02226              -0.40    32800.00
02227              -1.20    32800.00
02228              -4.40    32000.00
02229              -2.80    32800.00
02230              -4.60    32000.00
02231              -3.80    32800.00
02232              -3.40    33600.00
02233              -3.80    32800.00
02234              -4.20    32800.00
02235              -5.20    32800.00
02236              -4.60    33600.00
02237              -8.00    33600.00
02238              -6.60    33600.00
02239              -8.20    32800.00
02240              -9.80    32800.00
02241              -7.00    33600.00
02242             -12.00    33600.00
02243             -12.20    32800.00
02244             -11.40    32000.00
02245             -14.20    33600.00
02246             -13.40    33600.00
02247             -15.40    32800.00
02248             -16.40    32800.00
02249             -16.40    33600.00
02250             -18.80    32000.00
02251             -22.80    32800.00
02252             -20.80    32000.00
02253              -9.20    32800.00
02254              -9.20    32000.00
02255             -13.40    31200.00
02256              -9.40    32000.00
02257              -8.20    31200.00
02258              -8.40    31200.00
02259              -7.40    31200.00
02260              -6.00    30400.00
02261              -4.60    30400.00
02262              -6.20    30400.00
02263              -4.40    29600.00
02264              -2.20    29600.00
02265              -5.40    29600.00
02266              -4.40    29600.00
02267              -2.00    28800.00
02268              -3.00    28800.00
02269              -3.40    28000.00
02270              -1.00    28000.00
02271              -2.20    27200.00
02272              -2.80    27200.00
02273              -0.60    27200.00
02274              -2.20    27200.00
02275              -2.80    26400.00
02276              -0.40    25600.00
02277              -1.20    25600.00
02278              -1.00    24800.00
02279              -0.40    24800.00
02280              -1.60    24000.00
02281              -1.00    24000.00
02282              -1.00    24000.00
02283              -0.80    22400.00
02284              -1.00    22400.00
02285              -1.20    21600.00
02286              -0.60    21600.00
02287              -1.00    21600.00
02288              -1.00    21600.00
02289              -1.20    20000.00
02290              -0.60    19200.00
02291              -0.40    18400.00
02292              -1.00    18400.00
02293              -0.40    17600.00
02294              -1.20    17600.00
02295              -0.60    16800.00
02296               0.00    16000.00
02297              -1.20    16000.00
02298              -1.00    15200.00
02299              -0.40    14400.00
02300              -1.00    14400.00
02301              -0.60    13600.00
02302              -0.60    12800.00
02303              -1.20    12800.00
02304              -0.20    12000.00
02305              -0.40    11200.00
02306              -0.80    11200.00
02307              -1.00     9600.00
02308               0.20     9600.00
02309              -1.20     8800.00
02310              -0.60     8000.00
02311              -0.40     8000.00
02312              -0.60     7200.00
02313              -0.60     6400.00
02314              -0.40     6400.00
02315              -0.60     4800.00
02316              -0.60     4800.00
02317              -1.00     4000.00
02318              -0.20     3200.00
02319              -0.20     2400.00
02320              -1.00     2400.00
02321              -0.60     1600.00
02322               0.20     1600.00
02323              -0.60      800.00
02324               0.20        0.00
02325               0.60        0.00
02326               2.60     -800.00
02327               1.00    -1600.00
02328              -1.80    -1600.00
02329               1.20    -2400.00
02330               1.20    -3200.00
02331              -0.20    -3200.00
02332               1.80    -4000.00
02333              13.20    -4800.00
02334              25.00    -6400.00
02335             -25.00    -7200.00
02336             -25.00    -8000.00
02337              22.60    -8000.00
02338               7.60    -8800.00
02339             -25.00    -8000.00
02340              25.00    -9600.00
02341              25.00   -10400.00
02342             -25.00    -9600.00
02343              25.00   -11200.00
02344              25.00   -11200.00
02345             -25.00   -12000.00
02346              25.00   -12800.00
02347              -9.80   -12800.00
02348               9.80   -13600.00
02349               6.60   -14400.00
02350             -25.00   -14400.00
02351              25.00   -16000.00
02352             -12.20   -16000.00
02353             -25.00   -16800.00
02354              25.00   -16800.00
02355              -2.00   -17600.00
02356             -25.00   -17600.00
02357              20.60   -18400.00
02358              11.00   -19200.00
02359             -25.00   -20000.00
02360              24.20   -20800.00
02361               4.20   -20000.00
02362             -14.80   -20800.00
02363              14.00   -22400.00
02364              -8.40   -22400.00
02365              -1.60   -22400.00
02366               5.20   -23200.00
02367              -3.80   -24000.00
02368               2.00   -24000.00
02369               8.60   -24000.00
02370             -10.40   -24800.00
02371               4.20   -25600.00
02372               6.80   -25600.00
02373             -12.20   -25600.00
02374               8.60   -26400.00
02375               2.20   -26400.00
02376              -5.40   -27200.00
02377               4.20   -27200.00
02378               1.00   -28000.00
02379              -2.80   -27200.00
02380               3.20   -28000.00
02381               1.80   -28800.00
02382              -2.00   -28800.00
02383               3.40   -29600.00
02384               0.40   -29600.00
02385              -0.40   -29600.00
02386               3.80   -30400.00
02387               0.20   -30400.00
02388               0.40   -30400.00
02389               3.60   -30400.00
02390              -0.60   -30400.00
02391               1.20   -30400.00
02392               3.40   -31200.00
02393               0.40   -32000.00
02394               4.00   -32000.00
02395               2.60   -32000.00
02396               1.40   -32000.00
02397               3.40   -32000.00
02398               2.60   -32000.00
02399               3.60   -32000.00
02400               4.40   -32000.00
02401               4.20   -32000.00
02402               4.40   -32000.00
02403               6.20   -32800.00
02404               5.80   -32000.00
02405               5.80   -32800.00
02406               8.60   -32800.00
02407               7.40   -32800.00
02408               9.20   -32800.00
02409              11.60   -32800.00
02410              10.20   -32000.00
02411              12.60   -32800.00
02412              13.80   -32800.00
02413              13.20   -32800.00
02414              14.80   -32800.00
02415              15.40   -32000.00
02416              16.60   -32000.00
02417              20.20   -32000.00
02418              23.00   -32000.00
02419              15.80   -32000.00
02420               6.80   -30400.00
02421              11.20   -32000.00
02422              11.40   -31200.00
02423               6.80   -31200.00
02424               6.40   -30400.00
02425               8.40   -30400.00
02426               7.00   -30400.00
02427               3.80   -30400.00
02428               4.60   -29600.00
02429               6.20   -29600.00
02430               2.00   -29600.00
02431               1.80   -29600.00
02432               5.20   -28800.00
02433               2.40   -28800.00
02434               0.60   -28000.00
02435               2.40   -28800.00
02436               2.20   -27200.00
02437               0.40   -27200.00
02438               1.40   -27200.00
02439               2.00   -26400.00
02440              -0.20   -26400.00
02441               1.00   -25600.00
02442               1.00   -25600.00
02443               0.40   -25600.00
02444              -0.20   -24000.00
02445               0.20   -24800.00
02446               1.00   -24000.00
02447               0.00   -23200.00
02448              -1.00   -23200.00
02449               1.40   -22400.00
02450               0.60   -22400.00
02451              -1.00   -22400.00
02452               0.20   -20800.00
02453               0.60   -20800.00
02454              -1.20   -20800.00
02455              -0.40   -19200.00
02456               0.60   -19200.00
02457              -1.20   -18400.00
02458               0.20   -18400.00
02459               1.20   -17600.00
02460              -1.40   -17600.00
02461              -0.40   -16800.00
02462               0.60   -16000.00
02463              -0.40   -15200.00
02464              -0.40   -14400.00
02465              -0.20   -14400.00
02466               0.00   -14400.00
02467               0.20   -13600.00
02468              -0.60   -12800.00
02469              -0.60   -12800.00
02470              -0.20   -11200.00
02471              -0.40   -11200.00
02472              -0.60   -11200.00
02473              -0.20    -9600.00
02474              -0.40   -10400.00
02475              -0.60    -9600.00
02476              -0.20    -8000.00
02477              -0.40    -7200.00
02478              -0.60    -7200.00
02479               0.40    -6400.00
02480              -0.40    -6400.00
02481              -0.60    -5600.00
02482              -0.40    -4800.00
02483              -0.60    -4000.00
02484              -0.60    -3200.00
02485              -0.60    -3200.00
02486              -0.60    -2400.00
02487              -0.60    -1600.00
02488              -0.60     -800.00
02489              -0.60     -800.00
02490              -0.40        0.00
02491              -0.20      800.00
02492               0.20     1600.00
02493               3.00     1600.00
02494               0.40     1600.00
02495              -2.60     2400.00
02496               0.40     3200.00
02497               0.60     3200.00
02498              -2.20     4800.00
02499               7.80     5600.00
02500              25.00     6400.00
02501             -14.80     8000.00
02502             -25.00     8000.00
02503              16.40     8000.00
02504              14.80     8800.00
02505             -25.00     8800.00
02506              25.00     9600.00
02507              25.00     9600.00
02508             -25.00    10400.00
02509              25.00    11200.00
02510             -25.00    11200.00
02511             -25.00    12800.00
02512              25.00    12800.00
02513             -25.00    12800.00
02514              25.00    14400.00
02515             -18.20    14400.00
02516             -25.00    15200.00
02517              25.00    16000.00
02518             -25.00    16000.00
02519               0.40    16800.00
02520              25.00    16800.00
02521             -25.00    18400.00
02522             -14.60    18400.00
02523              25.00    19200.00
02524             -10.80    20000.00
02525             -23.00    20800.00
02526              25.00    20800.00
02527             -23.60    20800.00
02528               4.60    21600.00
02529              11.80    22400.00
02530             -24.20    22400.00
02531              14.80    22400.00
02532              -2.60    23200.00
02533              -9.00    24000.00
02534               9.20    24000.00
02535               3.60    24800.00
02536             -16.60    24800.00
02537              13.00    25600.00
02538              -3.40    25600.00
02539             -11.00    25600.00
02540              13.20    26400.00
02541              -8.20    27200.00
02542              -1.20    27200.00
02543               3.60    28000.00
02544              -3.80    27200.00
02545              -2.60    28000.00
02546               2.00    28800.00
02547              -2.60    28800.00
02548              -3.20    29600.00
02549               1.20    29600.00
02550              -4.20    30400.00
02551              -1.20    30400.00
02552               2.00    30400.00
02553              -4.60    30400.00
02554              -0.40    30400.00
02555              -0.40    31200.00
02556              -5.80    31200.00
02557               0.20    31200.00
02558              -2.20    32000.00
02559              -4.40    31200.00
02560               0.60    32800.00
02561              -3.60    32800.00
02562              -3.80    32800.00
02563              -2.80    32800.00
02564              -4.60    32000.00
02565              -3.40    32800.00
02566              -3.80    32800.00
02567              -4.00    32800.00
02568              -5.80    33600.00
02569              -4.40    32800.00
02570              -5.80    33600.00
02571              -8.40    33600.00
02572              -5.40    33600.00
02573              -9.40    33600.00
02574              -8.80    32800.00
02575              -8.60    32800.00
02576             -13.20    32800.00
02577             -11.40    33600.00
02578             -13.20    33600.00
02579             -14.00    32800.00
02580             -14.00    32800.00
02581             -15.60    33600.00
02582             -15.80    33600.00
02583             -17.40    32800.00
02584             -20.20    32000.00
02585             -23.80    32800.00
02586             -15.60    32800.00
02587              -7.00    32800.00
02588             -12.00    31200.00
02589             -11.40    32000.00
02590              -7.80    32000.00
02591              -7.80    32800.00
02592              -8.00    31200.00
02593              -7.60    31200.00
02594              -5.00    31200.00
02595              -5.60    30400.00
02596              -6.20    30400.00
02597              -2.80    29600.00
02598              -3.60    30400.00
02599              -5.00    29600.00
02600              -2.60    28800.00
02601              -2.40    28800.00
02602              -3.40    28000.00
02603              -2.00    28800.00
02604              -1.40    28000.00
02605              -2.80    27200.00
02606              -1.60    28000.00
02607              -1.00    27200.00
02608              -2.80    26400.00
02609              -1.40    25600.00
02610              -0.60    25600.00
02611              -1.40    25600.00
02612              -1.00    24800.00
02613              -1.20    24000.00
02614              -1.20    24000.00
02615              -0.80    24000.00
02616              -1.20    23200.00
02617              -1.00    22400.00
02618              -1.20    22400.00
02619              -1.00    21600.00
02620              -0.60    21600.00
02621              -1.40    20800.00
02622              -1.00    20000.00
02623              -1.00    19200.00
02624              -0.80    19200.00
02625              -0.40    18400.00
02626              -0.60    18400.00
02627              -1.20    17600.00
02628              -1.20    17600.00
02629               0.20    16000.00
02630              -0.60    16000.00
02631              -1.80    16000.00
02632              -0.20    15200.00
02633              -0.40    14400.00
02634              -1.40    14400.00
02635              -0.60    13600.00
02636              -0.20    12800.00
02637              -1.20    12000.00
02638              -0.40    12000.00
02639               0.40    11200.00
02640              -1.40    10400.00
02641              -1.00     9600.00
02642               1.20     9600.00
02643              -1.40     8000.00
02644              -1.00     8000.00
02645               0.40     8000.00
02646              -0.40     6400.00
02647              -1.20     6400.00
02648              -0.20     5600.00
02649               0.40     5600.00
02650              -1.00     4800.00
02651              -1.00     4000.00
02652               0.60     3200.00
02653              -0.60     3200.00
02654              -2.00     2400.00
02655               0.40     1600.00
02656               0.40      800.00
02657              -1.20        0.00
02658               0.60        0.00
02659               2.00     -800.00
02660               2.60    -1600.00
02661              -1.20    -1600.00
02662               0.20    -1600.00
02663               1.20    -3200.00
02664               0.80    -3200.00
02665               0.00    -4000.00
02666               5.80    -4000.00
02667              22.60    -5600.00
02668              10.40    -7200.00
02669             -25.00    -8000.00
02670              -8.20    -8000.00
02671              25.00    -8000.00
02672             -25.00    -8000.00
02673             -25.00    -8000.00
02674              25.00   -10400.00
02675              -9.00    -9600.00
02676             -25.00   -10400.00
02677              25.00   -12000.00
02678             -25.00   -11200.00
02679             -21.20   -12800.00
02680              25.00   -13600.00
02681             -21.20   -13600.00
02682              25.00   -14400.00
02683             -25.00   -14400.00
02684               4.40   -14400.00
02685              25.00   -16000.00
02686             -25.00   -16000.00
02687               8.20   -16800.00
02688              25.00   -16800.00
02689             -25.00   -17600.00
02690             -10.40   -18400.00
02691              25.00   -18400.00
02692             -21.00   -19200.00
02693              -8.40   -20000.00
02694              25.00   -20000.00
02695             -17.20   -20800.00
02696               2.80   -21600.00
02697               5.80   -22400.00
02698             -10.80   -22400.00
02699               6.00   -23200.00
02700               0.60   -23200.00
02701              -4.40   -24000.00
02702               8.40   -24000.00
02703              -0.60   -24000.00
02704              -9.00   -24800.00
02705              12.40   -25600.00
02706              -5.80   -25600.00
02707              -3.80   -26400.00
02708              10.60   -26400.00
02709              -5.40   -26400.00
02710              -0.60   -27200.00
02711               4.40   -27200.00
02712              -1.80   -28000.00
02713               0.40   -28000.00
02714               3.20   -28800.00
02715              -1.40   -28800.00
02716               0.40   -29600.00
02717               2.60   -29600.00
02718              -1.60   -29600.00
02719               2.20   -29600.00
02720               3.60   -30400.00
02721              -0.80   -30400.00
02722               2.20   -30400.00
02723               3.40   -30400.00
02724              -1.20   -31200.00
02725               2.20   -30400.00
02726               3.00   -31200.00
02727               0.60   -32000.00
02728               3.60   -32000.00
02729               2.60   -32000.00
02730               2.00   -32000.00
02731               2.20   -32000.00
02732               3.60   -32000.00
02733               4.20   -32800.00
02734               3.40   -32800.00
02735               5.20   -32000.00
02736               4.20   -32800.00
02737               6.60   -32800.00
02738               6.00   -32800.00
02739               6.60   -32800.00
02740               9.20   -32800.00
02741               8.20   -32800.00
02742              10.00   -32000.00
02743              11.40   -32800.00
02744              11.00   -32800.00
02745              13.00   -32800.00
02746              14.00   -32800.00
02747              14.40   -32000.00
02748              14.20   -32800.00
02749              15.80   -32000.00
02750              18.20   -32000.00
02751              21.40   -32000.00
02752              21.40   -32000.00
02753              10.60   -32000.00
02754               7.40   -31200.00
02755              12.60   -31200.00
02756               9.80   -30400.00
02757               5.80   -31200.00
02758               8.20   -30400.00
02759               8.20   -31200.00
02760               4.60   -30400.00
02761               3.80   -30400.00
02762               6.20   -29600.00
02763               3.40   -28800.00
02764               2.60   -28800.00
02765               4.20   -29600.00
02766               3.60   -28800.00
02767               0.80   -28800.00
02768               2.20   -28000.00
02769               3.80   -27200.00
02770              -0.60   -27200.00
02771               0.60   -27200.00
02772               3.40   -27200.00
02773               0.20   -26400.00
02774               0.00   -26400.00
02775               2.20   -25600.00
02776               0.20   -26400.00
02777              -0.60   -24800.00
02778               2.00   -24000.00
02779               0.60   -24000.00
02780              -1.00   -24000.00
02781              -0.20   -23200.00
02782               0.80   -23200.00
02783               0.20   -22400.00
02784              -0.40   -22400.00
02785               1.40   -21600.00
02786               1.00   -20800.00
02787              -0.80   -20800.00
02788              -0.20   -20000.00
02789               0.20   -20000.00
02790              -1.00   -18400.00
02791              -0.40   -18400.00
02792               1.20   -18400.00
02793              -0.60   -17600.00
02794              -0.40   -16800.00
02795               0.60   -16800.00
02796              -0.40   -16000.00
02797               0.20   -15200.00
02798              -0.20   -14400.00
02799              -0.20   -14400.00
02800              -0.20   -13600.00
02801              -0.60   -13600.00
02802               0.00   -12800.00
02803               0.40   -12800.00
02804              -0.60   -12000.00
02805               0.20   -11200.00
02806              -0.20   -11200.00
02807              -1.00   -10400.00
02808              -1.00    -9600.00
02809              -0.20    -8800.00
02810               0.20    -8800.00
02811              -0.60    -8000.00
02812              -0.20    -7200.00
02813              -0.40    -6400.00
02814              -0.60    -5600.00
02815              -0.40    -4800.00
02816              -0.40    -4000.00
02817              -0.60    -4000.00
02818              -0.40    -3200.00
02819              -0.40    -2400.00
02820              -0.60    -1600.00
02821              -0.40    -1600.00
02822              -0.40     -800.00
02823              -0.40        0.00
02824              -0.20     -800.00
02825               0.00      800.00
02826               0.60     1600.00
02827               3.20     1600.00
02828              -2.20     2400.00
02829              -1.20     3200.00
02830               1.20     3200.00
02831              -0.40     3200.00
02832               0.40     4800.00
02833              18.60     5600.00
02834              25.00     7200.00
02835             -25.00     8000.00
02836             -23.00     8000.00
02837              25.00     8000.00
02838             -21.20     8800.00
02839             -18.80     9600.00
02840              25.00     9600.00
02841             -25.00     9600.00
02842               3.40    11200.00
02843              25.00    11200.00
02844             -25.00    12000.00
02845              25.00    12800.00
02846             -15.60    12800.00
02847             -15.00    13600.00
02848              25.00    14400.00
02849             -25.00    14400.00
02850              25.00    16000.00
02851              25.00    16000.00
02852             -25.00    16000.00
02853              25.00    17600.00
02854               8.40    17600.00
02855             -25.00    18400.00
02856               9.20    18400.00
02857              22.60    19200.00
02858             -25.00    19200.00
02859              14.00    20800.00
02860              18.00    21600.00
02861             -25.00    22400.00
02862              25.00    21600.00
02863             -17.20    22400.00
02864              -6.80    22400.00
02865              13.20    24000.00
02866             -11.00    24000.00
02867              -0.40    24000.00
02868              13.80    24800.00
02869             -11.00    24800.00
02870              -6.20    24800.00
02871              14.20    25600.00
02872             -17.20    25600.00
02873               5.00    26400.00
02874               6.20    27200.00
02875             -10.20    27200.00
02876               4.60    28000.00
02877              -1.20    28000.00
02878              -5.00    28000.00
02879               1.80    28000.00
02880               0.20    28800.00
02881              -4.80    28800.00
02882               1.20    28800.00
02883              -1.80    29600.00
02884              -5.00    29600.00
02885               2.40    30400.00
02886              -1.80    30400.00
02887              -4.60    30400.00
02888               2.00    31200.00
02889              -3.80    31200.00
02890              -3.60    31200.00
02891               0.60    32000.00
02892              -5.40    32000.00
02893              -1.20    32800.00
02894              -0.60    32800.00
02895              -4.40    32800.00
02896              -2.20    32000.00
02897              -4.20    32800.00
02898              -4.20    33600.00
02899              -3.20    32000.00
02900              -4.40    33600.00
02901              -5.20    33600.00
02902              -5.60    32800.00
02903              -4.40    33600.00
02904              -7.60    32800.00
02905              -6.00    33600.00
02906              -7.00    32800.00
02907              -9.40    33600.00
02908              -6.80    33600.00
02909             -11.80    33600.00
02910             -12.40    32800.00
02911             -11.20    32800.00
02912             -14.60    32800.00
02913             -13.20    33600.00
02914             -14.80    32800.00
02915             -15.80    33600.00
02916             -16.20    32800.00
02917             -18.60    33600.00
02918             -22.80    32000.00
02919             -21.40    32000.00
02920             -10.20    32000.00
02921              -8.40    32000.00
02922             -12.60    32000.00
02923              -9.80    32000.00
02924              -7.40    32000.00
02925              -7.60    31200.00
02926              -7.80    31200.00
02927              -6.60    31200.00
02928              -4.80    31200.00
02929              -6.20    30400.00
02930              -4.60    30400.00
02931              -2.80    30400.00
02932              -4.60    30400.00
02933              -4.20    28800.00
02934              -2.00    28800.00
02935              -3.00    28800.00
02936              -3.00    28000.00
02937              -1.40    28000.00
02938              -2.00    28000.00
02939              -2.80    27200.00
02940              -0.60    27200.00
02941              -1.60    27200.00
02942              -2.40    27200.00
02943              -0.80    25600.00
02944              -1.40    25600.00
02945              -1.40    24800.00
02946              -1.00    24800.00
02947              -1.60    24800.00
02948              -1.20    24000.00
02949              -1.00    23200.00
02950              -0.60    22400.00
02951              -1.20    22400.00
02952              -1.00    22400.00
02953              -1.00    21600.00
02954              -1.00    20800.00
02955              -0.80    20800.00
02956              -1.20    20000.00
02957              -0.80    19200.00
02958               0.20    19200.00
02959              -1.20    18400.00
02960              -1.20    18400.00
02961              -0.60    17600.00
02962              -1.00    17600.00
02963              -0.60    16000.00
02964              -1.00    16000.00
02965              -0.60    16000.00
02966              -1.00    15200.00
02967              -0.60    14400.00
02968              -0.40    13600.00
02969              -1.00    12800.00
02970              -1.00    12800.00
02971              -0.40    12000.00
02972              -0.40    11200.00
02973              -0.60    11200.00
02974              -0.80    10400.00
02975              -0.20    10400.00
02976              -0.60     8800.00
02977              -1.00     8800.00
02978              -0.20     8000.00
02979              -1.00     8000.00
02980              -0.80     7200.00
02981              -0.20     5600.00
02982              -0.60     5600.00
02983               0.00     5600.00
02984              -0.40     4000.00
02985              -0.20     3200.00
02986              -0.20     3200.00
02987              -0.60     2400.00
02988              -0.60     1600.00
02989               0.20     1600.00
02990              -0.40      800.00
02991              -0.20        0.00
02992               0.60     -800.00
02993               2.60    -1600.00
02994               1.40    -1600.00
02995              -1.80    -1600.00
02996               1.00    -2400.00
02997               1.20    -2400.00
02998              -0.20    -4000.00
02999               1.60    -4000.00
03000              12.20    -4800.00
03001              25.00    -6400.00
03002             -23.80    -7200.00
03003             -25.00    -8000.00
03004              19.60    -8000.00
03005              11.80    -8000.00
03006             -25.00    -8000.00
03007              19.00    -8800.00
03008              25.00   -10400.00
03009             -25.00    -9600.00
03010              23.40   -11200.00
03011              25.00   -11200.00
03012             -25.00   -12000.00
03013              25.00   -12800.00
03014              -4.20   -12800.00
03015               4.40   -13600.00
03016              12.20   -14400.00
03017             -25.00   -15200.00
03018              25.00   -16000.00
03019              -4.60   -16000.00
03020             -25.00   -16800.00
03021              25.00   -16800.00
03022               2.60   -17600.00
03023             -25.00   -17600.00
03024              17.00   -18400.00
03025              15.80   -19200.00
03026             -25.00   -20000.00
03027              21.20   -20000.00
03028               8.40   -20800.00
03029             -16.80   -20800.00
03030              14.00   -21600.00
03031              -7.00   -22400.00
03032              -3.00   -23200.00
03033               6.00   -23200.00
03034              -3.80   -23200.00
03035               1.20   -24000.00
03036               9.20   -24000.00
03037             -10.20   -24000.00
03038               3.00   -24800.00
03039               7.40   -25600.00
03040             -13.20   -25600.00
03041               8.60   -26400.00
03042               3.40   -26400.00
03043              -5.80   -27200.00
03044               4.40   -27200.00
03045               1.80   -27200.00
03046              -1.80   -27200.00
03047               1.60   -28000.00
03048               2.40   -28800.00
03049              -0.60   -28800.00
03050               1.80   -28800.00
03051               1.20   -29600.00
03052               0.40   -29600.00
03053               2.60   -29600.00
03054               0.20   -29600.00
03055               0.40   -30400.00
03056               3.80   -30400.00
03057              -0.60   -30400.00
03058               2.00   -31200.00
03059               4.20   -31200.00
03060              -1.00   -32000.00
03061               3.60   -31200.00
03062               3.60   -32000.00
03063               0.40   -32000.00
03064               3.80   -32000.00
03065               3.40   -32000.00
03066               2.20   -32000.00
03067               4.60   -32000.00
03068               4.40   -32000.00
03069               3.80   -32000.00
03070               6.80   -32800.00
03071               6.00   -32800.00
03072               4.60   -32000.00
03073               9.00   -32000.00
03074               7.60   -32800.00
03075               8.40   -32800.00
03076              13.00   -32800.00
03077              10.40   -32800.00
03078              11.80   -32800.00
03079              14.00   -32800.00
03080              12.40   -32000.00
03081              14.60   -32000.00
03082              15.60   -32000.00
03083              16.00   -32000.00
03084              19.60   -32000.00
03085              23.60   -32000.00
03086              16.20   -31200.00
03087               7.40   -32000.00
03088              10.80   -32000.00
03089              11.00   -31200.00
03090               7.60   -32000.00
03091               6.60   -30400.00
03092               8.20   -30400.00
03093               7.40   -30400.00
03094               4.40   -29600.00
03095               4.40   -30400.00
03096               6.00   -29600.00
03097               2.80   -28800.00
03098               1.80   -28800.00
03099               4.40   -28800.00
03100               2.00   -28800.00
03101               0.40   -28000.00
03102               3.40   -28000.00
03103               2.00   -27200.00
03104               0.60   -27200.00
03105               2.00   -27200.00
03106               1.80   -27200.00
03107               0.20   -26400.00
03108               1.20   -26400.00
03109               0.80   -25600.00
03110               0.40   -25600.00
03111               1.00   -24000.00
03112               0.40   -24000.00
03113               0.40   -24000.00
03114              -0.20   -24000.00
03115              -0.20   -23200.00
03116               1.00   -23200.00
03117               0.20   -22400.00
03118              -0.60   -22400.00
03119               0.60   -20800.00
03120               0.20   -20800.00
03121              -0.20   -20000.00
03122               0.20   -20000.00
03123              -0.20   -19200.00
03124              -0.20   -18400.00
03125               0.20   -18400.00
03126              -0.40   -17600.00
03127              -0.20   -17600.00
03128               0.20   -16800.00
03129              -0.80   -16000.00
03130               0.20   -16000.00
03131               0.20   -15200.00
03132              -1.00   -14400.00
03133               0.20   -14400.00
03134               0.20   -13600.00
03135              -0.80   -12800.00
03136              -0.20   -12800.00
03137              -0.40   -12800.00
03138              -1.00   -11200.00
03139              -0.20   -11200.00
03140              -0.60   -10400.00
03141              -0.60    -9600.00
03142              -0.40    -9600.00
03143              -0.60    -8800.00
03144              -0.60    -8000.00
03145              -0.60    -7200.00
03146              -0.60    -7200.00
03147              -0.60    -6400.00
03148              -0.60    -5600.00
03149              -0.40    -4000.00
03150              -0.40    -4800.00
03151              -0.60    -3200.00
03152              -0.60    -3200.00
03153              -0.60    -2400.00
03154              -0.80    -2400.00
03155              -1.00    -1600.00
03156              -0.60     -800.00
03157               0.40        0.00
03158              -0.20        0.00
03159              -1.00     1600.00
03160               2.80     1600.00
03161               1.00     2400.00
03162              -2.80     2400.00
03163               1.00     3200.00
03164               1.20     3200.00
03165              -2.20     4000.00
03166               7.40     4800.00
03167              25.00     7200.00
03168              -8.40     7200.00
03169             -25.00     8000.00
03170              12.20     8000.00
03171              18.80     8000.00
03172             -25.00     8800.00
03173              25.00     9600.00
03174              25.00     9600.00
03175             -25.00    10400.00
03176              25.00    11200.00
03177             -12.20    11200.00
03178             -25.00    12000.00
03179              25.00    12800.00
03180             -25.00    12800.00
03181              25.00    14400.00
03182              -3.00    14400.00
03183             -25.00    15200.00
03184              25.00    15200.00
03185             -25.00    16000.00
03186             -10.20    16000.00
03187              25.00    17600.00
03188             -25.00    17600.00
03189             -17.80    18400.00
03190              25.00    19200.00
03191              -6.00    19200.00
03192             -25.00    20800.00
03193              25.00    20000.00
03194             -19.60    21600.00
03195               0.40    21600.00
03196              16.20    21600.00
03197             -25.00    22400.00
03198              13.40    22400.00
03199              -0.20    24000.00
03200             -10.60    24000.00
03201               9.00    24800.00
03202               5.80    25600.00
03203             -17.40    24800.00
03204              11.60    24800.00
03205              -1.20    25600.00
03206             -14.20    26400.00
03207              13.40    25600.00
03208              -7.00    27200.00
03209              -3.00    27200.00
03210               4.20    27200.00
03211              -3.80    28000.00
03212              -2.80    28000.00
03213               2.20    28800.00
03214              -2.60    28800.00
03215              -3.00    28800.00
03216               1.60    28800.00
03217              -4.40    30400.00
03218              -1.80    29600.00
03219               2.20    30400.00
03220              -5.00    30400.00
03221              -1.00    31200.00
03222               0.40    30400.00
03223              -6.20    31200.00
03224              -0.40    31200.00
03225              -1.80    32000.00
03226              -4.60    32000.00
03227               0.40    32000.00
03228              -2.80    32800.00
03229              -3.80    32800.00
03230              -2.80    32000.00
03231              -4.40    33600.00
03232              -3.00    32800.00
03233              -3.60    32800.00
03234              -4.40    32800.00
03235              -5.60    32800.00
03236              -4.60    32800.00
03237              -6.00    32800.00
03238              -8.20    33600.00
03239              -5.80    32800.00
03240              -9.40    33600.00
03241              -7.80    32800.00
03242              -8.00    33600.00
03243             -12.60    33600.00
03244             -11.00    33600.00
03245             -12.60    33600.00
03246             -14.00    32800.00
03247             -13.60    32800.00
03248             -15.60    32800.00
03249             -15.60    32000.00
03250             -17.40    32800.00
03251             -20.40    32800.00
03252             -23.60    32000.00
03253             -16.60    32000.00
03254              -7.00    32000.00
03255             -11.00    31200.00
03256             -12.20    32000.00
03257              -8.20    31200.00
03258              -7.60    31200.00
03259              -8.20    31200.00
03260              -7.00    31200.00
03261              -4.60    30400.00
03262              -5.80    30400.00
03263              -6.60    30400.00
03264              -3.00    29600.00
03265              -3.40    29600.00
03266              -5.20    29600.00
03267              -2.80    28800.00
03268              -2.20    28800.00
03269              -3.40    28000.00
03270              -2.60    28000.00
03271              -1.40    28000.00
03272              -2.80    27200.00
03273              -2.00    27200.00
03274              -0.60    26400.00
03275              -2.60    26400.00
03276              -1.80    25600.00
03277              -0.60    25600.00
03278              -1.80    25600.00
03279              -0.80    24800.00
03280              -1.20    24000.00
03281              -1.40    24800.00
03282              -1.00    23200.00
03283              -1.00    23200.00
03284              -1.20    22400.00
03285              -1.20    22400.00
03286              -0.60    21600.00
03287              -0.60    21600.00
03288              -1.20    20800.00
03289              -1.00    20800.00
03290              -1.00    19200.00
03291              -0.40    19200.00
03292              -0.60    19200.00
03293              -1.00    18400.00
03294              -0.60    17600.00
03295              -0.60    17600.00
03296              -0.40    16800.00
03297              -1.00    16000.00
03298              -0.60    16000.00
03299              -0.60    15200.00
03300              -0.60    14400.00
03301              -0.60    14400.00
03302              -0.80    13600.00
03303              -1.00    12800.00
03304              -0.20    12000.00
03305               0.20    12000.00
03306              -0.60    11200.00
03307              -0.60    11200.00
03308              -0.20     9600.00
03309              -0.60     8800.00
03310              -1.00     8800.00
03311               0.20     8000.00
03312              -0.80     8000.00
03313              -1.00     7200.00
03314               0.00     6400.00
03315              -0.60     5600.00
03316              -0.40     4800.00
03317              -0.20     4800.00
03318              -0.40     4000.00
03319              -0.20     3200.00
03320               0.20     3200.00
03321              -0.60     2400.00
03322              -0.40     1600.00
03323               0.20      800.00
03324              -0.20      800.00
03325               0.20        0.00
03326               1.20     -800.00
03327               3.60     -800.00
03328              -1.20    -1600.00
03329              -0.20    -2400.00
03330               1.20    -3200.00
03331               1.20    -3200.00
03332              -0.60    -4000.00
03333               5.00    -4800.00
03334              21.60    -5600.00
03335              14.80    -7200.00
03336             -25.00    -7200.00
03337             -12.40    -8000.00
03338              25.00    -8000.00
03339             -20.40    -8800.00
03340             -25.00    -8000.00
03341              25.00    -9600.00
03342               3.00    -9600.00
03343             -25.00   -10400.00
03344              25.00   -11200.00
03345             -17.20   -12000.00
03346             -25.00   -12800.00
03347              25.00   -12800.00
03348             -22.80   -12800.00
03349              25.00   -14400.00
03350             -25.00   -14400.00
03351              -2.80   -15200.00
03352              25.00   -16000.00
03353             -25.00   -16000.00
03354               2.60   -16800.00
03355              25.00   -16800.00
03356             -24.60   -17600.00
03357             -14.00   -18400.00
03358              25.00   -19200.00
03359             -17.00   -19200.00
03360             -13.00   -20000.00
03361              25.00   -20000.00
03362             -15.40   -20800.00
03363               0.40   -21600.00
03364               8.40   -22400.00
03365             -11.20   -22400.00
03366               5.80   -23200.00
03367               2.00   -23200.00
03368              -4.60   -24000.00
03369               7.40   -24000.00
03370               1.20   -24000.00
03371              -9.80   -24000.00
03372              11.80   -25600.00
03373              -3.80   -25600.00
03374              -6.00   -25600.00
03375              11.00   -26400.00
03376              -4.60   -26400.00
03377              -1.00   -27200.00
03378               5.40   -27200.00
03379              -1.60   -27200.00
03380              -0.40   -28000.00
03381               4.40   -28000.00
03382              -1.20   -28800.00
03383              -0.60   -28800.00
03384               3.60   -28800.00
03385              -1.80   -29600.00
03386               2.00   -29600.00
03387               3.60   -30400.00
03388              -1.20   -29600.00
03389               2.60   -30400.00
03390               2.60   -30400.00
03391              -1.00   -30400.00
03392               2.80   -31200.00
03393               2.20   -30400.00
03394               1.00   -31200.00
03395               4.20   -32000.00
03396               1.40   -32000.00
03397               2.60   -32000.00
03398               3.00   -32000.00
03399               2.60   -32000.00
03400               3.80   -32000.00
03401               4.00   -32800.00
03402               4.20   -32800.00
03403               4.60   -32800.00
03404               6.60   -32800.00
03405               5.40   -32000.00
03406               6.80   -32800.00
03407               8.60   -32800.00
03408               7.60   -32000.00
03409              10.20   -32800.00
03410              11.00   -32800.00
03411              10.60   -32800.00
03412              13.40   -32800.00
03413              13.40   -32800.00
03414              13.80   -32800.00
03415              15.00   -32800.00
03416              15.40   -32000.00
03417              17.40   -32000.00
03418              21.80   -32000.00
03419              21.80   -32000.00
03420              11.00   -32000.00
03421               7.60   -32000.00
03422              12.20   -31200.00
03423               9.80   -31200.00
03424               6.60   -30400.00
03425               7.40   -31200.00
03426               8.20   -30400.00
03427               6.20   -30400.00
03428               3.80   -30400.00
03429               6.00   -29600.00
03430               5.60   -29600.00
03431               2.00   -28800.00
03432               3.20   -28800.00
03433               4.40   -28800.00
03434               0.80   -28000.00
03435               1.80   -28000.00
03436               3.80   -27200.00
03437               1.00   -27200.00
03438               0.80   -27200.00
03439               2.00   -27200.00
03440               0.40   -26400.00
03441               1.00   -26400.00
03442               1.00   -25600.00
03443               0.40   -25600.00
03444               2.00   -24800.00
03445               0.60   -24000.00
03446              -0.20   -24000.00
03447               1.20   -24000.00
03448               0.20   -23200.00
03449              -0.40   -23200.00
03450               0.40   -22400.00
03451               0.40   -22400.00
03452              -0.20   -21600.00
03453               0.00   -20800.00
03454               0.80   -20800.00
03455               0.40   -19200.00
03456              -0.20   -19200.00
03457              -0.20   -19200.00
03458               0.20   -18400.00
03459               0.20   -17600.00
03460              -0.60   -17600.00
03461               0.20   -16800.00
03462               0.20   -16800.00
03463              -0.60   -16000.00
03464               0.20   -16000.00
03465              -0.20   -15200.00
03466              -0.60   -14400.00
03467              -0.20   -14400.00
03468              -1.00   -13600.00
03469              -0.40   -12800.00
03470               0.00   -12800.00
03471              -0.20   -12000.00
03472               0.40   -11200.00
03473               0.00   -10400.00
03474              -0.60   -10400.00
03475              -1.00    -9600.00
03476              -0.60    -9600.00
03477              -0.20    -8000.00
03478              -0.60    -7200.00
03479              -0.20    -7200.00
03480               0.40    -6400.00
03481              -0.80    -6400.00
03482              -1.00    -4800.00
03483              -0.20    -4800.00
03484              -0.60    -4000.00
03485              -0.80    -3200.00
03486              -0.40    -2400.00
03487              -0.40    -2400.00
03488              -0.80    -1600.00
03489              -1.00     -800.00
03490              -0.40        0.00
03491              -0.20        0.00
03492              -0.20        0.00
03493               0.40     1600.00
03494               3.60     2400.00
03495              -2.20     2400.00
03496              -1.20     3200.00
03497               1.40     3200.00
03498              -0.20     4000.00
03499               0.40     4800.00
03500              16.40     5600.00
03501              25.00     7200.00
03502             -25.00     7200.00
03503             -25.00     8000.00
03504              25.00     8000.00
03505             -15.00     8800.00
03506             -25.00     8800.00
03507              25.00    10400.00
03508             -25.00     9600.00
03509             -10.80    11200.00
03510              25.00    11200.00
03511             -25.00    11200.00
03512              25.00    12800.00
03513              -3.00    12800.00
03514             -25.00    13600.00
03515              25.00    14400.00
03516             -25.00    14400.00
03517              25.00    15200.00
03518              25.00    16000.00
03519             -25.00    16000.00
03520              25.00    17600.00
03521              15.00    17600.00
03522             -25.00    18400.00
03523               5.40    18400.00
03524              25.00    19200.00
03525             -25.00    19200.00
03526               8.80    20000.00
03527              22.80    20800.00
03528             -25.00    21600.00
03529              24.60    21600.00
03530             -13.40    22400.00
03531             -10.00    22400.00
03532              14.80    22400.00
03533             -10.00    24000.00
03534              -2.20    24000.00
03535              13.20    24000.00
03536              -8.60    24800.00
03537              -8.40    25600.00
03538              15.40    25600.00
03539             -16.60    26400.00
03540               2.60    27200.00
03541               7.60    27200.00
03542             -11.00    27200.00
03543               3.40    28000.00
03544               0.00    28000.00
03545              -5.40    28000.00
03546               0.00    28800.00
03547               2.00    28800.00
03548              -5.00    28800.00
03549              -0.20    28800.00
03550              -0.40    30400.00
03551              -5.20    29600.00
03552               1.20    30400.00
03553              -0.60    30400.00
03554              -4.20    30400.00
03555               1.40    31200.00
03556              -3.60    31200.00
03557              -3.80    31200.00
03558               0.60    32000.00
03559              -5.20    31200.00
03560              -2.00    32000.00
03561              -0.20    32000.00
03562              -4.40    32800.00
03563              -2.60    32000.00
03564              -3.40    32800.00
03565              -3.80    32800.00
03566              -3.00    32800.00
03567              -3.80    32800.00
03568              -5.00    32800.00
03569              -5.20    32800.00
03570              -4.40    32800.00
03571              -7.60    32800.00
03572              -6.20    33600.00
03573              -7.00    33600.00
03574              -9.80    32800.00
03575              -6.80    33600.00
03576             -11.00    32800.00
03577             -12.40    33600.00
03578             -11.00    33600.00
03579             -14.00    33600.00
03580             -13.40    33600.00
03581             -14.40    32000.00
03582             -15.00    32800.00
03583             -16.40    33600.00
03584             -18.80    32800.00
03585             -22.00    32800.00
03586             -22.40    32800.00
03587             -11.40    32800.00
03588              -7.80    32000.00
03589             -12.80    32000.00
03590              -9.40    32000.00
03591              -7.00    32000.00
03592              -8.40    31200.00
03593              -8.20    31200.00
03594              -6.20    30400.00
03595              -4.80    30400.00
03596              -6.20    30400.00
03597              -5.00    30400.00
03598              -3.00    29600.00
03599              -4.40    29600.00
03600              -4.40    28800.00
03601              -2.20    28800.00
03602              -2.60    28800.00
03603              -3.40    28000.00
03604              -2.00    28000.00
03605              -2.00    28000.00
03606              -2.80    27200.00
03607              -1.00    27200.00
03608              -1.40    27200.00
03609              -2.60    25600.00
03610              -1.00    25600.00
03611              -1.20    25600.00
03612              -1.80    24800.00
03613              -0.80    24800.00
03614              -1.40    24000.00
03615              -1.00    24000.00
03616              -1.00    24000.00
03617              -1.20    23200.00
03618              -1.00    22400.00
03619              -1.20    22400.00
03620              -0.60    21600.00
03621              -1.00    21600.00
03622              -1.00    20000.00
03623              -1.20    20000.00
03624              -0.60    19200.00
03625              -0.40    19200.00
03626              -1.00    18400.00
03627              -0.40    18400.00
03628              -0.60    17600.00
03629              -1.00    16800.00
03630               0.40    16000.00
03631              -1.00    16000.00
03632              -0.60    15200.00
03633              -0.40    15200.00
03634              -0.60    14400.00
03635              -0.60    13600.00
03636              -0.60    12800.00
03637              -1.00    12800.00
03638              -0.40    12000.00
03639               0.00    11200.00
03640              -0.20    11200.00
03641              -0.60    10400.00
03642               0.20     9600.00
03643              -0.40     9600.00
03644              -0.60     8800.00
03645              -0.40     8000.00
03646               0.20     6400.00
03647              -1.20     7200.00
03648              -0.40     6400.00
03649               0.40     5600.00
03650              -0.60     4800.00
03651              -0.80     4800.00
03652               0.20     4000.00
03653              -0.60     3200.00
03654              -0.60     2400.00
03655              -0.40     2400.00
03656               0.20     1600.00
03657              -0.60      800.00
03658               0.20        0.00
03659               1.20     -800.00
03660               2.20     -800.00
03661               1.40    -1600.00
03662              -1.20    -1600.00
03663               0.60    -2400.00
03664               0.60    -3200.00
03665              -0.20    -3200.00
03666               1.20    -4000.00
03667              10.20    -4800.00
03668              25.00    -6400.00
03669             -17.20    -7200.00
03670             -25.00    -8000.00
03671              15.40    -8000.00
03672              16.80    -8800.00
03673             -25.00    -8000.00
03674              10.00    -9600.00
03675              25.00    -9600.00
03676             -25.00   -10400.00
03677              10.80   -11200.00
03678              25.00   -11200.00
03679             -25.00   -12000.00
03680              21.20   -12800.00
03681               0.20   -13600.00
03682               0.40   -14400.00
03683              17.00   -14400.00
03684             -25.00   -14400.00
03685              25.00   -16000.00
03686               3.80   -16000.00
03687             -25.00   -16000.00
03688              25.00   -16800.00
03689               8.40   -17600.00
03690             -25.00   -18400.00
03691              13.00   -18400.00
03692              19.60   -19200.00
03693             -25.00   -20000.00
03694              17.80   -20000.00
03695              12.40   -20800.00
03696             -18.20   -20800.00
03697              14.00   -20800.00
03698              -5.80   -22400.00
03699              -4.40   -22400.00
03700               6.60   -23200.00
03701              -3.40   -23200.00
03702               0.20   -24000.00
03703               9.80   -24000.00
03704              -9.20   -24000.00
03705               0.40   -24800.00
03706              10.00   -25600.00
03707             -12.20   -25600.00
03708               6.20   -26400.00
03709               5.20   -26400.00
03710              -6.20   -27200.00
03711               3.40   -27200.00
03712               2.00   -27200.00
03713              -2.60   -28000.00
03714               2.60   -28000.00
03715               2.60   -28800.00
03716              -2.20   -28800.00
03717               2.80   -28800.00
03718               0.60   -28800.00
03719              -1.20   -29600.00
03720               3.60   -30400.00
03721               1.00   -29600.00
03722               0.00   -30400.00
03723               3.80   -30400.00
03724              -0.20   -31200.00
03725               0.40   -31200.00
03726               3.20   -30400.00
03727               0.40   -32000.00
03728               3.00   -31200.00
03729               3.00   -32000.00
03730               1.20   -32000.00
03731               2.80   -32000.00
03732               2.80   -32800.00
03733               3.00   -32000.00
03734               4.20   -32800.00
03735               4.20   -32000.00
03736               4.40   -32800.00
03737               5.80   -32800.00
03738               6.00   -32800.00
03739               5.20   -32800.00
03740               8.40   -32800.00
03741               8.40   -32800.00
03742               7.80   -32800.00
03743              11.40   -32800.00
03744              10.20   -32000.00
03745              11.60   -32000.00
03746              13.80   -32000.00
03747              13.20   -32800.00
03748              14.00   -32800.00
03749              15.00   -32000.00
03750              16.40   -32800.00
03751              19.40   -32000.00
03752              22.80   -32000.00
03753              18.00   -32000.00
03754               7.40   -32000.00
03755              10.20   -31200.00
03756              12.20   -30400.00
03757               7.60   -32000.00
03758               6.60   -31200.00
03759               7.80   -30400.00
03760               7.00   -29600.00
03761               5.20   -29600.00
03762               4.40   -29600.00
03763               6.00   -29600.00
03764               3.00   -28800.00
03765               2.20   -29600.00
03766               4.60   -28800.00
03767               2.60   -28800.00
03768               0.80   -28800.00
03769               3.00   -28000.00
03770               2.00   -27200.00
03771               0.40   -27200.00
03772               2.00   -27200.00
03773               1.80   -26400.00
03774               0.20   -26400.00
03775               1.40   -25600.00
03776               0.60   -25600.00
03777               0.60   -25600.00
03778               1.20   -24000.00
03779               0.80   -24800.00
03780               0.40   -24000.00
03781               0.60   -23200.00
03782               0.00   -23200.00
03783               0.60   -23200.00
03784               0.20   -22400.00
03785              -0.20   -22400.00
03786               0.60   -20800.00
03787              -0.20   -20800.00
03788              -0.20   -20800.00
03789               0.20   -20000.00
03790              -0.40   -19200.00
03791              -0.20   -18400.00
03792               0.40   -18400.00
03793               0.00   -17600.00
03794              -0.40   -17600.00
03795               0.00   -16800.00
03796              -0.40   -16800.00
03797              -0.40   -16000.00
03798               0.20   -14400.00
03799              -0.40   -14400.00
03800              -0.40   -13600.00
03801              -0.20   -13600.00
03802              -0.60   -12800.00
03803              -0.20   -12800.00
03804              -0.40   -12000.00
03805              -0.40   -11200.00
03806              -0.20   -11200.00
03807              -0.40   -10400.00
03808              -0.60    -9600.00
03809              -0.60    -8800.00
03810              -0.60    -8000.00
03811              -0.60    -8000.00
03812              -0.60    -8000.00
03813              -0.20    -7200.00
03814              -0.80    -6400.00
03815              -0.60    -5600.00
03816               0.40    -4800.00
03817              -0.60    -4000.00
03818              -1.00    -4000.00
03819               0.20    -3200.00
03820              -0.40    -3200.00
03821              -0.60    -1600.00
03822              -0.60     -800.00
03823              -0.60     -800.00
03824              -0.20        0.00
03825               0.00      800.00
03826               0.20      800.00
03827               2.60     1600.00
03828               1.40     2400.00
03829              -2.40     2400.00
03830               0.00     2400.00
03831               1.20     3200.00
03832              -1.20     4000.00
03833               5.80     4800.00
03834              25.00     6400.00
03835              -1.40     7200.00
03836             -25.00     8000.00
03837               7.00     8000.00
03838              22.80     8800.00
03839             -25.00     8800.00
03840              25.00     9600.00
03841              25.00     9600.00
03842             -25.00    10400.00
03843              25.00    11200.00
03844               1.80    11200.00
03845             -25.00    12000.00
03846              25.00    12800.00
03847             -25.00    12800.00
03848              25.00    14400.00
03849              11.00    14400.00
03850             -25.00    15200.00
03851              25.00    16000.00
03852             -25.00    16000.00
03853             -20.60    16800.00
03854              25.00    16000.00
03855             -23.60    17600.00
03856             -20.80    18400.00
03857              25.00    19200.00
03858              -0.40    19200.00
03859             -25.00    19200.00
03860              25.00    20800.00
03861             -14.80    20800.00
03862              -5.20    20800.00
03863              19.80    22400.00
03864             -25.00    22400.00
03865              10.00    22400.00
03866               2.20    23200.00
03867             -11.60    24000.00
03868               6.80    24000.00
03869               8.20    24800.00
03870             -17.40    24800.00
03871               9.20    25600.00
03872               2.20    25600.00
03873             -15.80    25600.00
03874              13.20    27200.00
03875              -5.40    27200.00
03876              -5.00    27200.00
03877               5.80    28000.00
03878              -4.40    28000.00
03879              -3.80    28000.00
03880               2.20    28800.00
03881              -2.20    28800.00
03882              -3.80    29600.00
03883               2.60    29600.00
03884              -3.80    30400.00
03885              -3.00    30400.00
03886               3.40    30400.00
03887              -4.40    30400.00
03888              -1.80    30400.00
03889               1.40    32000.00
03890              -6.00    31200.00
03891              -0.60    31200.00
03892              -1.40    31200.00
03893              -5.80    32800.00
03894               0.40    32000.00
03895              -2.60    32800.00
03896              -4.40    32000.00
03897              -2.20    32800.00
03898              -4.40    33600.00
03899              -3.40    32800.00
03900              -3.60    33600.00
03901              -4.20    32000.00
03902              -5.60    32800.00
03903              -4.60    33600.00
03904              -5.20    32800.00
03905              -7.80    33600.00
03906              -6.00    32800.00
03907              -9.20    32800.00
03908              -8.40    33600.00
03909              -8.00    32800.00
03910             -13.20    33600.00
03911             -11.00    32800.00
03912             -12.20    32800.00
03913             -14.20    33600.00
03914             -14.00    32800.00
03915             -15.20    33600.00
03916             -15.60    32800.00
03917             -17.40    32000.00
03918             -19.80    32800.00
03919             -23.60    32000.00
03920             -18.20    32800.00
03921              -7.40    32000.00
03922             -10.80    32000.00
03923             -13.00    32000.00
03924              -8.00    31200.00
03925              -7.80    31200.00
03926              -8.60    31200.00
03927              -7.20    31200.00
03928              -5.40    30400.00
03929              -5.80    30400.00
03930              -6.40    30400.00
03931              -3.80    30400.00
03932              -3.00    29600.00
03933              -5.00    29600.00
03934              -3.40    28800.00
03935              -2.20    28800.00
03936              -3.40    28000.00
03937              -2.80    28000.00
03938              -1.40    28000.00
03939              -2.00    27200.00
03940              -2.00    27200.00
03941              -1.40    26400.00
03942              -3.00    26400.00
03943              -1.80    25600.00
03944              -0.20    25600.00
03945              -1.40    25600.00
03946              -1.20    24800.00
03947              -1.20    24000.00
03948              -1.20    24000.00
03949              -0.60    24000.00
03950              -1.20    23200.00
03951              -0.40    22400.00
03952              -1.00    22400.00
03953              -1.20    22400.00
03954              -0.20    21600.00
03955              -1.20    21600.00
03956              -2.00    20800.00
03957              -1.00    19200.00
03958               0.40    19200.00
03959              -0.40    19200.00
03960              -0.80    18400.00
03961              -0.80    17600.00
03962              -1.20    17600.00
03963               0.20    16800.00
03964              -0.20    16000.00
03965              -1.20    16000.00
03966              -0.20    15200.00
03967              -0.60    14400.00
03968              -0.60    14400.00
03969              -0.40    12800.00
03970              -1.00    13600.00
03971              -0.60    12800.00
03972               0.00    12000.00
03973              -0.60    11200.00
03974              -0.60    11200.00
03975              -0.40     9600.00
03976               0.20     9600.00
03977              -0.60     8800.00
03978              -0.20     8000.00
03979              -0.40     8000.00
03980              -0.60     7200.00
03981              -0.20     6400.00
03982              -0.40     5600.00
03983              -0.20     5600.00
03984              -0.60     4800.00
03985              -1.20     3200.00
03986               0.40     3200.00
03987              -1.00     3200.00
03988              -1.20     2400.00
03989               0.20     1600.00
03990              -0.60     1600.00
03991              -0.20      800.00
03992               0.40        0.00
03993               0.60     -800.00
03994               4.20    -1600.00
03995              -0.40    -1600.00
03996              -1.60    -1600.00
03997               1.80    -3200.00
03998               0.80    -3200.00
03999              -1.00    -4000.00
04000               4.40    -4000.00
04001              19.80    -5600.00
04002              17.80    -7200.00
04003             -25.00    -7200.00
04004             -17.60    -8000.00
04005              25.00    -8000.00
04006             -15.20    -8800.00
04007             -25.00    -8000.00
04008              25.00   -10400.00
04009              14.80   -10400.00
04010             -25.00   -10400.00
04011              25.00   -11200.00
04012              -5.80   -12000.00
04013             -25.00   -12800.00
04014              25.00   -12800.00
04015             -23.00   -13600.00
04016              25.00   -14400.00
04017             -22.20   -14400.00
04018             -10.00   -15200.00
04019              25.00   -16000.00
04020             -25.00   -16000.00
04021              -3.00   -16800.00
04022              25.00   -16800.00
04023             -22.00   -17600.00
04024             -17.60   -19200.00
04025              25.00   -18400.00
04026             -12.40   -19200.00
04027             -17.20   -20000.00
04028              25.00   -20000.00
04029             -13.20   -21600.00
04030              -2.60   -20800.00
04031              10.20   -22400.00
04032             -10.80   -22400.00
04033               5.20   -22400.00
04034               2.00   -23200.00
04035              -4.60   -23200.00
04036               6.80   -24000.00
04037               2.20   -24000.00
04038             -10.00   -24800.00
04039              11.00   -25600.00
04040              -2.20   -25600.00
04041              -7.00   -25600.00
04042              11.20   -26400.00
04043              -4.00   -26400.00
04044              -1.60   -27200.00
04045               5.40   -27200.00
04046              -1.20   -28000.00
04047              -1.00   -27200.00
04048               3.80   -28800.00
04049              -0.40   -28800.00
04050              -1.20   -28800.00
04051               2.80   -29600.00
04052              -1.20   -29600.00
04053               1.20   -29600.00
04054               3.00   -30400.00
04055              -0.20   -30400.00
04056               1.80   -30400.00
04057               2.60   -30400.00
04058              -0.60   -30400.00
04059               2.20   -31200.00
04060               2.00   -32000.00
04061               1.00   -32000.00
04062               3.60   -32000.00
04063               1.20   -32000.00
04064               2.00   -32000.00
04065               2.80   -31200.00
04066               2.60   -32000.00
04067               3.60   -32000.00
04068               4.00   -32800.00
04069               4.20   -32000.00
04070               4.60   -32800.00
04071               6.20   -32800.00
04072               5.00   -32800.00
04073               6.60   -32000.00
04074               9.20   -32000.00
04075               7.00   -33600.00
04076              10.00   -32800.00
04077              11.80   -32800.00
04078              10.00   -32800.00
04079              13.20   -32800.00
04080              14.00   -32000.00
04081              13.00   -32800.00
04082              14.60   -32000.00
04083              15.60   -32800.00
04084              17.00   -32000.00
04085              21.20   -32800.00
04086              22.60   -32000.00
04087              12.20   -32000.00
04088               7.40   -32000.00
04089              12.20   -32000.00
04090              10.00   -31200.00
04091               6.60   -30400.00
04092               6.80   -30400.00
04093               7.80   -30400.00
04094               6.20   -30400.00
04095               3.60   -30400.00
04096               5.40   -29600.00
04097               5.40   -28800.00
04098               2.40   -28800.00
04099               3.80   -28800.00
04100               4.20   -28800.00
04101               1.20   -28000.00
04102               2.00   -28800.00
04103               3.40   -28000.00
04104               0.60   -27200.00
04105               1.20   -27200.00
04106               1.80   -26400.00
04107               0.40   -26400.00
04108               1.40   -26400.00
04109               1.00   -26400.00
04110               0.00   -25600.00
04111               1.20   -24800.00
04112               0.60   -24000.00
04113               0.20   -24000.00
04114               0.60   -24000.00
04115               0.00   -24000.00
04116               0.40   -22400.00
04117               0.20   -22400.00
04118              -0.20   -22400.00
04119               0.20   -21600.00
04120               0.00   -20800.00
04121              -0.20   -20800.00
04122               0.20   -20000.00
04123               0.20   -20000.00
04124              -0.40   -19200.00
04125               0.00   -18400.00
04126               0.20   -18400.00
04127              -0.40   -17600.00
04128              -0.20   -16800.00
04129              -0.20   -16800.00
04130              -0.60   -16000.00
04131               1.00   -16000.00
04132              -0.60   -15200.00
04133              -1.00   -14400.00
04134               0.40   -13600.00
04135              -1.00   -12800.00
04136              -0.60   -12800.00
04137               0.20   -12800.00
04138              -0.60   -12000.00
04139              -1.00   -11200.00
04140              -0.60   -10400.00
04141               1.00    -9600.00
04142               0.20    -9600.00
04143              -2.00    -9600.00
04144               0.00    -8800.00
04145              -0.60    -8000.00
04146              -2.00    -7200.00
04147               1.00    -6400.00
04148               0.80    -6400.00
04149              -1.20    -4800.00
04150              -0.20    -4800.00
04151              -0.40    -4000.00
04152              -1.40    -3200.00
04153              -0.60    -3200.00
04154              -0.40    -1600.00
04155              -0.60    -1600.00
04156               1.00     -800.00
04157               0.20     -800.00
04158              -1.80        0.00
04159               0.20      800.00
04160               1.00     1600.00
04161               2.00     2400.00
04162              -1.00     2400.00
04163              -0.60     2400.00
04164               0.20     3200.00
04165               1.00     3200.00
04166               0.60     4800.00
04167              14.20     5600.00
04168              25.00     7200.00
04169             -25.00     8000.00
04170             -25.00     8000.00
04171              25.00     8000.00
04172              -9.20     8800.00
04173             -25.00     8800.00
04174              25.00     9600.00
04175             -25.00     9600.00
04176             -24.40    11200.00
04177              25.00    11200.00
04178             -25.00    12000.00
04179              25.00    13600.00
04180               9.00    12800.00
04181             -25.00    13600.00
04182              25.00    14400.00
04183             -25.00    14400.00
04184              20.60    16000.00
04185              25.00    15200.00
04186             -25.00    16000.00
04187              25.00    16000.00
04188              20.40    17600.00
04189             -25.00    17600.00
04190               0.60    18400.00
04191              25.00    19200.00
04192             -25.00    19200.00
04193               3.40    20800.00
04194              25.00    20800.00
04195             -25.00    21600.00
04196              22.60    21600.00
04197              -9.40    22400.00
04198             -14.40    23200.00
04199              15.80    23200.00
04200              -9.00    24000.00
04201              -3.80    24000.00
04202              13.40    24000.00
04203              -6.80    24800.00
04204             -11.00    25600.00
04205              16.20    25600.00
04206             -15.00    25600.00
04207               0.20    26400.00
04208               9.20    27200.00
04209             -10.80    27200.00
04210               3.40    27200.00
04211               0.40    27200.00
04212              -5.00    28800.00
04213              -0.40    28000.00
04214               1.80    28800.00
04215              -4.40    29600.00
04216              -0.60    28800.00
04217              -0.60    29600.00
04218              -5.40    29600.00
04219               2.00    30400.00
04220              -0.20    31200.00
04221              -5.20    31200.00
04222               2.20    31200.00
04223              -2.80    31200.00
04224              -5.20    31200.00
04225               1.40    32000.00
04226              -4.40    32800.00
04227              -2.80    31200.00
04228               0.20    32800.00
04229              -4.20    32800.00
04230              -2.80    32000.00
04231              -3.40    32800.00
04232              -3.80    32800.00
04233              -3.20    32800.00
04234              -3.80    32800.00
04235              -4.60    32800.00
04236              -5.40    32800.00
04237              -4.40    33600.00
04238              -7.00    32800.00
04239              -6.60    33600.00
04240              -6.80    32800.00
04241             -10.00    33600.00
04242              -7.00    33600.00
04243             -10.80    33600.00
04244             -12.60    32800.00
04245             -11.00    32800.00
04246             -13.80    33600.00
04247             -13.80    33600.00
04248             -15.00    32800.00
04249             -15.60    32800.00
04250             -16.40    32800.00
04251             -18.60    32000.00
04252             -21.60    32800.00
04253             -22.80    32800.00
04254             -12.20    32000.00
04255              -7.80    32800.00
04256             -12.80    32000.00
04257             -10.20    32000.00
04258              -7.60    31200.00
04259              -7.80    31200.00
04260              -8.20    31200.00
04261              -6.60    31200.00
04262              -4.60    31200.00
04263              -6.20    30400.00
04264              -5.80    29600.00
04265              -2.80    30400.00
04266              -4.60    30400.00
04267              -5.00    28800.00
04268              -2.40    28800.00
04269              -2.80    28800.00
04270              -3.40    28000.00
04271              -1.80    27200.00
04272              -1.80    28000.00
04273              -2.80    28000.00
04274              -1.20    27200.00
04275              -1.40    26400.00
04276              -2.80    26400.00
04277              -1.00    25600.00
04278              -1.20    25600.00
04279              -1.40    24800.00
04280              -1.00    24800.00
04281              -1.40    24000.00
04282              -1.00    24000.00
04283              -1.20    24000.00
04284              -0.60    23200.00
04285              -0.60    22400.00
04286              -1.00    21600.00
04287              -0.60    22400.00
04288              -0.40    20800.00
04289              -1.00    20000.00
04290              -1.20    20800.00
04291              -0.60    19200.00
04292              -0.60    19200.00
04293              -1.20    18400.00
04294              -0.40    17600.00
04295              -0.60    17600.00
04296              -1.20    16800.00
04297               0.00    16000.00
04298              -0.60    16000.00
04299              -0.60    15200.00
04300              -0.40    14400.00
04301              -0.80    14400.00
04302              -0.20    14400.00
04303              -0.60    12800.00
04304              -1.20    12000.00
04305               0.40    12000.00
04306              -0.60    12000.00
04307              -1.00    11200.00
04308              -0.20    10400.00
04309              -0.40     9600.00
04310              -1.20     9600.00
04311              -0.40     8800.00
04312              -0.40     8000.00
04313              -0.20     7200.00
04314              -0.60     6400.00
04315              -0.20     6400.00
04316               0.00     5600.00
04317              -0.60     4800.00
04318              -0.60     4000.00
04319              -0.20     3200.00
04320              -0.60     3200.00
04321              -0.80     2400.00
04322              -0.40     1600.00
04323              -0.60     1600.00
04324              -0.60        0.00
04325               0.20        0.00
04326               0.40     -800.00
04327               1.80    -1600.00
04328               2.60    -1600.00
04329              -1.20    -1600.00
04330               0.60    -2400.00
04331               1.00    -3200.00
04332              -0.20    -4000.00
04333               1.20    -4000.00
04334               9.20    -4800.00
04335              25.00    -6400.00
04336             -12.20    -8000.00
04337             -25.00    -8000.00
04338              11.80    -8000.00
04339              19.60    -8800.00
04340             -25.00    -8800.00
04341               2.00    -9600.00
04342              25.00   -10400.00
04343             -25.00    -9600.00
04344              -1.20   -11200.00
04345              25.00   -11200.00
04346             -25.00   -11200.00
04347              15.40   -12800.00
04348               6.60   -12800.00
04349              -4.20   -13600.00
04350              21.20   -14400.00
04351             -25.00   -14400.00
04352              25.00   -16000.00
04353              11.40   -16000.00
04354             -25.00   -16800.00
04355              25.00   -16800.00
04356              13.20   -17600.00
04357             -25.00   -17600.00
04358               9.00   -18400.00
04359              23.40   -19200.00
04360             -25.00   -20000.00
04361              13.20   -20000.00
04362              16.40   -20000.00
04363             -19.00   -20800.00
04364              12.20   -20800.00
04365              -4.00   -22400.00
04366              -5.00   -22400.00
04367               6.80   -22400.00
04368              -2.20   -23200.00
04369              -0.60   -24000.00
04370               9.80   -24000.00
04371              -8.20   -24800.00
04372              -2.00   -25600.00
04373              10.80   -25600.00
04374             -11.40   -25600.00
04375               4.60   -26400.00
04376               6.60   -26400.00
04377              -6.20   -26400.00
04378               2.60   -27200.00
04379               2.60   -27200.00
04380              -2.20   -28000.00
04381               1.80   -28000.00
04382               2.80   -28800.00
04383              -2.20   -28800.00
04384               2.00   -28800.00
04385               0.60   -28800.00
04386              -1.20   -29600.00
04387               3.60   -29600.00
04388               1.00   -30400.00
04389              -0.60   -30400.00
04390               4.00   -30400.00
04391               0.20   -31200.00
04392              -0.40   -30400.00
04393               4.00   -30400.00
04394               1.20   -31200.00
04395               2.60   -32000.00
04396               3.40   -32000.00
04397               1.00   -32000.00
04398               2.60   -32000.00
04399               2.60   -32000.00
04400               2.60   -32000.00
04401               3.80   -32000.00
04402               4.20   -32800.00
04403               4.20   -32000.00
04404               5.60   -32800.00
04405               6.20   -32800.00
04406               5.20   -32000.00
04407               8.20   -32800.00
04408               8.40   -32800.00
04409               8.20   -32800.00
04410              11.60   -32800.00
04411              10.80   -32000.00
04412              11.60   -32000.00
04413              14.00   -32800.00
04414              13.20   -32000.00
04415              13.80   -32000.00
04416              14.80   -32000.00
04417              16.00   -32000.00
04418              19.00   -32000.00
04419              22.80   -32000.00
04420              19.00   -32000.00
04421               8.20   -32000.00
04422               9.60   -31200.00
04423              12.20   -32000.00
04424               8.20   -30400.00
04425               6.20   -30400.00
04426               7.80   -30400.00
04427               7.80   -30400.00
04428               5.20   -30400.00
04429               3.80   -29600.00
04430               6.20   -29600.00
04431               3.40   -29600.00
04432               2.00   -29600.00
04433               4.40   -28800.00
04434               3.00   -28800.00
04435               0.60   -28800.00
04436               2.80   -28000.00
04437               2.20   -27200.00
04438               1.00   -27200.00
04439               1.80   -27200.00
04440               1.80   -26400.00
04441               0.20   -26400.00
04442               0.80   -26400.00
04443               0.40   -25600.00
04444               0.40   -25600.00
04445               1.20   -24800.00
04446               0.20   -24800.00
04447               0.40   -24000.00
04448               0.40   -24000.00
04449              -0.40   -23200.00
04450               0.40   -23200.00
04451               0.40   -22400.00
04452              -0.20   -22400.00
04453              -0.40   -21600.00
04454               0.60   -20800.00
04455               0.20   -20000.00
04456              -0.60   -20000.00
04457               0.40   -18400.00
04458              -0.60   -19200.00
04459              -0.20   -18400.00
04460               0.40   -17600.00
04461              -1.00   -17600.00
04462              -0.20   -16800.00
04463              -0.20   -16000.00
04464              -0.60   -16800.00
04465               0.20   -16000.00
04466              -0.60   -14400.00
04467              -0.60   -14400.00
04468               0.20   -13600.00
04469              -0.60   -13600.00
04470              -0.60   -12800.00
04471               0.20   -12000.00
04472               0.00   -11200.00
04473              -0.80   -10400.00
04474               0.20   -11200.00
04475              -0.20    -9600.00
04476              -1.20    -8800.00
04477              -0.20    -8800.00
04478               0.20    -8000.00
04479              -1.20    -7200.00
04480               0.20    -7200.00
04481               0.20    -6400.00
04482              -0.60    -6400.00
04483               0.20    -4800.00
04484              -0.40    -4000.00
04485              -0.60    -3200.00
04486               0.20    -3200.00
04487              -0.20    -2400.00
04488              -0.60    -2400.00
04489              -0.20    -1600.00
04490              -0.40     -800.00
04491              -0.20        0.00
04492              -0.20        0.00
04493              -0.20     1600.00
04494               2.40     1600.00
04495               1.80     2400.00
04496              -2.80     3200.00
04497               0.20     3200.00
04498               1.20     3200.00
04499              -1.40     4800.00
04500               5.20     4800.00
04501              25.00     6400.00
04502               5.20     7200.00
04503             -25.00     8000.00
04504               2.20     8000.00
04505              25.00     8000.00
04506             -25.00     8000.00
04507              22.20     9600.00
04508              25.00     9600.00
04509             -25.00    10400.00
04510              25.00    11200.00
04511              16.20    11200.00
04512             -25.00    12000.00
04513              25.00    12000.00
04514             -25.00    12800.00
04515              25.00    14400.00
04516              24.20    14400.00
04517             -25.00    14400.00
04518              25.00    15200.00
04519             -25.00    16000.00
04520             -25.00    16800.00
04521              25.00    16800.00
04522             -19.00    17600.00
04523             -24.40    17600.00
04524              24.60    19200.00
04525               5.40    19200.00
04526             -25.00    20000.00
04527              25.00    20800.00
04528              -7.40    20800.00
04529             -10.80    21600.00
04530              22.80    22400.00
04531             -24.60    22400.00
04532               7.40    23200.00
04533               2.80    22400.00
04534             -10.60    24000.00
04535               5.80    24000.00
04536               8.40    24000.00
04537             -16.20    24800.00
04538               7.20    25600.00
04539               3.80    25600.00
04540             -17.40    26400.00
04541              13.20    26400.00
04542              -4.00    27200.00
04543              -5.40    27200.00
04544               6.20    27200.00
04545              -3.80    28000.00
04546              -4.40    28000.00
04547               2.60    28000.00
04548              -1.40    28800.00
04549              -4.20    28800.00
04550               1.80    30400.00
04551              -3.00    29600.00
04552              -3.80    30400.00
04553               2.00    30400.00
04554              -3.80    30400.00
04555              -1.80    31200.00
04556               1.20    30400.00
04557              -4.60    31200.00
04558              -0.20    31200.00
04559              -1.00    31200.00
04560              -5.40    32000.00
04561               0.40    32000.00
04562              -2.60    32000.00
04563              -4.60    32800.00
04564              -3.40    32800.00
04565              -4.40    32800.00
04566              -3.80    32800.00
04567              -3.40    33600.00
04568              -2.00    32800.00
04569              -4.80    32800.00
04570              -4.40    32800.00
04571              -5.20    32800.00
04572              -9.40    32800.00
04573              -7.40    32800.00
04574              -9.20    32800.00
04575              -9.20    33600.00
04576              -7.20    33600.00
04577             -11.60    32800.00
04578             -10.80    32800.00
04579             -11.80    32800.00
04580             -14.20    32800.00
04581             -14.20    32800.00
04582             -16.20    32000.00
04583             -16.60    32800.00
04584             -17.20    32000.00
04585             -19.00    32800.00
04586             -23.00    32000.00
04587             -18.20    32800.00
04588              -7.00    32000.00
04589             -11.00    32000.00
04590             -13.40    32000.00
04591              -9.20    31200.00
04592              -9.20    31200.00
04593              -7.60    31200.00
04594              -7.00    31200.00
04595              -5.00    30400.00
04596              -4.00    30400.00
04597              -6.80    30400.00
04598              -4.20    28800.00
04599              -3.40    29600.00
04600              -7.00    28800.00
04601              -2.80    28800.00
04602              -2.60    28800.00
04603              -3.80    28000.00
04604              -1.20    28000.00
04605              -1.80    28000.00
04606              -2.80    27200.00
04607              -1.00    27200.00
04608              -1.40    26400.00
04609              -3.60    26400.00
04610              -1.00    25600.00
04611              -1.20    25600.00
04612              -2.00    25600.00
04613               0.40    25600.00
04614              -1.40    24000.00
04615              -1.20    24000.00
04616              -0.40    24000.00
04617              -2.20    24000.00
04618              -1.00    22400.00
04619              -1.00    22400.00
04620              -1.80    22400.00
04621               0.20    21600.00
04622               0.00    20800.00
04623              -1.20    20000.00
04624              -0.20    19200.00
04625              -0.60    19200.00
04626              -2.00    18400.00
04627              -0.60    18400.00
04628              -1.00    17600.00
04629              -1.40    17600.00
04630               0.60    16800.00
04631              -0.40    16000.00
04632              -0.80    15200.00
04633               0.00    15200.00
04634              -1.00    14400.00
04635              -1.20    14400.00
04636              -0.40    13600.00
04637              -1.40    12000.00
04638              -0.40    12800.00
04639               0.60    12000.00
04640              -0.60    11200.00
04641              -0.60    10400.00
04642              -0.40     9600.00
04643              -1.20     9600.00
04644              -1.00     8000.00
04645              -0.60     8800.00
04646              -1.00     8000.00
04647              -0.40     6400.00
04648              -0.20     6400.00
04649              -0.40     5600.00
04650              -0.20     5600.00
04651              -0.60     4800.00
04652              -0.60     4000.00
04653              -0.20     3200.00
04654              -0.60     2400.00
04655              -0.60     1600.00
04656              -0.60     1600.00
04657               0.40     1600.00
04658              -0.20        0.00
04659              -0.40        0.00
04660               1.00     -800.00
04661               3.80     -800.00
04662              -1.40    -1600.00
04663              -1.20    -1600.00
04664               2.20    -3200.00
04665               1.20    -3200.00
04666              -1.40    -4000.00
04667               4.60    -4800.00
04668              19.40    -5600.00
04669              20.00    -6400.00
04670             -25.00    -8000.00
04671             -21.00    -8000.00
04672              25.00    -8000.00
04673             -10.80    -8800.00
04674             -25.00    -8800.00
04675              25.00    -9600.00
04676              25.00   -10400.00
04677             -25.00   -10400.00
04678              25.00   -11200.00
04679               4.80   -12000.00
04680             -25.00   -12800.00
04681              25.00   -13600.00
04682             -22.60   -13600.00
04683              22.60   -14400.00
04684             -13.40   -14400.00
04685             -16.60   -16000.00
04686              25.00   -16000.00
04687             -25.00   -16000.00
04688              -9.40   -16800.00
04689              25.00   -16800.00
04690             -17.80   -17600.00
04691             -20.40   -17600.00
04692              25.00   -18400.00
04693              -6.60   -19200.00
04694             -21.60   -20000.00
04695              25.00   -20000.00
04696             -10.00   -20800.00
04697              -5.40   -20800.00
04698              11.60   -21600.00
04699             -11.40   -22400.00
04700               3.60   -22400.00
04701               3.40   -23200.00
04702              -4.60   -23200.00
04703               5.80   -24000.00
04704               4.40   -24800.00
04705             -11.40   -25600.00
04706               9.20   -25600.00
04707              -0.20   -25600.00
04708              -9.20   -26400.00
04709              11.00   -26400.00
04710              -2.20   -26400.00
04711              -2.80   -27200.00
04712               4.60   -27200.00
04713              -0.60   -27200.00
04714              -1.20   -28000.00
04715               3.60   -28800.00
04716               0.40   -28800.00
04717              -1.20   -28800.00
04718               3.60   -28800.00
04719              -1.20   -29600.00
04720               1.00   -29600.00
04721               3.40   -29600.00
04722              -1.00   -30400.00
04723               1.40   -30400.00
04724               3.00   -31200.00
04725              -1.40   -31200.00
04726               2.20   -30400.00
04727               2.60   -31200.00
04728               1.00   -32000.00
04729               4.40   -32000.00
04730               2.00   -32000.00
04731               2.00   -32000.00
04732               3.00   -32000.00
04733               2.60   -32000.00
04734               3.60   -32000.00
04735               4.40   -32000.00
04736               4.20   -32800.00
04737               4.60   -32800.00
04738               6.60   -32800.00
04739               5.20   -32800.00
04740               6.60   -32800.00
04741               9.00   -32800.00
04742               7.40   -32800.00
04743              10.00   -32000.00
04744              11.80   -32800.00
04745              10.20   -32800.00
04746              13.20   -32800.00
04747              14.00   -32800.00
04748              13.40   -32000.00
04749              14.80   -32000.00
04750              15.40   -32000.00
04751              17.00   -32000.00
04752              21.00   -32000.00
04753              22.20   -32000.00
04754              13.20   -32000.00
04755               7.20   -32000.00
04756              11.80   -31200.00
04757              10.80   -31200.00
04758               6.80   -31200.00
04759               6.80   -30400.00
04760               8.20   -30400.00
04761               6.60   -30400.00
04762               3.80   -29600.00
04763               5.40   -30400.00
04764               5.40   -29600.00
04765               2.00   -29600.00
04766               3.40   -28800.00
04767               4.00   -28800.00
04768               1.20   -28800.00
04769               2.20   -28000.00
04770               2.80   -28000.00
04771               1.00   -28000.00
04772               1.20   -27200.00
04773               2.00   -26400.00
04774               0.40   -26400.00
04775               1.00   -26400.00
04776               1.40   -25600.00
04777              -0.40   -25600.00
04778               0.60   -25600.00
04779               1.00   -24000.00
04780               0.20   -24000.00
04781               0.20   -24000.00
04782               1.00   -24000.00
04783              -0.20   -23200.00
04784               0.20   -23200.00
04785              -0.40   -22400.00
04786               0.00   -21600.00
04787               0.40   -20800.00
04788              -0.60   -20800.00
04789               0.40   -20000.00
04790              -0.20   -20000.00
04791              -1.20   -19200.00
04792               1.00   -18400.00
04793               0.20   -17600.00
04794              -0.40   -17600.00
04795               0.60   -17600.00
04796              -0.40   -16800.00
04797              -1.00   -16000.00
04798               0.20   -15200.00
04799              -0.40   -15200.00
04800              -0.40   -14400.00
04801              -0.20   -13600.00
04802              -0.40   -13600.00
04803              -0.20   -13600.00
04804              -0.40   -12800.00
04805              -0.60   -11200.00
04806               1.00   -11200.00
04807              -0.40   -11200.00
04808              -0.60    -9600.00
04809               0.20    -9600.00
04810              -0.60    -8800.00
04811              -0.40    -8000.00
04812              -0.20    -8000.00
04813              -0.80    -7200.00
04814              -0.20    -6400.00
04815               0.00    -6400.00
04816              -0.60    -4800.00
04817              -0.40    -4800.00
04818              -0.40    -4000.00
04819              -0.60    -3200.00
04820              -0.40    -2400.00
04821               0.20    -1600.00
04822              -0.40    -1600.00
04823              -0.40    -1600.00
04824               0.40     -800.00
04825              -0.20        0.00
04826               0.00      800.00
04827               0.60     1600.00
04828               3.00     1600.00
04829              -1.80     1600.00
04830              -1.40     3200.00
04831               1.00     3200.00
04832               0.40     4000.00
04833              -0.60     4800.00
04834              12.80     5600.00
04835              25.00     8000.00
04836             -25.00     8000.00
04837             -25.00     8000.00
04838              25.00     8000.00
04839              -3.00     8000.00
04840             -25.00     8000.00
04841              25.00     9600.00
04842             -19.60     9600.00
04843             -25.00    11200.00
04844              25.00    11200.00
04845             -25.00    12000.00
04846              17.00    12800.00
04847              20.60    12800.00
04848             -25.00    13600.00
04849              25.00    13600.00
04850             -25.00    14400.00
04851               6.00    15200.00
04852              25.00    15200.00
04853             -25.00    16000.00
04854              25.00    16800.00
04855              25.00    17600.00
04856             -25.00    18400.00
04857              -2.00    17600.00
04858              25.00    19200.00
04859             -25.00    19200.00
04860              -2.60    19200.00
04861              25.00    20800.00
04862             -25.00    21600.00
04863              19.60    21600.00
04864              -3.80    21600.00
04865             -17.20    22400.00
04866              16.40    24000.00
04867              -7.00    24000.00
04868              -5.20    24000.00
04869              12.40    24800.00
04870              -3.80    24800.00
04871             -12.80    25600.00
04872              15.80    24800.00
04873             -12.40    25600.00
04874              -2.00    26400.00
04875              10.60    27200.00
04876             -11.00    27200.00
04877               2.80    28000.00
04878               1.00    27200.00
04879              -5.00    28000.00
04880              -0.20    28800.00
04881               2.40    28800.00
04882              -4.20    28800.00
04883              -1.00    28800.00
04884               0.40    28800.00
04885              -5.20    30400.00
04886               1.20    30400.00
04887               0.60    30400.00
04888              -4.60    30400.00
04889               1.40    30400.00
04890              -2.20    31200.00
04891              -4.60    31200.00
04892               1.00    32000.00
04893              -4.20    32000.00
04894              -2.80    32000.00
04895               0.40    32800.00
04896              -4.40    32000.00
04897              -3.00    32800.00
04898              -3.00    32000.00
04899              -4.40    32800.00
04900              -3.00    32800.00
04901              -3.80    33600.00
04902              -4.40    32800.00
04903              -6.00    32800.00
04904              -4.40    33600.00
04905              -7.00    33600.00
04906              -7.00    32800.00
04907              -6.60    32800.00
04908             -10.20    33600.00
04909              -7.60    33600.00
04910             -10.20    33600.00
04911             -13.00    32800.00
04912             -10.80    33600.00
04913             -13.80    32800.00
04914             -13.80    32800.00
04915             -14.20    32000.00
04916             -15.80    32800.00
04917             -16.40    32800.00
04918             -17.20    32800.00
04919             -22.00    32000.00
04920             -23.60    32800.00
04921             -12.60    32000.00
04922              -8.20    32000.00
04923             -13.00    31200.00
04924             -10.80    32000.00
04925              -7.00    31200.00
04926              -7.60    31200.00
04927              -9.80    31200.00
04928              -5.40    31200.00
04929              -3.80    30400.00
04930              -8.20    30400.00
04931              -3.80    30400.00
04932              -1.80    30400.00
04933              -6.00    29600.00
04934              -4.60    28800.00
04935              -2.20    28800.00
04936              -2.80    28800.00
04937              -3.80    28000.00
04938              -0.40    28000.00
04939              -1.00    27200.00
04940              -4.60    28000.00
04941              -0.60    27200.00
04942              -0.40    26400.00
04943              -4.40    26400.00
04944              -0.20    25600.00
04945               0.60    25600.00
04946              -2.80    24800.00
04947              -0.40    24800.00
04948              -1.00    24000.00
04949              -2.20    24000.00
04950              -0.20    23200.00
04951              -0.80    23200.00
04952              -2.00    22400.00
04953              -1.00    22400.00
04954              -1.00    20800.00
04955              -1.00    21600.00
04956               0.00    20800.00
04957              -1.00    20000.00
04958              -0.60    19200.00
04959               0.20    18400.00
04960              -1.60    18400.00
04961              -1.20    17600.00
04962               0.40    17600.00
04963              -1.60    16800.00
04964              -0.40    16800.00
04965               0.20    15200.00
04966              -1.40    15200.00
04967              -0.60    15200.00
04968              -0.40    14400.00
04969              -1.20    14400.00
04970              -0.60    14400.00
04971              -1.00    12800.00
04972              -0.60    12800.00
04973              -0.20    11200.00
04974              -0.60    11200.00
04975              -1.00    10400.00
04976               0.20     9600.00
04977              -0.60     8800.00
04978              -1.40     8800.00
04979               0.00     8000.00
04980              -0.80     8000.00
04981              -1.20     7200.00
04982               0.20     6400.00
04983              -0.60     5600.00
04984              -0.40     4800.00
04985              -0.40     4000.00
04986              -0.60     3200.00
04987              -0.60     3200.00
04988              -0.60     2400.00
04989              -0.60     1600.00
04990               0.20     1600.00
04991              -0.40      800.00
04992               0.00        0.00
04993               0.60     -800.00
04994               1.60     -800.00
04995               2.60    -1600.00
04996              -1.20    -1600.00
04997               0.40    -3200.00
04998               1.40    -2400.00
04999               0.40    -4000.00
05000               0.20    -4000.00
