Unit:(mV)
                     CH1         CH2
Frequency              ? 299.872 kHz
00001             -25.00    -7200.00
00002             -21.00    -8000.00
00003              25.00    -8000.00
00004             -12.40    -8000.00
00005             -25.00    -8000.00
00006              25.00    -9600.00
00007              17.40   -10400.00
00008             -25.00    -9600.00
00009              25.00   -11200.00
00010              -5.00   -11200.00
00011             -25.00   -12000.00
00012              25.00   -12800.00
00013             -25.00   -13600.00
00014              17.60   -13600.00
00015              -0.60   -14400.00
00016             -22.40   -14400.00
00017              25.00   -16000.00
00018             -21.40   -16000.00
00019             -11.60   -17600.00
00020              25.00   -16800.00
00021             -11.00   -17600.00
00022             -20.20   -17600.00
00023              25.00   -18400.00
00024              -5.00   -19200.00
00025             -21.40   -19200.00
00026              25.00   -20000.00
00027              -9.80   -20000.00
00028              -7.60   -20800.00
00029              17.80   -21600.00
00030             -13.00   -21600.00
00031              -0.60   -22400.00
00032              11.20   -22400.00
00033              -6.00   -23200.00
00034               0.40   -24000.00
00035              11.60   -24000.00
00036             -10.60   -24000.00
00037               4.40   -24000.00
00038               6.00   -25600.00
00039              -7.80   -25600.00
00040               6.60   -25600.00
00041               2.00   -26400.00
00042              -2.20   -26400.00
00043               3.00   -27200.00
00044               2.60   -27200.00
00045              -1.40   -27200.00
00046               3.40   -27200.00
00047               1.80   -28800.00
00048              -2.60   -28800.00
00049               3.60   -28800.00
00050               0.40   -28800.00
00051              -1.00   -29600.00
00052               4.20   -29600.00
00053               0.20   -29600.00
00054              -1.00   -30400.00
00055               3.60   -29600.00
00056              -0.20   -30400.00
00057               0.20   -30400.00
00058               2.40   -31200.00
00059               0.60   -31200.00
00060               1.80   -31200.00
00061               1.20   -32000.00
00062               0.60   -32000.00
00063               1.00   -31200.00
00064               1.20   -32000.00
00065              -0.20   -32000.00
00066               0.60   -32000.00
00067               3.40   -32000.00
00068               0.40   -32000.00
00069               1.60   -32000.00
00070               2.00   -32800.00
00071              -0.40   -32000.00
00072               1.00   -32000.00
00073               1.40   -32000.00
00074               1.00   -32800.00
00075               0.40   -32000.00
00076               1.40   -32000.00
00077               2.20   -32000.00
00078               0.40   -32000.00
00079               1.20   -32000.00
00080               1.00   -32000.00
00081               0.60   -32000.00
00082               2.60   -31200.00
00083               0.20   -32000.00
00084              -0.60   -30400.00
00085               1.40   -31200.00
00086               1.00   -31200.00
00087               1.40   -31200.00
00088               2.00   -30400.00
00089               1.20   -30400.00
00090               0.40   -30400.00
00091               1.00   -29600.00
00092               1.40   -29600.00
00093               1.00   -29600.00
00094               0.60   -28800.00
00095               2.60   -28800.00
00096               1.20   -28800.00
00097               0.20   -28800.00
00098               1.20   -28800.00
00099               0.60   -28000.00
00100               0.40   -27200.00
00101               1.60   -27200.00
00102               0.40   -27200.00
00103               1.00   -27200.00
00104               1.60   -26400.00
00105               1.00   -25600.00
00106               0.80   -26400.00
00107               1.00   -25600.00
00108               0.20   -24800.00
00109               1.20   -24800.00
00110               1.00   -24000.00
00111               0.20   -24000.00
00112               0.40   -23200.00
00113               0.20   -23200.00
00114              -0.20   -22400.00
00115               0.80   -22400.00
00116               1.00   -22400.00
00117               0.60   -20800.00
00118               0.20   -20800.00
00119               1.00   -20000.00
00120               0.40   -20000.00
00121              -0.20   -18400.00
00122               1.00   -19200.00
00123               0.40   -18400.00
00124               0.00   -17600.00
00125               0.00   -17600.00
00126               0.20   -16800.00
00127               0.20   -16800.00
00128               0.20   -16000.00
00129               0.60   -16000.00
00130               0.60   -15200.00
00131              -0.20   -14400.00
00132              -0.40   -14400.00
00133              -0.20   -12800.00
00134               0.20   -12800.00
00135              -0.40   -12000.00
00136               0.20   -11200.00
00137               0.20   -11200.00
00138              -0.40   -10400.00
00139               0.20   -10400.00
00140              -0.20    -9600.00
00141              -0.60    -8800.00
00142               0.20    -8000.00
00143              -0.40    -8000.00
00144              -0.60    -7200.00
00145              -0.20    -6400.00
00146              -0.40    -5600.00
00147               0.00    -4800.00
00148               0.20    -4800.00
00149              -0.20    -4000.00
00150              -0.40    -3200.00
00151              -0.20    -3200.00
00152              -0.60    -1600.00
00153              -0.60    -1600.00
00154              -0.40     -800.00
00155              -0.40     -800.00
00156              -0.20        0.00
00157               0.40      800.00
00158               0.40     1600.00
00159               3.00     1600.00
00160              -1.80     3200.00
00161              -1.40     2400.00
00162               1.20     3200.00
00163               0.20     4000.00
00164              -0.60     4800.00
00165              13.40     4800.00
00166              25.00     7200.00
00167             -25.00     8000.00
00168             -25.00     8000.00
00169              25.00     8000.00
00170              -8.60     8000.00
00171             -25.00     8800.00
00172              25.00     9600.00
00173             -25.00     9600.00
00174             -25.00    11200.00
00175              25.00    11200.00
00176             -25.00    11200.00
00177              25.00    12800.00
00178              23.80    12800.00
00179             -25.00    12800.00
00180              25.00    14400.00
00181             -25.00    14400.00
00182               4.40    15200.00
00183              25.00    15200.00
00184             -25.00    16000.00
00185              25.00    16800.00
00186              22.60    17600.00
00187             -25.00    17600.00
00188              -4.60    18400.00
00189              25.00    18400.00
00190             -25.00    19200.00
00191              -4.60    20000.00
00192              25.00    20800.00
00193             -25.00    21600.00
00194              15.40    21600.00
00195               0.80    21600.00
00196             -19.40    22400.00
00197              11.60    23200.00
00198              -0.60    24000.00
00199              -9.40    24000.00
00200               9.00    24000.00
00201               0.40    24000.00
00202             -15.60    24800.00
00203              12.60    24800.00
00204              -8.60    25600.00
00205              -5.20    25600.00
00206               7.60    26400.00
00207              -7.00    27200.00
00208              -1.20    27200.00
00209               0.80    27200.00
00210              -2.80    28000.00
00211              -3.40    28000.00
00212               3.00    28000.00
00213              -3.60    28800.00
00214              -3.60    28800.00
00215               1.40    28800.00
00216              -4.40    29600.00
00217              -1.60    30400.00
00218               2.60    30400.00
00219              -4.80    30400.00
00220              -0.60    30400.00
00221              -0.40    31200.00
00222              -4.80    31200.00
00223               0.40    31200.00
00224              -2.60    31200.00
00225              -1.80    32000.00
00226               0.40    31200.00
00227              -2.00    32800.00
00228              -2.00    32000.00
00229              -2.20    32000.00
00230              -1.40    32800.00
00231              -1.60    32800.00
00232              -1.40    32800.00
00233              -1.40    32000.00
00234              -2.80    32800.00
00235              -0.40    32800.00
00236              -2.60    33600.00
00237              -2.00    32800.00
00238              -0.40    32000.00
00239              -3.20    32800.00
00240               0.20    32800.00
00241              -1.40    32800.00
00242              -3.00    32800.00
00243              -0.40    32000.00
00244              -2.00    32800.00
00245              -1.80    32800.00
00246              -1.80    32800.00
00247              -2.20    32000.00
00248              -1.80    32800.00
00249              -1.80    32000.00
00250              -1.20    32000.00
00251              -2.40    31200.00
00252              -1.40    32000.00
00253              -1.40    32000.00
00254              -2.00    32000.00
00255              -1.60    31200.00
00256              -2.20    31200.00
00257              -1.80    31200.00
00258              -1.20    31200.00
00259              -2.00    30400.00
00260              -1.80    30400.00
00261              -1.60    30400.00
00262              -1.80    29600.00
00263              -1.40    28800.00
00264              -1.80    28800.00
00265              -1.40    28800.00
00266              -2.20    28800.00
00267              -1.40    28000.00
00268              -1.80    28000.00
00269              -2.20    28000.00
00270              -1.40    27200.00
00271              -1.40    27200.00
00272              -1.20    26400.00
00273              -1.20    26400.00
00274              -2.00    25600.00
00275              -1.00    25600.00
00276              -1.20    25600.00
00277              -1.40    24800.00
00278              -1.20    24800.00
00279              -1.40    24000.00
00280              -1.40    24000.00
00281              -1.40    22400.00
00282              -1.20    23200.00
00283              -1.20    22400.00
00284              -1.40    21600.00
00285              -0.60    20800.00
00286              -1.40    20800.00
00287              -1.20    20800.00
00288              -1.20    20000.00
00289              -1.40    19200.00
00290              -0.40    19200.00
00291              -1.20    18400.00
00292              -1.20    17600.00
00293              -0.60    17600.00
00294              -1.00    16000.00
00295              -0.60    16000.00
00296              -1.00    16000.00
00297              -1.20    15200.00
00298              -1.00    14400.00
00299              -1.00    14400.00
00300              -0.80    13600.00
00301              -1.20    13600.00
00302              -1.00    12000.00
00303              -0.20    12000.00
00304              -0.60    11200.00
00305              -0.20    11200.00
00306              -1.00    10400.00
00307              -0.60     9600.00
00308              -0.60     9600.00
00309              -0.60     8800.00
00310              -0.60     8000.00
00311              -1.20     8000.00
00312              -1.00     6400.00
00313              -0.40     6400.00
00314              -1.00     5600.00
00315              -0.40     4800.00
00316              -0.60     4800.00
00317              -0.40     4000.00
00318              -0.20     2400.00
00319              -0.60     2400.00
00320              -0.80     1600.00
00321               0.00     1600.00
00322              -0.40      800.00
00323               0.20        0.00
00324               0.20     -800.00
00325               2.00    -1600.00
00326               2.20    -1600.00
00327              -1.80    -1600.00
00328               0.60    -2400.00
00329               1.40    -3200.00
00330               0.20    -4000.00
00331               0.60    -4000.00
00332               9.40    -4800.00
00333              25.00    -6400.00
00334             -11.00    -7200.00
00335             -25.00    -8000.00
00336              13.00    -8000.00
00337              18.80    -8000.00
00338             -25.00    -8000.00
00339               6.60    -8800.00
00340              25.00   -10400.00
00341             -25.00    -9600.00
00342               9.00   -11200.00
00343              25.00   -11200.00
00344             -25.00   -11200.00
00345              25.00   -12800.00
00346              11.60   -12800.00
00347             -18.40   -13600.00
00348              25.00   -13600.00
00349             -25.00   -14400.00
00350              19.60   -16000.00
00351              17.00   -16000.00
00352             -25.00   -16800.00
00353              21.40   -16800.00
00354              14.80   -17600.00
00355             -25.00   -17600.00
00356               5.20   -17600.00
00357              22.80   -19200.00
00358             -25.00   -19200.00
00359              13.00   -20000.00
00360              18.80   -20000.00
00361             -22.20   -20800.00
00362              14.20   -21600.00
00363               0.60   -22400.00
00364             -12.20   -22400.00
00365              10.00   -22400.00
00366               4.80   -23200.00
00367              -8.40   -23200.00
00368              11.40   -24000.00
00369               0.00   -24000.00
00370              -8.60   -24000.00
00371              11.00   -24800.00
00372              -4.40   -25600.00
00373              -0.80   -25600.00
00374               7.40   -25600.00
00375              -1.80   -26400.00
00376              -0.60   -27200.00
00377               3.80   -27200.00
00378              -0.60   -27200.00
00379              -0.60   -28000.00
00380               4.60   -28000.00
00381              -1.40   -28800.00
00382               0.40   -28800.00
00383               3.60   -28800.00
00384              -1.40   -29600.00
00385               2.00   -28800.00
00386               4.20   -29600.00
00387              -1.80   -29600.00
00388               2.00   -30400.00
00389               1.20   -30400.00
00390              -1.60   -30400.00
00391               2.00   -31200.00
00392               1.60   -31200.00
00393               1.40   -30400.00
00394               1.80   -31200.00
00395               1.00   -32000.00
00396               0.40   -31200.00
00397               0.40   -32000.00
00398               1.20   -32000.00
00399               1.00   -32000.00
00400               1.80   -32000.00
00401               1.20   -32000.00
00402               0.60   -32000.00
00403               1.80   -32000.00
00404               0.00   -32000.00
00405               1.20   -32000.00
00406               1.80   -32000.00
00407               0.40   -32000.00
00408               2.20   -32000.00
00409               0.60   -32000.00
00410               0.60   -32000.00
00411               2.00   -32000.00
00412               1.40   -32000.00
00413               1.00   -32000.00
00414               1.20   -32000.00
00415               0.80   -32000.00
00416               0.60   -31200.00
00417               1.40   -32000.00
00418               1.00   -31200.00
00419               0.80   -31200.00
00420               1.80   -31200.00
00421               1.00   -30400.00
00422               0.40   -30400.00
00423               1.20   -30400.00
00424               0.60   -29600.00
00425               1.20   -30400.00
00426               1.80   -29600.00
00427               0.40   -29600.00
00428               1.40   -29600.00
00429               1.00   -28800.00
00430               0.60   -28800.00
00431               1.00   -28800.00
00432               1.20   -28800.00
00433               0.40   -28000.00
00434               0.60   -27200.00
00435               1.20   -27200.00
00436               1.00   -27200.00
00437               1.00   -26400.00
00438               1.20   -26400.00
00439               0.40   -26400.00
00440               1.00   -25600.00
00441               0.40   -25600.00
00442               0.40   -25600.00
00443               1.20   -24000.00
00444               0.60   -24000.00
00445               0.40   -24000.00
00446               1.00   -23200.00
00447               0.20   -23200.00
00448               0.40   -22400.00
00449               0.20   -22400.00
00450               0.20   -22400.00
00451               0.40   -21600.00
00452               0.60   -20800.00
00453               0.40   -20000.00
00454               0.40   -19200.00
00455               0.40   -20000.00
00456              -0.20   -18400.00
00457               0.60   -17600.00
00458               0.40   -17600.00
00459              -0.20   -16800.00
00460               0.20   -16800.00
00461               0.20   -16800.00
00462              -0.20   -16000.00
00463               0.40   -15200.00
00464               0.00   -14400.00
00465               0.20   -14400.00
00466               0.40   -13600.00
00467              -0.40   -13600.00
00468               0.20   -12800.00
00469               0.00   -12000.00
00470              -0.40   -11200.00
00471               0.40   -11200.00
00472               0.40   -10400.00
00473              -0.20    -9600.00
00474              -0.20    -8800.00
00475               0.20    -9600.00
00476              -0.40    -8000.00
00477              -0.20    -7200.00
00478               0.20    -7200.00
00479              -0.40    -6400.00
00480              -0.40    -6400.00
00481              -0.20    -4800.00
00482              -0.60    -4800.00
00483              -0.60    -4000.00
00484              -0.20    -3200.00
00485              -0.60    -2400.00
00486              -0.60    -1600.00
00487              -0.40     -800.00
00488              -0.40     -800.00
00489              -0.20        0.00
00490               0.20        0.00
00491               0.20     1600.00
00492               2.60     1600.00
00493               1.80     2400.00
00494              -2.60     2400.00
00495               0.20     3200.00
00496               1.00     3200.00
00497              -1.80     4800.00
00498               4.60     4800.00
00499              25.00     6400.00
00500               2.80     8000.00
00501             -25.00     8000.00
00502               4.60     8000.00
00503              23.00     8800.00
00504             -25.00     8000.00
00505              25.00     9600.00
00506              25.00     9600.00
00507             -25.00    10400.00
00508              25.00    11200.00
00509               7.40    11200.00
00510             -25.00    12000.00
00511              25.00    12800.00
00512             -25.00    12800.00
00513              25.00    14400.00
00514              25.00    14400.00
00515             -25.00    14400.00
00516              25.00    15200.00
00517             -24.40    16000.00
00518             -25.00    16000.00
00519              25.00    16800.00
00520             -15.20    17600.00
00521             -24.20    18400.00
00522              22.40    18400.00
00523               6.60    19200.00
00524             -25.00    19200.00
00525              25.00    20000.00
00526              -7.00    20800.00
00527             -15.60    21600.00
00528              24.00    21600.00
00529             -22.40    22400.00
00530               0.40    22400.00
00531               7.00    23200.00
00532              -9.00    23200.00
00533              -1.40    24000.00
00534              12.20    24800.00
00535             -14.20    24800.00
00536               1.20    24800.00
00537               6.20    25600.00
00538             -15.20    25600.00
00539               7.80    25600.00
00540              -1.20    26400.00
00541              -5.60    27200.00
00542               1.80    27200.00
00543              -0.60    28000.00
00544              -5.00    28000.00
00545               0.40    28000.00
00546               1.00    28800.00
00547              -6.00    28800.00
00548               0.60    28800.00
00549              -0.60    29600.00
00550              -5.20    29600.00
00551               2.40    30400.00
00552              -1.20    30400.00
00553              -4.20    30400.00
00554               1.80    30400.00
00555              -3.60    30400.00
00556              -2.20    31200.00
00557              -0.40    31200.00
00558              -3.60    31200.00
00559               0.20    31200.00
00560              -0.80    31200.00
00561              -2.20    32000.00
00562              -2.00    32800.00
00563              -2.00    32800.00
00564              -1.80    32000.00
00565              -2.00    32800.00
00566              -0.40    32800.00
00567              -2.60    32800.00
00568              -1.20    32800.00
00569              -0.60    32800.00
00570              -3.60    32000.00
00571              -0.80    32800.00
00572              -2.40    32800.00
00573              -2.60    33600.00
00574               0.20    33600.00
00575              -3.20    32800.00
00576              -1.20    32800.00
00577              -1.00    32000.00
00578              -2.00    32800.00
00579              -1.80    32800.00
00580              -2.20    32000.00
00581              -2.00    32800.00
00582              -2.00    32000.00
00583              -1.20    32800.00
00584              -2.00    31200.00
00585              -2.20    32000.00
00586              -1.20    32000.00
00587              -2.00    31200.00
00588              -1.80    32000.00
00589              -1.80    31200.00
00590              -2.80    31200.00
00591              -1.40    31200.00
00592              -1.80    30400.00
00593              -2.40    30400.00
00594              -1.20    30400.00
00595              -1.80    30400.00
00596              -1.60    29600.00
00597              -1.20    29600.00
00598              -1.40    28800.00
00599              -2.20    28800.00
00600              -1.40    28800.00
00601              -1.20    28000.00
00602              -2.20    28000.00
00603              -1.60    28000.00
00604              -1.40    27200.00
00605              -2.00    27200.00
00606              -1.20    27200.00
00607              -1.60    25600.00
00608              -1.80    25600.00
00609              -0.60    25600.00
00610              -1.00    24800.00
00611              -1.00    24800.00
00612              -1.40    24000.00
00613              -0.80    24000.00
00614              -1.40    24000.00
00615              -1.40    22400.00
00616              -0.60    23200.00
00617              -2.00    21600.00
00618              -1.40    21600.00
00619              -0.60    20800.00
00620              -1.80    20800.00
00621              -1.20    20800.00
00622              -1.20    19200.00
00623              -1.00    19200.00
00624              -0.60    18400.00
00625              -1.20    18400.00
00626              -1.00    18400.00
00627              -1.00    16800.00
00628              -0.80    16800.00
00629              -1.00    16000.00
00630              -1.20    15200.00
00631              -1.00    14400.00
00632              -1.20    14400.00
00633              -0.80    14400.00
00634              -1.00    12800.00
00635              -1.20    12800.00
00636              -1.00    12800.00
00637              -0.60    12000.00
00638              -1.00    11200.00
00639              -1.20    11200.00
00640              -0.60     9600.00
00641              -0.60     8800.00
00642              -1.00     8800.00
00643              -0.20     8000.00
00644              -0.80     8000.00
00645              -1.00     6400.00
00646              -0.40     6400.00
00647              -0.60     5600.00
00648              -0.60     5600.00
00649              -0.60     4800.00
00650              -0.60     3200.00
00651              -0.20     3200.00
00652              -0.40     2400.00
00653              -1.20     1600.00
00654              -0.40     1600.00
00655              -0.60      800.00
00656              -0.40        0.00
00657               0.40        0.00
00658               0.60     -800.00
00659               3.60     -800.00
00660              -0.20    -1600.00
00661              -1.00    -1600.00
00662               1.20    -2400.00
00663               1.00    -3200.00
00664              -0.60    -3200.00
00665               4.40    -4000.00
00666              19.00    -4800.00
00667              19.60    -6400.00
00668             -25.00    -7200.00
00669             -17.80    -8000.00
00670              25.00    -8000.00
00671             -15.00    -8800.00
00672             -25.00    -8000.00
00673              25.00    -9600.00
00674              10.20   -10400.00
00675             -25.00   -10400.00
00676              25.00   -11200.00
00677             -12.60   -12000.00
00678             -25.00   -12000.00
00679              25.00   -12800.00
00680             -25.00   -12800.00
00681              20.40   -13600.00
00682              -4.60   -14400.00
00683             -19.40   -15200.00
00684              25.00   -15200.00
00685             -23.80   -16000.00
00686              -8.60   -16800.00
00687              25.00   -17600.00
00688             -12.60   -17600.00
00689             -18.20   -19200.00
00690              25.00   -18400.00
00691              -7.60   -19200.00
00692             -18.80   -19200.00
00693              25.00   -20000.00
00694             -11.60   -20800.00
00695              -5.40   -20800.00
00696              16.40   -20800.00
00697             -13.00   -22400.00
00698               0.40   -22400.00
00699              10.80   -23200.00
00700              -6.60   -23200.00
00701               1.20   -23200.00
00702              11.00   -24000.00
00703             -11.00   -24000.00
00704               5.40   -24800.00
00705               5.20   -25600.00
00706              -7.80   -25600.00
00707               7.40   -26400.00
00708               1.40   -26400.00
00709              -2.80   -26400.00
00710               3.00   -27200.00
00711               2.20   -27200.00
00712              -2.20   -27200.00
00713               3.40   -28000.00
00714               1.80   -28800.00
00715              -2.60   -28800.00
00716               3.80   -28800.00
00717               0.40   -29600.00
00718              -0.60   -29600.00
00719               4.20   -29600.00
00720               0.40   -29600.00
00721              -0.20   -29600.00
00722               3.20   -30400.00
00723              -0.40   -29600.00
00724               0.20   -30400.00
00725               1.80   -31200.00
00726               0.80   -32000.00
00727               2.00   -32000.00
00728               1.00   -32000.00
00729               1.20   -32000.00
00730               0.60   -32000.00
00731               1.40   -32000.00
00732               1.40   -32000.00
00733               2.20   -32000.00
00734               0.60   -32000.00
00735              -2.80   -32000.00
00736               7.80   -32000.00
00737              -6.20   -32000.00
00738               2.00   -32000.00
00739               3.60   -32000.00
00740               2.60   -32800.00
00741               4.80   -32000.00
00742              -5.40   -32000.00
00743               7.60   -32000.00
00744              -2.00   -32000.00
00745              -2.80   -32000.00
00746               3.00   -32000.00
00747               0.00   -32000.00
00748               3.60   -32000.00
00749              -0.40   -32000.00
00750               3.80   -32000.00
00751               1.00   -32000.00
00752               1.80   -31200.00
00753               3.60   -30400.00
00754              -3.00   -31200.00
00755               0.40   -30400.00
00756               2.00   -30400.00
00757               0.60   -30400.00
00758              -1.60   -29600.00
00759               3.60   -30400.00
00760               5.80   -29600.00
00761              -0.80   -29600.00
00762               2.20   -29600.00
00763              -1.60   -28800.00
00764              -0.20   -28800.00
00765               1.40   -28800.00
00766              -2.60   -28800.00
00767               2.20   -27200.00
00768               2.80   -27200.00
00769               1.20   -27200.00
00770               0.40   -26400.00
00771               2.00   -26400.00
00772               0.40   -26400.00
00773              -0.20   -26400.00
00774               0.40   -25600.00
00775              -1.40   -24800.00
00776               1.80   -24800.00
00777               1.00   -24000.00
00778               0.60   -24000.00
00779               1.40   -23200.00
00780               0.60   -23200.00
00781               0.40   -23200.00
00782               1.00   -22400.00
00783              -0.60   -21600.00
00784              -0.40   -21600.00
00785               1.40   -20800.00
00786               0.20   -20000.00
00787              -0.20   -20000.00
00788               1.20   -20000.00
00789               0.20   -18400.00
00790              -0.20   -17600.00
00791               0.40   -17600.00
00792              -0.60   -17600.00
00793              -0.20   -17600.00
00794               1.00   -16800.00
00795              -0.60   -16000.00
00796               0.20   -15200.00
00797               1.00   -14400.00
00798               0.40   -14400.00
00799               0.60   -14400.00
00800               0.20   -13600.00
00801               0.00   -12800.00
00802               0.20   -12000.00
00803              -0.60   -12000.00
00804              -0.40   -11200.00
00805               0.20   -10400.00
00806              -0.20   -10400.00
00807               0.20    -9600.00
00808               0.20    -8800.00
00809               0.20    -8000.00
00810               0.00    -8000.00
00811              -0.20    -7200.00
00812              -0.40    -6400.00
00813              -0.40    -6400.00
00814              -0.40    -5600.00
00815              -0.20    -4000.00
00816              -0.20    -4000.00
00817               0.00    -3200.00
00818              -0.20    -3200.00
00819               0.20    -1600.00
00820              -0.40    -1600.00
00821              -1.00     -800.00
00822              -0.20        0.00
00823              -0.40        0.00
00824              -0.60      800.00
00825               1.40     1600.00
00826               3.40     1600.00
00827              -1.80     2400.00
00828              -0.60     2400.00
00829               1.40     3200.00
00830              -0.60     4000.00
00831              -1.20     4800.00
00832              14.00     5600.00
00833              25.00     6400.00
00834             -25.00     7200.00
00835             -25.00     8000.00
00836              25.00     8000.00
00837             -13.20     8000.00
00838             -25.00     8800.00
00839              25.00    10400.00
00840             -25.00     9600.00
00841             -15.40    11200.00
00842              25.00    11200.00
00843             -25.00    11200.00
00844              25.00    12800.00
00845              15.80    12800.00
00846             -25.00    12800.00
00847              25.00    14400.00
00848             -25.00    13600.00
00849              12.80    15200.00
00850              25.00    16000.00
00851             -25.00    16000.00
00852              25.00    16000.00
00853              19.60    17600.00
00854             -25.00    17600.00
00855              -1.40    18400.00
00856              25.00    19200.00
00857             -25.00    19200.00
00858              -1.00    20000.00
00859              25.00    20800.00
00860             -25.00    21600.00
00861              18.00    21600.00
00862              -1.60    22400.00
00863             -18.20    22400.00
00864              11.80    22400.00
00865              -2.00    23200.00
00866              -9.00    24000.00
00867              10.00    24000.00
00868              -1.20    24800.00
00869             -14.60    24800.00
00870              13.20    24800.00
00871              -9.80    25600.00
00872              -3.00    25600.00
00873               7.40    26400.00
00874              -7.40    27200.00
00875              -0.60    27200.00
00876               1.00    27200.00
00877              -3.00    28800.00
00878              -2.80    28000.00
00879               3.40    28800.00
00880              -3.80    28800.00
00881              -3.00    28800.00
00882               0.60    29600.00
00883              -5.20    30400.00
00884              -1.40    29600.00
00885               2.00    30400.00
00886              -4.40    30400.00
00887               0.40    30400.00
00888              -0.20    31200.00
00889              -4.60    31200.00
00890               0.20    31200.00
00891              -2.80    31200.00
00892              -1.40    32000.00
00893               0.40    32800.00
00894              -2.20    32000.00
00895              -1.40    32000.00
00896              -2.20    32800.00
00897              -2.20    32000.00
00898              -2.00    32800.00
00899              -1.20    32000.00
00900              -1.20    32800.00
00901              -3.00    32800.00
00902              -0.60    32000.00
00903              -2.20    32800.00
00904              -2.00    32800.00
00905              -0.60    32800.00
00906              -2.80    32000.00
00907              -0.40    32800.00
00908              -2.20    32800.00
00909              -3.00    32800.00
00910              -1.80    32800.00
00911              -2.20    32800.00
00912              -1.20    32800.00
00913              -1.80    32000.00
00914              -1.80    32000.00
00915              -2.00    32800.00
00916              -1.40    32800.00
00917              -1.40    32800.00
00918              -3.20    32000.00
00919              -1.20    32800.00
00920              -1.20    31200.00
00921              -2.60    31200.00
00922              -0.60    31200.00
00923              -2.00    32800.00
00924              -2.60    31200.00
00925              -0.60    30400.00
00926              -2.20    30400.00
00927              -2.00    30400.00
00928              -1.20    30400.00
00929              -1.60    30400.00
00930              -1.20    29600.00
00931              -1.40    28800.00
00932              -1.80    28800.00
00933              -1.20    28800.00
00934              -1.20    28800.00
00935              -2.00    28000.00
00936              -1.40    27200.00
00937              -1.20    27200.00
00938              -2.00    28000.00
00939              -0.60    27200.00
00940              -1.40    27200.00
00941              -2.60    25600.00
00942              -0.40    25600.00
00943              -1.40    25600.00
00944              -1.40    25600.00
00945              -1.00    24000.00
00946              -2.20    24000.00
00947              -1.20    24000.00
00948              -0.60    24000.00
00949              -1.20    23200.00
00950              -1.00    22400.00
00951              -1.20    22400.00
00952              -1.20    21600.00
00953              -1.40    21600.00
00954              -0.60    20800.00
00955              -1.80    20000.00
00956              -1.20    19200.00
00957               0.20    19200.00
00958              -1.40    18400.00
00959              -1.80    17600.00
00960              -0.60    16800.00
00961              -1.60    16000.00
00962              -1.00    16000.00
00963              -1.20    16000.00
00964              -1.60    15200.00
00965              -1.00    14400.00
00966              -0.60    14400.00
00967              -0.60    13600.00
00968              -1.00    12800.00
00969              -1.20    12800.00
00970              -0.40    12000.00
00971              -1.00    11200.00
00972              -0.60    11200.00
00973              -1.00    10400.00
00974              -1.00     9600.00
00975              -0.60     8800.00
00976              -1.00     8800.00
00977              -0.80     8000.00
00978              -0.60     7200.00
00979              -1.00     7200.00
00980              -0.40     6400.00
00981              -0.60     5600.00
00982              -0.60     4800.00
00983              -0.60     4800.00
00984               0.20     4000.00
00985              -0.40     2400.00
00986              -1.00     2400.00
00987              -0.60     1600.00
00988              -0.20     1600.00
00989              -0.60        0.00
00990              -0.40        0.00
00991               1.00        0.00
00992               2.20     -800.00
00993               1.40    -1600.00
00994              -1.40    -2400.00
00995               1.40    -3200.00
00996               1.00    -3200.00
00997               0.40    -3200.00
00998               1.20    -4800.00
00999               9.80    -4800.00
01000              25.00    -5600.00
01001             -14.80    -7200.00
01002             -25.00    -7200.00
01003              15.40    -8000.00
01004              15.80    -8000.00
01005             -25.00    -8000.00
01006              12.20    -9600.00
01007              25.00    -9600.00
01008             -25.00    -9600.00
01009              17.80   -10400.00
01010              25.00   -12000.00
01011             -25.00   -11200.00
01012              25.00   -12800.00
01013               6.40   -13600.00
01014             -15.20   -13600.00
01015              25.00   -14400.00
01016             -25.00   -14400.00
01017              23.00   -16000.00
01018              13.20   -16000.00
01019             -25.00   -16000.00
01020              24.00   -16800.00
01021              12.40   -17600.00
01022             -25.00   -17600.00
01023               7.60   -17600.00
01024              21.80   -18400.00
01025             -25.00   -19200.00
01026              15.60   -20000.00
01027              16.20   -20000.00
01028             -21.00   -20000.00
01029              15.00   -21600.00
01030              -1.20   -22400.00
01031             -10.00   -22400.00
01032               9.80   -23200.00
01033               1.80   -23200.00
01034              -6.60   -23200.00
01035              12.20   -24000.00
01036              -2.20   -24000.00
01037              -7.60   -24800.00
01038              11.60   -24800.00
01039              -4.40   -25600.00
01040              -0.60   -25600.00
01041               5.80   -26400.00
01042              -0.80   -26400.00
01043              -2.00   -26400.00
01044               2.80   -27200.00
01045               1.00   -27200.00
01046               0.20   -28000.00
01047               5.20   -28800.00
01048              -0.60   -28800.00
01049              -0.60   -28800.00
01050               2.00   -28800.00
01051              -2.20   -29600.00
01052               1.40   -28800.00
01053               5.00   -29600.00
01054              -0.60   -30400.00
01055               1.80   -30400.00
01056               2.80   -30400.00
01057              -1.20   -30400.00
01058               0.60   -30400.00
01059               2.40   -31200.00
01060               1.20   -32000.00
01061               0.60   -32000.00
01062               2.00   -31200.00
01063               0.40   -32000.00
01064               0.80   -32000.00
01065               2.80   -32000.00
01066               0.60   -32000.00
01067               1.20   -32800.00
01068               0.60   -32000.00
01069               0.40   -32000.00
01070               2.60   -32000.00
01071               0.80   -32000.00
01072               1.80   -32000.00
01073               2.20   -32000.00
01074               0.20   -32000.00
01075               2.00   -32000.00
01076               1.00   -32000.00
01077               0.20   -32000.00
01078               2.20   -32000.00
01079               1.80   -32000.00
01080               1.00   -32000.00
01081               1.40   -32000.00
01082               1.40   -32000.00
01083               0.40   -31200.00
01084               1.40   -32000.00
01085               1.40   -31200.00
01086               0.40   -31200.00
01087               1.80   -31200.00
01088               1.80   -30400.00
01089               0.60   -31200.00
01090               1.20   -30400.00
01091               2.00   -29600.00
01092               1.00   -30400.00
01093               0.60   -29600.00
01094               0.60   -28800.00
01095               1.20   -29600.00
01096               0.20   -28800.00
01097               0.80   -28800.00
01098               1.00   -28800.00
01099               1.00   -28000.00
01100               0.60   -28800.00
01101               1.00   -27200.00
01102               0.20   -27200.00
01103               1.00   -27200.00
01104               1.20   -27200.00
01105               1.00   -26400.00
01106               0.60   -25600.00
01107               1.20   -25600.00
01108               0.40   -25600.00
01109               0.20   -24800.00
01110               0.40   -24800.00
01111               0.40   -24000.00
01112               0.40   -24000.00
01113               0.20   -23200.00
01114               1.00   -23200.00
01115               1.00   -22400.00
01116               0.20   -21600.00
01117               1.00   -21600.00
01118               0.80   -20800.00
01119               0.20   -20800.00
01120               0.40   -20000.00
01121               0.40   -20000.00
01122               0.20   -18400.00
01123               0.80   -18400.00
01124               0.60   -17600.00
01125               0.60   -17600.00
01126               0.00   -16800.00
01127               0.00   -16800.00
01128              -0.20   -16000.00
01129               0.00   -16000.00
01130               0.40   -14400.00
01131               0.20   -14400.00
01132               0.40   -13600.00
01133               0.60   -13600.00
01134               0.20   -12800.00
01135               0.00   -12800.00
01136               0.00   -12000.00
01137               0.40   -11200.00
01138               0.20   -10400.00
01139              -0.40   -10400.00
01140               0.00    -9600.00
01141               0.20    -9600.00
01142              -0.20    -8000.00
01143              -0.40    -8000.00
01144               0.20    -7200.00
01145               0.20    -6400.00
01146              -0.20    -6400.00
01147               0.00    -5600.00
01148               0.00    -4800.00
01149              -0.60    -4000.00
01150              -0.20    -4000.00
01151               0.20    -3200.00
01152              -0.60    -2400.00
01153              -0.20    -1600.00
01154               0.20    -1600.00
01155              -0.60     -800.00
01156              -0.40        0.00
01157              -1.20        0.00
01158               0.40      800.00
01159               3.40     1600.00
01160               0.20     2400.00
01161              -3.00     2400.00
01162               0.40     3200.00
01163              -0.40     3200.00
01164              -1.40     4000.00
01165               6.60     4800.00
01166              25.00     6400.00
01167              -1.40     8000.00
01168             -25.00     8000.00
01169               6.80     8000.00
01170              20.40     8000.00
01171             -25.00     8000.00
01172              25.00     9600.00
01173              25.00    10400.00
01174             -25.00     9600.00
01175              25.00    12000.00
01176              -3.40    11200.00
01177             -25.00    12000.00
01178              25.00    12800.00
01179             -25.00    12800.00
01180              25.00    14400.00
01181              18.60    14400.00
01182             -25.00    15200.00
01183              25.00    15200.00
01184             -25.00    16000.00
01185             -22.60    16800.00
01186              25.00    17600.00
01187             -18.60    17600.00
01188             -23.00    18400.00
01189              24.40    18400.00
01190               2.20    19200.00
01191             -25.00    19200.00
01192              25.00    20000.00
01193             -10.80    20800.00
01194             -12.40    20800.00
01195              23.60    21600.00
01196             -23.00    22400.00
01197               2.20    22400.00
01198               7.00    22400.00
01199             -10.20    24000.00
01200              -0.40    24000.00
01201              11.60    24000.00
01202             -15.60    24800.00
01203               2.80    24800.00
01204               5.20    24800.00
01205             -14.60    25600.00
01206               8.40    26400.00
01207              -2.00    26400.00
01208              -4.60    27200.00
01209               1.80    27200.00
01210              -1.40    28000.00
01211              -5.00    27200.00
01212               1.80    28000.00
01213               0.40    28000.00
01214              -5.20    28000.00
01215               1.20    28800.00
01216              -1.80    29600.00
01217              -4.80    29600.00
01218               2.20    30400.00
01219              -2.40    30400.00
01220              -3.80    31200.00
01221               2.00    30400.00
01222              -4.40    31200.00
01223              -2.00    31200.00
01224              -0.20    31200.00
01225              -3.80    31200.00
01226               0.20    32800.00
01227              -1.20    31200.00
01228              -2.40    32000.00
01229              -2.00    32800.00
01230              -2.20    32000.00
01231              -1.80    32800.00
01232              -2.00    32800.00
01233              -0.60    32000.00
01234              -2.80    32000.00
01235              -1.40    32800.00
01236              -1.20    32800.00
01237              -3.20    32800.00
01238               0.40    32800.00
01239              -3.60    32800.00
01240              -2.80    32800.00
01241               1.00    32800.00
01242              -3.00    33600.00
01243              -2.00    33600.00
01244              -2.00    32800.00
01245              -2.40    33600.00
01246              -1.00    32800.00
01247              -2.20    32800.00
01248              -1.60    32000.00
01249              -1.40    32800.00
01250              -1.80    32000.00
01251              -2.20    32000.00
01252              -1.40    32800.00
01253              -1.20    32000.00
01254              -2.60    32000.00
01255              -1.00    31200.00
01256              -2.00    31200.00
01257              -2.80    31200.00
01258              -0.60    31200.00
01259              -1.00    30400.00
01260              -1.80    31200.00
01261              -1.40    30400.00
01262              -1.60    29600.00
01263              -1.20    29600.00
01264              -2.00    28800.00
01265              -1.40    29600.00
01266              -1.80    28800.00
01267              -2.00    28800.00
01268              -1.00    28800.00
01269              -1.80    28000.00
01270              -1.80    27200.00
01271              -1.20    27200.00
01272              -1.20    27200.00
01273              -1.20    26400.00
01274              -2.00    26400.00
01275              -1.20    25600.00
01276              -0.80    25600.00
01277              -1.40    24800.00
01278              -0.60    24000.00
01279              -1.40    24000.00
01280              -1.80    24000.00
01281              -1.20    24000.00
01282              -1.20    22400.00
01283              -1.00    22400.00
01284              -2.20    22400.00
01285              -1.20    21600.00
01286               0.00    20800.00
01287              -1.80    20800.00
01288              -1.20    20000.00
01289              -1.20    19200.00
01290              -1.00    19200.00
01291              -1.00    18400.00
01292              -1.20    18400.00
01293              -1.00    17600.00
01294              -1.80    16800.00
01295              -1.00    16000.00
01296              -1.00    16000.00
01297              -2.00    15200.00
01298              -0.40    15200.00
01299              -1.20    14400.00
01300              -1.20    13600.00
01301              -0.60    13600.00
01302              -1.40    12800.00
01303              -0.60    12000.00
01304              -0.20    11200.00
01305              -1.20    11200.00
01306              -0.60     9600.00
01307              -1.20    10400.00
01308              -0.60     9600.00
01309              -1.00     8800.00
01310              -1.20     8000.00
01311              -0.60     8000.00
01312              -0.40     7200.00
01313              -0.60     6400.00
01314              -0.60     6400.00
01315              -1.00     5600.00
01316              -0.40     4800.00
01317              -0.80     4800.00
01318               0.40     3200.00
01319              -0.40     2400.00
01320              -1.00     2400.00
01321              -0.40     1600.00
01322              -0.60      800.00
01323              -0.80        0.00
01324               1.00        0.00
01325               1.00     -800.00
01326               3.60     -800.00
01327              -0.40    -1600.00
01328              -1.00    -1600.00
01329               1.40    -2400.00
01330               0.80    -3200.00
01331              -0.40    -4000.00
01332               5.20    -4800.00
01333              20.00    -4800.00
01334              17.40    -6400.00
01335             -25.00    -7200.00
01336             -14.60    -8000.00
01337              25.00    -8000.00
01338             -18.00    -8800.00
01339             -25.00    -8000.00
01340              25.00    -9600.00
01341               2.20   -10400.00
01342             -25.00   -10400.00
01343              25.00   -11200.00
01344             -20.60   -11200.00
01345             -25.00   -12000.00
01346              25.00   -12800.00
01347             -25.00   -13600.00
01348              22.80   -13600.00
01349              -9.00   -14400.00
01350             -15.60   -14400.00
01351              25.00   -16000.00
01352             -25.00   -16000.00
01353              -5.80   -16000.00
01354              25.00   -16800.00
01355             -15.40   -17600.00
01356             -16.60   -18400.00
01357              25.00   -18400.00
01358             -11.00   -19200.00
01359             -16.20   -19200.00
01360              25.00   -20000.00
01361             -14.80   -20000.00
01362              -3.40   -21600.00
01363              15.80   -21600.00
01364             -14.20   -22400.00
01365               1.80   -22400.00
01366              10.20   -22400.00
01367              -7.40   -23200.00
01368               2.60   -24000.00
01369              10.00   -24000.00
01370             -11.20   -24000.00
01371               6.60   -25600.00
01372               4.00   -24800.00
01373              -7.80   -25600.00
01374               7.40   -25600.00
01375               0.60   -26400.00
01376              -2.80   -26400.00
01377               3.40   -27200.00
01378               2.00   -27200.00
01379              -1.60   -27200.00
01380               3.80   -28000.00
01381               1.80   -28800.00
01382              -2.20   -28800.00
01383               4.20   -28800.00
01384               0.60   -28800.00
01385              -0.40   -29600.00
01386               4.20   -29600.00
01387               0.20   -29600.00
01388              -0.20   -30400.00
01389               3.00   -30400.00
01390              -0.80   -30400.00
01391               0.60   -30400.00
01392               2.20   -30400.00
01393               0.60   -31200.00
01394               1.80   -31200.00
01395               1.60   -32000.00
01396               1.60   -32000.00
01397               0.40   -32000.00
01398               1.20   -32000.00
01399               1.40   -32000.00
01400               1.00   -32000.00
01401               1.40   -32000.00
01402               1.40   -32000.00
01403               1.40   -32000.00
01404               0.40   -32000.00
01405               0.60   -32000.00
01406               2.60   -32000.00
01407               0.40   -32000.00
01408               1.40   -32000.00
01409               2.20   -32000.00
01410               0.00   -32000.00
01411               1.80   -32000.00
01412               1.80   -32000.00
01413               1.20   -32000.00
01414               1.40   -32000.00
01415               1.00   -32000.00
01416               1.20   -32000.00
01417               0.80   -32000.00
01418               1.20   -31200.00
01419               0.40   -32000.00
01420               1.20   -31200.00
01421               1.80   -30400.00
01422               0.40   -30400.00
01423               1.20   -30400.00
01424               1.20   -30400.00
01425               1.20   -29600.00
01426               1.60   -29600.00
01427               0.60   -28800.00
01428               1.00   -29600.00
01429               1.00   -28800.00
01430               0.40   -28800.00
01431               1.00   -28800.00
01432               1.20   -28800.00
01433               1.00   -28000.00
01434               1.00   -28000.00
01435               0.60   -27200.00
01436               0.40   -27200.00
01437               0.60   -27200.00
01438               0.60   -26400.00
01439               0.80   -26400.00
01440               1.40   -25600.00
01441               0.40   -25600.00
01442               0.00   -24800.00
01443               1.00   -24800.00
01444               0.80   -24000.00
01445               0.40   -24000.00
01446               1.20   -23200.00
01447               0.40   -23200.00
01448               1.00   -22400.00
01449               0.40   -22400.00
01450               0.40   -22400.00
01451               0.60   -20800.00
01452               0.40   -20800.00
01453               0.60   -20000.00
01454               0.40   -20000.00
01455               0.20   -19200.00
01456               0.60   -18400.00
01457               0.40   -17600.00
01458               0.40   -17600.00
01459               0.60   -17600.00
01460               0.00   -16800.00
01461              -0.20   -16000.00
01462               0.80   -16000.00
01463               0.40   -16000.00
01464              -0.20   -14400.00
01465               0.60   -14400.00
01466               0.20   -13600.00
01467              -1.00   -12800.00
01468               0.20   -12800.00
01469               0.20   -12000.00
01470              -0.40   -12000.00
01471               1.00   -11200.00
01472               0.40   -10400.00
01473              -0.40    -9600.00
01474               0.40    -9600.00
01475              -0.40    -9600.00
01476               0.20    -8000.00
01477               0.60    -8000.00
01478              -0.60    -7200.00
01479              -0.40    -6400.00
01480               0.60    -5600.00
01481              -0.60    -4800.00
01482              -1.40    -4800.00
01483              -0.20    -4000.00
01484               0.20    -3200.00
01485              -0.60    -2400.00
01486              -0.20    -2400.00
01487              -0.40    -1600.00
01488              -1.00     -800.00
01489              -0.20        0.00
01490               0.20        0.00
01491              -0.60      800.00
01492               0.60     1600.00
01493               3.60     1600.00
01494              -2.60     2400.00
01495              -1.80     2400.00
01496               1.00     3200.00
01497              -0.60     4000.00
01498               0.00     4000.00
01499              15.60     5600.00
01500              25.00     6400.00
01501             -25.00     8000.00
01502             -25.00     8000.00
01503              25.00     8000.00
01504             -16.60     8800.00
01505             -23.00     8800.00
01506              25.00     9600.00
01507             -25.00     9600.00
01508              -6.20    11200.00
01509              25.00    11200.00
01510             -25.00    11200.00
01511              25.00    12800.00
01512               8.20    12800.00
01513             -25.00    14400.00
01514              25.00    14400.00
01515             -25.00    14400.00
01516              21.20    15200.00
01517              25.00    15200.00
01518             -25.00    16000.00
01519              25.00    16800.00
01520              15.40    17600.00
01521             -25.00    17600.00
01522               0.20    18400.00
01523              25.00    19200.00
01524             -25.00    19200.00
01525               3.80    20000.00
01526              25.00    20800.00
01527             -25.00    20800.00
01528              19.60    21600.00
01529              -5.00    21600.00
01530             -16.60    22400.00
01531              12.20    22400.00
01532              -2.60    22400.00
01533              -8.00    23200.00
01534              11.00    24800.00
01535              -2.80    24800.00
01536             -13.40    24800.00
01537              13.20    24800.00
01538             -11.40    25600.00
01539              -2.20    25600.00
01540               7.00    27200.00
01541              -7.20    26400.00
01542              -0.20    27200.00
01543               1.00    27200.00
01544              -3.40    28000.00
01545              -2.80    28000.00
01546               2.80    28000.00
01547              -4.60    28800.00
01548              -3.00    28800.00
01549               1.20    29600.00
01550              -5.20    28800.00
01551               0.20    30400.00
01552               2.40    30400.00
01553              -5.40    30400.00
01554               0.40    30400.00
01555              -1.00    30400.00
01556              -5.20    31200.00
01557               0.60    31200.00
01558              -3.00    32000.00
01559              -1.80    31200.00
01560              -0.20    31200.00
01561              -2.20    32000.00
01562              -1.80    32000.00
01563              -2.60    31200.00
01564              -2.00    32800.00
01565              -2.00    32800.00
01566              -1.40    32000.00
01567              -1.80    32800.00
01568              -2.60    32800.00
01569              -0.20    32800.00
01570              -2.80    32800.00
01571              -1.80    32800.00
01572              -1.20    32000.00
01573              -3.80    32800.00
01574              -0.40    32800.00
01575              -2.20    32800.00
01576              -3.00    32800.00
01577              -0.60    32800.00
01578              -2.00    32000.00
01579              -1.20    32800.00
01580              -1.80    32800.00
01581              -1.80    32000.00
01582              -1.80    32800.00
01583              -1.80    32000.00
01584              -1.20    32800.00
01585              -2.60    32000.00
01586              -1.40    32000.00
01587              -0.80    32000.00
01588              -1.80    31200.00
01589              -1.00    31200.00
01590              -2.40    31200.00
01591              -1.80    31200.00
01592              -1.00    31200.00
01593              -2.20    30400.00
01594              -1.40    30400.00
01595              -1.20    29600.00
01596              -1.20    30400.00
01597              -1.00    28800.00
01598              -1.40    28800.00
01599              -1.40    28800.00
01600              -2.00    28800.00
01601              -1.40    28000.00
01602              -1.40    27200.00
01603              -1.80    28000.00
01604              -1.00    28000.00
01605              -1.80    27200.00
01606              -1.00    26400.00
01607              -1.20    25600.00
01608              -1.80    25600.00
01609              -0.60    25600.00
01610              -1.20    24800.00
01611              -1.40    24800.00
01612              -1.20    24800.00
01613              -2.00    24000.00
01614              -1.40    23200.00
01615              -1.20    23200.00
01616              -1.20    22400.00
01617              -1.60    22400.00
01618              -1.80    21600.00
01619              -1.00    21600.00
01620              -1.80    20800.00
01621              -1.60    20000.00
01622              -1.20    20000.00
01623              -1.40    19200.00
01624              -1.00    18400.00
01625              -1.00    18400.00
01626              -1.20    17600.00
01627              -1.20    17600.00
01628              -1.00    16800.00
01629              -0.60    16000.00
01630              -1.20    15200.00
01631              -1.20    15200.00
01632              -1.20    14400.00
01633              -1.00    13600.00
01634              -1.20    13600.00
01635              -1.20    12800.00
01636              -1.00    12000.00
01637              -0.40    12000.00
01638              -0.60    11200.00
01639              -0.60    10400.00
01640              -1.20    10400.00
01641              -0.60     9600.00
01642              -0.60     8800.00
01643              -0.60     8000.00
01644              -0.40     8000.00
01645              -0.60     8000.00
01646              -0.60     6400.00
01647              -0.40     5600.00
01648              -0.40     5600.00
01649              -0.40     5600.00
01650              -0.60     4000.00
01651              -0.20     3200.00
01652              -0.20     3200.00
01653              -0.60     2400.00
01654              -0.80     1600.00
01655              -0.20     1600.00
01656              -0.40      800.00
01657               0.40        0.00
01658               0.60        0.00
01659               2.60     -800.00
01660               2.20     -800.00
01661              -1.40    -1600.00
01662               1.00    -3200.00
01663               1.80    -3200.00
01664               0.00    -4000.00
01665               1.20    -4000.00
01666              10.60    -4800.00
01667              25.00    -6400.00
01668             -18.60    -7200.00
01669             -25.00    -8000.00
01670              18.00    -8000.00
01671              14.00    -8800.00
01672             -25.00    -8000.00
01673              17.80    -8800.00
01674              25.00    -9600.00
01675             -25.00   -10400.00
01676              25.00   -11200.00
01677              25.00   -11200.00
01678             -25.00   -12000.00
01679              25.00   -12800.00
01680               1.00   -12800.00
01681             -11.60   -13600.00
01682              25.00   -14400.00
01683             -25.00   -14400.00
01684              25.00   -14400.00
01685               9.00   -16000.00
01686             -25.00   -16800.00
01687              25.00   -16800.00
01688              10.60   -16800.00
01689             -25.00   -17600.00
01690              10.60   -18400.00
01691              19.40   -19200.00
01692             -25.00   -19200.00
01693              18.60   -20000.00
01694              13.20   -20000.00
01695             -21.60   -20800.00
01696              17.00   -21600.00
01697              -2.20   -21600.00
01698             -10.80   -22400.00
01699              10.60   -22400.00
01700               2.00   -22400.00
01701              -7.00   -24000.00
01702              12.20   -24000.00
01703              -2.80   -24000.00
01704              -6.00   -24000.00
01705              11.00   -25600.00
01706              -6.60   -25600.00
01707               1.40   -25600.00
01708               6.60   -25600.00
01709              -2.80   -26400.00
01710               0.40   -27200.00
01711               3.60   -27200.00
01712              -1.40   -27200.00
01713               0.60   -28000.00
01714               4.60   -28000.00
01715              -2.20   -28800.00
01716               1.80   -29600.00
01717               3.40   -28800.00
01718              -2.20   -28800.00
01719               2.60   -29600.00
01720               3.00   -30400.00
01721              -1.20   -29600.00
01722               2.60   -29600.00
01723               1.80   -30400.00
01724              -0.40   -30400.00
01725               1.40   -30400.00
01726               1.80   -31200.00
01727               1.80   -31200.00
01728               1.00   -30400.00
01729               1.80   -32000.00
01730               0.60   -32000.00
01731               0.40   -32000.00
01732               2.60   -32000.00
01733               0.60   -32000.00
01734               1.40   -32000.00
01735               1.80   -32000.00
01736               0.60   -32000.00
01737               2.00   -32000.00
01738               0.40   -32000.00
01739               1.20   -32000.00
01740               2.00   -32000.00
01741               0.40   -32000.00
01742               2.00   -32000.00
01743               0.40   -32000.00
01744               0.40   -32000.00
01745               2.00   -32000.00
01746               0.60   -32000.00
01747               1.20   -32000.00
01748               1.20   -32000.00
01749               0.40   -32000.00
01750               0.80   -32000.00
01751               1.40   -32000.00
01752               0.40   -31200.00
01753               1.40   -30400.00
01754               2.00   -31200.00
01755               0.40   -31200.00
01756               1.00   -30400.00
01757               1.40   -30400.00
01758               0.40   -30400.00
01759               1.40   -29600.00
01760               1.40   -29600.00
01761              -0.40   -29600.00
01762               1.40   -28800.00
01763               0.60   -28800.00
01764               0.20   -28800.00
01765               1.40   -28800.00
01766               1.00   -28800.00
01767               0.40   -28000.00
01768               1.20   -27200.00
01769               0.80   -27200.00
01770               0.60   -27200.00
01771               1.40   -26400.00
01772               0.60   -26400.00
01773               0.40   -26400.00
01774               1.20   -25600.00
01775              -0.40   -25600.00
01776               0.60   -24800.00
01777               1.40   -24800.00
01778               0.20   -24000.00
01779               0.60   -23200.00
01780               1.40   -23200.00
01781               0.20   -23200.00
01782               1.00   -22400.00
01783               1.00   -22400.00
01784               0.40   -21600.00
01785               0.60   -20800.00
01786               0.60   -20800.00
01787               0.40   -20000.00
01788               0.40   -20000.00
01789               0.40   -18400.00
01790              -0.20   -18400.00
01791               0.40   -17600.00
01792               0.60   -17600.00
01793              -0.20   -16800.00
01794               0.60   -16800.00
01795               0.40   -16800.00
01796               0.20   -16000.00
01797               0.80   -15200.00
01798               0.40   -14400.00
01799               0.00   -14400.00
01800               0.40   -13600.00
01801              -0.20   -13600.00
01802               0.00   -12000.00
01803               0.20   -12000.00
01804               0.20   -12000.00
01805              -0.20   -11200.00
01806              -0.20   -10400.00
01807              -0.20    -9600.00
01808              -0.40    -9600.00
01809               0.00    -8800.00
01810               0.00    -8000.00
01811              -0.40    -8000.00
01812              -0.20    -6400.00
01813              -0.20    -6400.00
01814              -0.60    -4800.00
01815              -0.20    -5600.00
01816              -0.60    -4000.00
01817              -0.60    -4000.00
01818              -0.20    -3200.00
01819              -0.60    -2400.00
01820              -0.60    -1600.00
01821              -0.60     -800.00
01822              -0.60     -800.00
01823              -0.60        0.00
01824              -0.20        0.00
01825               0.20     1600.00
01826               2.20     1600.00
01827               1.00     2400.00
01828              -2.60     2400.00
01829               0.20     3200.00
01830               0.60     3200.00
01831              -1.80     4000.00
01832               6.00     4800.00
01833              25.00     6400.00
01834              -5.40     7200.00
01835             -25.00     8000.00
01836              10.60     8000.00
01837              18.60     8000.00
01838             -25.00     8800.00
01839              25.00     9600.00
01840              25.00    10400.00
01841             -25.00    10400.00
01842              25.00    11200.00
01843             -12.40    11200.00
01844             -25.00    12000.00
01845              25.00    12000.00
01846             -25.00    12800.00
01847              25.00    14400.00
01848              11.00    14400.00
01849             -25.00    15200.00
01850              25.00    15200.00
01851             -25.00    15200.00
01852             -16.40    16000.00
01853              25.00    16800.00
01854             -21.20    17600.00
01855             -21.40    18400.00
01856              25.00    19200.00
01857              -0.60    19200.00
01858             -25.00    19200.00
01859              25.00    20000.00
01860             -14.60    20800.00
01861             -10.00    21600.00
01862              22.20    21600.00
01863             -23.60    22400.00
01864               3.60    22400.00
01865               5.80    22400.00
01866              -9.40    23200.00
01867               0.20    24000.00
01868              10.60    24800.00
01869             -15.80    24800.00
01870               4.20    24800.00
01871               3.60    25600.00
01872             -14.00    25600.00
01873               8.40    25600.00
01874              -3.00    26400.00
01875              -4.20    27200.00
01876               1.80    27200.00
01877              -1.00    28000.00
01878              -5.00    27200.00
01879               1.00    28000.00
01880              -0.60    28000.00
01881              -6.00    28800.00
01882               0.40    29600.00
01883              -1.60    28800.00
01884              -4.40    29600.00
01885               1.80    30400.00
01886              -2.20    30400.00
01887              -3.00    30400.00
01888               1.20    30400.00
01889              -3.80    30400.00
01890              -1.20    31200.00
01891              -1.00    31200.00
01892              -3.60    31200.00
01893              -0.40    31200.00
01894              -1.40    32000.00
01895              -2.00    31200.00
01896              -1.60    32000.00
01897              -2.20    32800.00
01898              -1.80    32000.00
01899              -2.00    32000.00
01900              -1.00    32800.00
01901              -2.80    32000.00
01902              -1.20    32800.00
01903              -0.60    32000.00
01904              -2.80    32800.00
01905              -0.40    33600.00
01906              -2.80    32800.00
01907              -1.80    32800.00
01908              -0.40    32000.00
01909              -3.20    32800.00
01910              -1.20    32800.00
01911              -1.40    32800.00
01912              -1.80    32000.00
01913              -1.20    32800.00
01914              -2.00    32800.00
01915              -1.40    32000.00
01916              -1.40    32000.00
01917              -1.20    32800.00
01918              -2.00    32000.00
01919              -2.00    32000.00
01920              -1.20    31200.00
01921              -1.80    32000.00
01922              -1.20    31200.00
01923              -1.80    31200.00
01924              -2.00    31200.00
01925              -0.60    30400.00
01926              -1.80    30400.00
01927              -1.80    30400.00
01928              -1.20    29600.00
01929              -1.60    30400.00
01930              -1.40    28800.00
01931              -1.40    28800.00
01932              -1.80    28800.00
01933              -1.40    28800.00
01934              -1.20    28000.00
01935              -1.20    28000.00
01936              -1.60    28000.00
01937              -1.20    27200.00
01938              -1.40    27200.00
01939              -1.40    27200.00
01940              -1.00    26400.00
01941              -2.00    25600.00
01942              -1.80    25600.00
01943              -1.00    25600.00
01944              -1.40    25600.00
01945              -1.20    24000.00
01946              -1.80    24000.00
01947              -1.40    24000.00
01948              -1.20    24000.00
01949              -1.40    22400.00
01950              -1.00    22400.00
01951              -1.60    21600.00
01952              -1.20    21600.00
01953              -0.60    20800.00
01954              -1.40    20800.00
01955              -1.20    20000.00
01956              -1.40    19200.00
01957              -1.00    19200.00
01958              -1.40    18400.00
01959              -1.40    17600.00
01960              -1.20    17600.00
01961              -2.20    16800.00
01962              -0.60    16000.00
01963              -0.40    16000.00
01964              -2.00    15200.00
01965              -1.00    15200.00
01966              -0.60    14400.00
01967              -1.20    13600.00
01968              -1.00    12800.00
01969              -1.20    12800.00
01970              -0.60    12000.00
01971              -0.20    11200.00
01972              -1.40    11200.00
01973              -1.00    10400.00
01974              -0.40    10400.00
01975              -1.20     9600.00
01976              -0.40     8800.00
01977              -0.20     8000.00
01978              -1.80     8000.00
01979              -0.20     7200.00
01980              -0.40     5600.00
01981              -1.20     6400.00
01982               1.00     5600.00
01983              -0.20     4800.00
01984              -1.00     4000.00
01985               0.60     3200.00
01986              -0.80     2400.00
01987              -1.40     2400.00
01988              -0.20     1600.00
01989              -0.40      800.00
01990               0.20        0.00
01991               0.80        0.00
01992               1.00     -800.00
01993               3.60    -1600.00
01994              -1.20    -1600.00
01995              -0.40    -1600.00
01996               2.60    -1600.00
01997               1.20    -3200.00
01998              -0.60    -4000.00
01999               5.40    -4000.00
02000              20.60    -4800.00
02001              14.80    -7200.00
02002             -25.00    -7200.00
02003             -11.00    -8000.00
02004              25.00    -8000.00
02005             -22.00    -8000.00
02006             -25.00    -8000.00
02007              25.00    -9600.00
02008              -6.80    -9600.00
02009             -25.00   -10400.00
02010              25.00   -11200.00
02011             -25.00   -11200.00
02012             -25.00   -12800.00
02013              25.00   -12800.00
02014             -25.00   -13600.00
02015              25.00   -14400.00
02016             -12.80   -14400.00
02017             -11.60   -15200.00
02018              25.00   -16000.00
02019             -25.00   -16000.00
02020              -2.20   -16800.00
02021              25.00   -16800.00
02022             -17.20   -17600.00
02023             -14.20   -17600.00
02024              25.00   -17600.00
02025             -14.20   -19200.00
02026             -13.00   -20000.00
02027              25.00   -20000.00
02028             -16.40   -20800.00
02029              -0.60   -20800.00
02030              14.20   -21600.00
02031             -14.20   -21600.00
02032               3.00   -22400.00
02033               9.40   -23200.00
02034              -7.80   -23200.00
02035               3.60   -24000.00
02036               9.00   -24000.00
02037             -11.60   -24800.00
02038               7.00   -25600.00
02039               2.60   -24800.00
02040              -7.00   -25600.00
02041               7.80   -25600.00
02042               0.60   -26400.00
02043              -2.00   -27200.00
02044               3.60   -27200.00
02045               2.00   -27200.00
02046              -1.80   -28000.00
02047               3.60   -28000.00
02048               1.60   -28800.00
02049              -1.80   -28800.00
02050               3.80   -28800.00
02051               0.20   -29600.00
02052              -0.40   -29600.00
02053               4.40   -28800.00
02054              -0.20   -29600.00
02055               0.20   -29600.00
02056               3.60   -30400.00
02057              -0.60   -30400.00
02058               1.00   -31200.00
02059               2.60   -31200.00
02060               0.60   -30400.00
02061               2.00   -32000.00
02062               1.40   -32000.00
02063               0.60   -31200.00
02064               0.80   -32000.00
02065               1.20   -32000.00
02066               1.00   -32000.00
02067               1.00   -32000.00
02068               1.40   -32000.00
02069               0.40   -32000.00
02070               2.40   -32800.00
02071               0.60   -32000.00
02072               0.40   -32800.00
02073               2.20   -32800.00
02074               0.20   -32000.00
02075               1.60   -32800.00
02076               1.80   -32000.00
02077              -0.20   -32000.00
02078               1.80   -32000.00
02079               1.20   -32000.00
02080               0.40   -32000.00
02081               1.00   -32000.00
02082               1.20   -32000.00
02083               0.40   -32000.00
02084               1.20   -32000.00
02085               1.20   -32000.00
02086               1.00   -31200.00
02087               1.40   -32000.00
02088               1.20   -30400.00
02089               0.60   -30400.00
02090               1.20   -30400.00
02091               1.00   -30400.00
02092               1.00   -29600.00
02093               1.00   -29600.00
02094               0.20   -29600.00
02095               1.40   -29600.00
02096               1.40   -29600.00
02097               0.40   -28800.00
02098               1.00   -28800.00
02099               1.20   -28000.00
02100               0.60   -28000.00
02101               1.00   -27200.00
02102               1.40   -27200.00
02103               0.80   -27200.00
02104               0.60   -27200.00
02105               0.60   -26400.00
02106               1.00   -26400.00
02107               1.00   -25600.00
02108               0.60   -25600.00
02109               0.40   -24800.00
02110               1.00   -24000.00
02111               0.80   -24000.00
02112               0.60   -24000.00
02113               1.20   -23200.00
02114               0.40   -23200.00
02115               0.60   -22400.00
02116               0.80   -22400.00
02117               0.60   -21600.00
02118               0.40   -20800.00
02119               0.40   -20800.00
02120               1.20   -20800.00
02121               0.40   -20000.00
02122              -0.20   -20000.00
02123               1.00   -18400.00
02124               0.20   -18400.00
02125               1.20   -17600.00
02126              -0.40   -17600.00
02127              -0.60   -17600.00
02128               1.00   -16000.00
02129               1.00   -16000.00
02130               0.00   -16000.00
02131              -0.20   -15200.00
02132              -0.20   -14400.00
02133               0.40   -13600.00
02134               0.40   -13600.00
02135               0.00   -12800.00
02136               0.40   -12800.00
02137              -0.60   -11200.00
02138              -0.40   -11200.00
02139               0.60   -10400.00
02140               0.20   -10400.00
02141              -1.00    -9600.00
02142               0.00    -8800.00
02143              -0.40    -8000.00
02144              -0.60    -7200.00
02145              -0.20    -7200.00
02146              -0.20    -6400.00
02147              -1.00    -4800.00
02148              -0.20    -4800.00
02149              -0.40    -4800.00
02150              -0.40    -4000.00
02151              -0.60    -3200.00
02152              -0.20    -3200.00
02153              -0.60    -2400.00
02154              -0.40    -1600.00
02155              -0.60    -1600.00
02156              -0.60     -800.00
02157              -0.40        0.00
02158              -0.20      800.00
02159               0.60     1600.00
02160               3.00     1600.00
02161              -2.80     2400.00
02162              -0.80     2400.00
02163               1.20     3200.00
02164              -0.60     3200.00
02165               0.60     4000.00
02166              17.00     5600.00
02167              25.00     7200.00
02168             -25.00     7200.00
02169             -25.00     8000.00
02170              25.00     8000.00
02171             -20.40     8000.00
02172             -18.60     8800.00
02173              25.00     9600.00
02174             -25.00     9600.00
02175               4.40    11200.00
02176              25.00    11200.00
02177             -25.00    12000.00
02178              25.00    12800.00
02179              -0.40    12800.00
02180             -25.00    12800.00
02181              25.00    14400.00
02182             -25.00    14400.00
02183              25.00    15200.00
02184              25.00    15200.00
02185             -25.00    16800.00
02186              25.00    16800.00
02187              12.20    17600.00
02188             -25.00    18400.00
02189               3.00    18400.00
02190              25.00    18400.00
02191             -25.00    19200.00
02192               8.00    20800.00
02193              25.00    20000.00
02194             -25.00    20800.00
02195              22.00    21600.00
02196              -7.40    21600.00
02197             -14.80    22400.00
02198              11.80    22400.00
02199              -3.60    24000.00
02200              -7.60    24000.00
02201              11.00    24000.00
02202              -4.20    24800.00
02203             -12.20    25600.00
02204              12.60    24800.00
02205             -12.40    25600.00
02206              -0.60    25600.00
02207               5.80    26400.00
02208              -7.20    27200.00
02209               0.20    27200.00
02210               0.20    27200.00
02211              -3.60    28000.00
02212              -2.80    28000.00
02213               3.00    28800.00
02214              -5.20    28800.00
02215              -2.00    28800.00
02216               1.00    28800.00
02217              -5.80    28800.00
02218              -0.60    29600.00
02219               1.80    30400.00
02220              -5.80    30400.00
02221               0.20    30400.00
02222              -0.60    30400.00
02223              -5.00    31200.00
02224               0.40    31200.00
02225              -2.80    31200.00
02226              -2.00    31200.00
02227              -0.40    32800.00
02228              -1.80    32000.00
02229              -2.20    32000.00
02230              -2.20    32000.00
02231              -1.20    32000.00
02232              -2.00    32000.00
02233              -1.00    32800.00
02234              -1.40    32800.00
02235              -2.80    32000.00
02236              -0.20    32800.00
02237              -3.00    33600.00
02238              -2.00    32800.00
02239              -1.00    32800.00
02240              -3.00    32000.00
02241               0.20    32800.00
02242              -2.00    32800.00
02243              -2.60    32800.00
02244              -0.60    32800.00
02245              -1.80    32800.00
02246              -1.20    32000.00
02247              -1.40    32800.00
02248              -1.80    32000.00
02249              -1.80    32000.00
02250              -1.20    32800.00
02251              -1.40    32000.00
02252              -2.60    32000.00
02253              -1.20    31200.00
02254              -1.20    32000.00
02255              -2.00    31200.00
02256              -1.00    31200.00
02257              -2.20    31200.00
02258              -1.20    31200.00
02259              -0.60    30400.00
02260              -2.60    30400.00
02261              -1.20    30400.00
02262              -1.40    29600.00
02263              -2.20    29600.00
02264              -1.60    28800.00
02265              -1.40    28800.00
02266              -2.00    28800.00
02267              -1.80    28800.00
02268              -1.40    28000.00
02269              -1.80    28000.00
02270              -1.80    27200.00
02271              -1.80    27200.00
02272              -1.80    27200.00
02273              -0.60    25600.00
02274              -1.40    25600.00
02275              -2.00    25600.00
02276              -0.60    25600.00
02277              -2.00    24800.00
02278              -1.80    24800.00
02279              -0.60    24800.00
02280              -2.00    24800.00
02281              -1.20    24000.00
02282              -1.20    22400.00
02283              -1.40    22400.00
02284              -1.80    22400.00
02285              -1.80    22400.00
02286              -1.00    21600.00
02287              -1.00    20800.00
02288              -1.40    20000.00
02289              -1.20    20000.00
02290              -1.00    19200.00
02291              -0.60    18400.00
02292              -1.40    18400.00
02293              -1.40    18400.00
02294              -1.20    17600.00
02295              -1.20    16800.00
02296              -1.00    16000.00
02297              -1.20    16000.00
02298              -0.80    15200.00
02299              -1.00    14400.00
02300              -0.40    14400.00
02301              -0.40    13600.00
02302              -1.40    12800.00
02303              -1.40    12800.00
02304              -0.60    12000.00
02305              -1.00    11200.00
02306               0.00    11200.00
02307              -0.40    10400.00
02308              -0.60     9600.00
02309              -0.60     8800.00
02310              -1.40     8000.00
02311              -0.80     8000.00
02312              -0.60     7200.00
02313              -0.60     6400.00
02314              -0.20     5600.00
02315              -0.40     5600.00
02316              -0.60     4800.00
02317              -0.20     4800.00
02318              -0.40     3200.00
02319              -0.20     3200.00
02320              -0.40     2400.00
02321              -0.60     1600.00
02322              -0.40     1600.00
02323               0.20        0.00
02324               0.20        0.00
02325               0.60     -800.00
02326               3.00    -1600.00
02327               1.80    -1600.00
02328              -1.80    -1600.00
02329               1.20    -2400.00
02330               1.00    -3200.00
02331              -0.40    -4000.00
02332               1.80    -4000.00
02333              11.60    -4000.00
02334              25.00    -6400.00
02335             -22.00    -8000.00
02336             -25.00    -7200.00
02337              20.00    -8000.00
02338              10.80    -8000.00
02339             -25.00    -8000.00
02340              23.40    -8800.00
02341              25.00   -10400.00
02342             -25.00    -9600.00
02343              25.00   -11200.00
02344              25.00   -11200.00
02345             -25.00   -11200.00
02346              25.00   -12800.00
02347              -4.40   -12800.00
02348              -8.20   -13600.00
02349              24.60   -14400.00
02350             -25.00   -15200.00
02351              25.00   -16000.00
02352               5.80   -15200.00
02353             -25.00   -16800.00
02354              25.00   -16800.00
02355               7.60   -16800.00
02356             -25.00   -18400.00
02357              13.00   -18400.00
02358              16.60   -19200.00
02359             -25.00   -19200.00
02360              21.40   -19200.00
02361              10.60   -20800.00
02362             -20.40   -20800.00
02363              17.40   -20800.00
02364              -3.00   -22400.00
02365             -10.00   -22400.00
02366              11.20   -22400.00
02367               1.20   -23200.00
02368              -7.20   -23200.00
02369              13.40   -24000.00
02370              -3.60   -24000.00
02371              -5.40   -24800.00
02372              10.60   -24800.00
02373              -7.00   -25600.00
02374               1.80   -25600.00
02375               6.20   -26400.00
02376              -2.80   -26400.00
02377               0.40   -27200.00
02378               4.40   -27200.00
02379              -1.60   -27200.00
02380               1.20   -28000.00
02381               5.20   -28000.00
02382              -2.80   -28800.00
02383               1.40   -28800.00
02384               3.20   -28800.00
02385              -2.20   -29600.00
02386               2.60   -29600.00
02387               3.60   -30400.00
02388              -2.00   -29600.00
02389               2.60   -29600.00
02390               1.40   -30400.00
02391              -1.20   -30400.00
02392               2.20   -30400.00
02393               1.40   -31200.00
02394               1.20   -30400.00
02395               1.80   -31200.00
02396               1.20   -32000.00
02397              -0.20   -32000.00
02398               1.00   -32000.00
02399               1.40   -32000.00
02400               0.40   -32000.00
02401               2.00   -32000.00
02402               1.20   -32000.00
02403               0.40   -32000.00
02404               2.00   -32000.00
02405               0.20   -32000.00
02406               1.20   -32000.00
02407               1.60   -32800.00
02408               1.00   -32000.00
02409               1.80   -32800.00
02410               0.40   -32000.00
02411               1.20   -32800.00
02412               1.40   -32800.00
02413               0.60   -32000.00
02414               1.40   -32800.00
02415               1.00   -32000.00
02416               1.00   -32000.00
02417               1.00   -32000.00
02418               1.00   -32000.00
02419               0.60   -31200.00
02420               1.20   -32000.00
02421               1.80   -30400.00
02422               0.60   -30400.00
02423               1.20   -30400.00
02424               1.20   -30400.00
02425               0.80   -29600.00
02426               1.60   -29600.00
02427               1.00   -29600.00
02428               0.40   -30400.00
02429               1.20   -29600.00
02430               0.40   -28800.00
02431               1.00   -28800.00
02432               1.20   -28800.00
02433               1.00   -28000.00
02434               1.00   -28000.00
02435               1.00   -27200.00
02436               1.00   -27200.00
02437               1.00   -27200.00
02438               0.40   -26400.00
02439               1.20   -26400.00
02440               1.00   -25600.00
02441               0.60   -26400.00
02442               0.60   -25600.00
02443               1.00   -25600.00
02444               1.00   -24800.00
02445               1.00   -24000.00
02446               0.60   -24000.00
02447               0.60   -23200.00
02448               0.40   -23200.00
02449               0.60   -22400.00
02450               0.40   -21600.00
02451               0.40   -21600.00
02452               0.40   -20800.00
02453               0.40   -20800.00
02454               0.40   -20000.00
02455               0.20   -20000.00
02456               0.60   -18400.00
02457               0.60   -18400.00
02458               0.60   -17600.00
02459               0.60   -17600.00
02460               0.20   -16800.00
02461               0.40   -16800.00
02462               0.20   -16000.00
02463               0.20   -16000.00
02464               0.40   -15200.00
02465              -0.20   -14400.00
02466               0.20   -13600.00
02467               0.20   -13600.00
02468               0.20   -12800.00
02469              -0.20   -12800.00
02470              -0.20   -12800.00
02471               0.20   -11200.00
02472               0.20   -11200.00
02473              -0.20   -10400.00
02474               0.00    -9600.00
02475              -0.40    -8800.00
02476              -0.20    -8000.00
02477              -0.20    -7200.00
02478              -0.40    -7200.00
02479              -0.20    -6400.00
02480              -0.60    -6400.00
02481              -0.40    -4800.00
02482              -0.20    -4800.00
02483              -0.40    -4000.00
02484              -0.40    -4000.00
02485              -0.20    -3200.00
02486              -0.20    -2400.00
02487              -0.40    -1600.00
02488              -0.60    -1600.00
02489              -0.40     -800.00
02490              -0.20        0.00
02491              -0.20        0.00
02492               0.20     1600.00
02493               2.60     1600.00
02494               0.40     2400.00
02495              -2.40     2400.00
02496               0.20     3200.00
02497               1.00     3200.00
02498              -1.80     4000.00
02499               6.80     5600.00
02500              25.00     6400.00
02501              -9.60     7200.00
02502             -25.00     8000.00
02503              14.00     8000.00
02504              16.20     8000.00
02505             -25.00     8000.00
02506              25.00     9600.00
02507              25.00     9600.00
02508             -25.00    10400.00
02509              25.00    11200.00
02510             -23.60    11200.00
02511             -25.00    12000.00
02512              25.00    12800.00
02513             -25.00    12800.00
02514              25.00    14400.00
02515               1.80    14400.00
02516             -25.00    15200.00
02517              25.00    15200.00
02518             -25.00    16000.00
02519             -10.20    16800.00
02520              25.00    16800.00
02521             -23.40    16800.00
02522             -19.80    18400.00
02523              25.00    18400.00
02524              -4.40    19200.00
02525             -25.00    19200.00
02526              25.00    20800.00
02527             -18.20    20800.00
02528              -6.20    21600.00
02529              19.60    21600.00
02530             -24.60    22400.00
02531               5.20    22400.00
02532               5.20    23200.00
02533             -10.60    24000.00
02534               1.80    24000.00
02535               9.80    24800.00
02536             -16.60    24800.00
02537               6.00    24800.00
02538               2.00    25600.00
02539             -13.40    25600.00
02540               9.00    26400.00
02541              -4.00    27200.00
02542              -3.80    27200.00
02543               1.40    27200.00
02544              -1.20    27200.00
02545              -4.80    28000.00
02546               1.20    28000.00
02547              -1.00    28000.00
02548              -5.40    28800.00
02549               1.00    28800.00
02550              -2.20    28800.00
02551              -3.80    28800.00
02552               2.60    30400.00
02553              -2.80    30400.00
02554              -3.00    31200.00
02555               1.20    30400.00
02556              -4.40    31200.00
02557              -1.20    31200.00
02558              -1.60    31200.00
02559              -3.40    31200.00
02560               0.20    31200.00
02561              -1.80    32800.00
02562              -2.00    32000.00
02563              -1.80    32000.00
02564              -2.00    32800.00
02565              -1.40    32000.00
02566              -2.00    32800.00
02567              -1.00    32000.00
02568              -2.80    32800.00
02569              -1.00    32800.00
02570              -1.00    32800.00
02571              -3.00    32800.00
02572              -0.60    32800.00
02573              -2.80    32000.00
02574              -1.20    32800.00
02575              -0.40    32800.00
02576              -3.40    32800.00
02577              -1.00    32000.00
02578              -1.40    32800.00
02579              -1.80    32800.00
02580              -1.20    32800.00
02581              -2.00    32000.00
02582              -2.00    32000.00
02583              -1.40    32800.00
02584              -1.20    32000.00
02585              -2.20    32000.00
02586              -1.80    32000.00
02587              -1.00    32800.00
02588              -2.20    32000.00
02589              -1.40    31200.00
02590              -1.80    31200.00
02591              -2.20    31200.00
02592              -0.60    30400.00
02593              -2.00    30400.00
02594              -2.20    30400.00
02595              -1.20    30400.00
02596              -2.00    30400.00
02597              -1.40    28800.00
02598              -1.40    28800.00
02599              -2.00    28800.00
02600              -1.80    28800.00
02601              -1.80    28800.00
02602              -1.40    28000.00
02603              -1.80    28000.00
02604              -1.80    27200.00
02605              -1.80    27200.00
02606              -1.20    27200.00
02607              -1.20    25600.00
02608              -2.20    25600.00
02609              -1.20    25600.00
02610              -1.00    24800.00
02611              -1.80    25600.00
02612              -0.60    24800.00
02613              -1.80    24000.00
02614              -2.00    24000.00
02615              -1.00    24000.00
02616              -1.60    23200.00
02617              -1.80    22400.00
02618              -1.00    22400.00
02619              -1.40    21600.00
02620              -0.60    20800.00
02621              -0.60    20800.00
02622              -2.00    19200.00
02623              -1.00    19200.00
02624              -1.20    19200.00
02625              -1.40    18400.00
02626              -0.40    17600.00
02627              -1.80    17600.00
02628              -1.20    17600.00
02629               0.40    16000.00
02630              -1.60    16000.00
02631              -1.00    16000.00
02632               0.40    14400.00
02633              -2.00    14400.00
02634              -0.60    14400.00
02635              -0.60    13600.00
02636              -2.00    12800.00
02637              -0.40    12000.00
02638              -0.20    12000.00
02639              -1.00    11200.00
02640              -1.00     9600.00
02641              -0.60    10400.00
02642              -0.20     8800.00
02643              -1.20     8800.00
02644              -0.40     8000.00
02645              -0.40     8000.00
02646              -1.00     6400.00
02647              -0.40     6400.00
02648               0.00     5600.00
02649              -1.00     4800.00
02650              -0.20     4800.00
02651              -0.60     3200.00
02652              -0.60     3200.00
02653               0.20     2400.00
02654              -1.00     2400.00
02655              -1.00     1600.00
02656               0.40        0.00
02657               0.00        0.00
02658              -0.20        0.00
02659               1.80     -800.00
02660               3.60     -800.00
02661              -1.20    -1600.00
02662              -0.40    -2400.00
02663               1.20    -3200.00
02664               0.40    -3200.00
02665              -0.20    -4000.00
02666               5.80    -4000.00
02667              21.80    -5600.00
02668              12.20    -7200.00
02669             -25.00    -7200.00
02670              -8.20    -8000.00
02671              25.00    -8000.00
02672             -25.00    -8800.00
02673             -25.00    -8000.00
02674              25.00    -9600.00
02675             -15.80   -10400.00
02676             -25.00   -10400.00
02677              25.00   -11200.00
02678             -25.00   -12000.00
02679             -18.20   -12800.00
02680              25.00   -12800.00
02681             -25.00   -13600.00
02682              25.00   -14400.00
02683             -16.60   -14400.00
02684              -7.60   -14400.00
02685              25.00   -15200.00
02686             -25.00   -16000.00
02687               1.00   -16800.00
02688              25.00   -16800.00
02689             -19.20   -17600.00
02690             -12.40   -18400.00
02691              25.00   -18400.00
02692             -17.20   -19200.00
02693              -9.80   -20000.00
02694              25.00   -20000.00
02695             -18.00   -20800.00
02696               1.00   -20800.00
02697              13.00   -22400.00
02698             -14.40   -22400.00
02699               4.00   -22400.00
02700              10.20   -23200.00
02701              -8.20   -23200.00
02702               4.60   -24000.00
02703               8.80   -24000.00
02704             -11.60   -24800.00
02705               8.00   -25600.00
02706               2.00   -25600.00
02707              -6.20   -25600.00
02708               7.80   -25600.00
02709               0.20   -26400.00
02710              -2.20   -26400.00
02711               3.80   -27200.00
02712               2.00   -27200.00
02713              -2.60   -28000.00
02714               4.40   -28000.00
02715               0.60   -28800.00
02716              -2.20   -28800.00
02717               4.60   -28800.00
02718               0.40   -28800.00
02719              -0.60   -28800.00
02720               5.20   -29600.00
02721              -0.20   -29600.00
02722              -0.40   -30400.00
02723               3.40   -29600.00
02724              -1.20   -30400.00
02725               0.40   -30400.00
02726               2.20   -31200.00
02727               0.40   -31200.00
02728               2.00   -31200.00
02729               1.40   -30400.00
02730               0.20   -32000.00
02731               1.20   -32000.00
02732               1.00   -32000.00
02733               0.20   -32000.00
02734               1.80   -32000.00
02735               1.20   -32000.00
02736              -0.20   -32000.00
02737               2.60   -32000.00
02738               1.20   -32000.00
02739               0.20   -32800.00
02740               2.20   -32800.00
02741               0.00   -32800.00
02742               0.60   -32800.00
02743               1.00   -32000.00
02744               0.20   -32000.00
02745               2.00   -32800.00
02746               1.40   -32000.00
02747               1.00   -32000.00
02748               1.20   -32000.00
02749               1.00   -32000.00
02750               0.60   -31200.00
02751               1.20   -32000.00
02752               1.80   -31200.00
02753               1.00   -31200.00
02754               1.80   -30400.00
02755               1.80   -30400.00
02756               0.40   -30400.00
02757               1.00   -30400.00
02758               0.40   -30400.00
02759               0.40   -29600.00
02760               1.20   -29600.00
02761               0.80   -29600.00
02762               1.80   -28800.00
02763               1.80   -28800.00
02764               1.40   -28800.00
02765               1.20   -28000.00
02766               0.40   -28800.00
02767               0.40   -28000.00
02768               0.20   -28000.00
02769               1.40   -27200.00
02770               1.20   -27200.00
02771               1.00   -27200.00
02772               1.00   -26400.00
02773               0.60   -26400.00
02774               0.40   -25600.00
02775               0.40   -25600.00
02776               0.40   -25600.00
02777               1.20   -24800.00
02778               1.20   -24000.00
02779               0.40   -24000.00
02780               1.00   -23200.00
02781               0.80   -23200.00
02782               0.80   -22400.00
02783               1.00   -22400.00
02784               0.40   -21600.00
02785              -0.20   -20800.00
02786               0.20   -20800.00
02787               0.40   -20000.00
02788               0.40   -20000.00
02789               0.40   -20000.00
02790               0.60   -18400.00
02791               0.40   -18400.00
02792               0.40   -17600.00
02793              -0.20   -16800.00
02794              -0.20   -16800.00
02795               0.20   -16800.00
02796               0.20   -16000.00
02797               0.60   -15200.00
02798               0.40   -14400.00
02799               0.00   -14400.00
02800               0.20   -13600.00
02801              -0.60   -12800.00
02802              -0.20   -12800.00
02803              -0.20   -11200.00
02804              -0.20   -11200.00
02805               0.40   -11200.00
02806              -0.20   -10400.00
02807               0.20   -10400.00
02808              -0.20    -9600.00
02809              -0.60    -9600.00
02810              -0.40    -8000.00
02811               0.20    -8000.00
02812              -0.20    -7200.00
02813              -0.20    -6400.00
02814              -0.20    -5600.00
02815               0.20    -4800.00
02816              -0.20    -4800.00
02817              -0.40    -4000.00
02818              -0.40    -3200.00
02819              -0.60    -3200.00
02820              -0.60    -2400.00
02821              -0.60    -1600.00
02822              -0.60     -800.00
02823              -0.20        0.00
02824              -0.20      800.00
02825               0.20      800.00
02826               1.20     1600.00
02827               3.40     2400.00
02828              -2.80     2400.00
02829              -0.60     2400.00
02830               1.40     3200.00
02831              -1.00     3200.00
02832               0.80     4800.00
02833              18.80     5600.00
02834              25.00     7200.00
02835             -25.00     8000.00
02836             -21.40     8000.00
02837              25.00     8000.00
02838             -24.60     8000.00
02839             -11.80     8800.00
02840              25.00     9600.00
02841             -25.00     9600.00
02842              15.60    11200.00
02843              25.00    12000.00
02844             -25.00    12000.00
02845              25.00    12800.00
02846             -10.40    12800.00
02847             -25.00    13600.00
02848              25.00    14400.00
02849             -25.00    14400.00
02850              25.00    15200.00
02851              25.00    15200.00
02852             -25.00    16000.00
02853              25.00    16800.00
02854               8.40    17600.00
02855             -25.00    18400.00
02856               6.00    18400.00
02857              24.40    19200.00
02858             -25.00    19200.00
02859              12.20    20000.00
02860              21.40    20000.00
02861             -25.00    21600.00
02862              23.80    21600.00
02863             -11.00    22400.00
02864             -13.40    22400.00
02865              12.00    22400.00
02866              -5.40    23200.00
02867              -7.60    24000.00
02868              12.40    24000.00
02869              -5.80    24800.00
02870             -10.80    24800.00
02871              12.80    25600.00
02872             -13.00    25600.00
02873               0.40    25600.00
02874               4.60    26400.00
02875              -7.00    27200.00
02876               0.00    27200.00
02877              -0.60    28000.00
02878              -3.40    28000.00
02879              -2.00    28000.00
02880               1.80    28000.00
02881              -4.60    28800.00
02882              -1.40    28800.00
02883               0.00    28800.00
02884              -5.00    28800.00
02885               0.40    29600.00
02886               1.00    30400.00
02887              -4.60    30400.00
02888               0.80    30400.00
02889              -1.80    30400.00
02890              -3.80    30400.00
02891               1.00    31200.00
02892              -3.40    31200.00
02893              -1.40    32000.00
02894              -0.40    32800.00
02895              -2.00    32000.00
02896              -2.00    32800.00
02897              -2.60    32000.00
02898              -1.00    32800.00
02899              -1.20    32800.00
02900              -1.40    32800.00
02901              -2.20    32800.00
02902              -2.20    33600.00
02903              -0.20    32800.00
02904              -2.60    32800.00
02905              -1.20    33600.00
02906              -0.60    32800.00
02907              -3.40    32800.00
02908              -0.20    33600.00
02909              -2.20    32800.00
02910              -2.60    32800.00
02911              -0.60    32800.00
02912              -1.40    32800.00
02913              -2.20    32800.00
02914              -2.20    32800.00
02915              -1.20    32000.00
02916              -2.20    32800.00
02917              -1.80    31200.00
02918              -1.40    32000.00
02919              -3.00    32000.00
02920              -1.20    31200.00
02921              -1.40    31200.00
02922              -1.60    31200.00
02923              -0.60    31200.00
02924              -2.80    31200.00
02925              -1.40    30400.00
02926              -1.20    30400.00
02927              -3.00    30400.00
02928              -1.40    30400.00
02929              -1.40    29600.00
02930              -1.40    30400.00
02931              -0.60    29600.00
02932              -1.80    29600.00
02933              -2.20    28800.00
02934              -1.80    28800.00
02935              -1.60    28000.00
02936              -1.40    28000.00
02937              -1.20    28000.00
02938              -1.20    27200.00
02939              -2.00    27200.00
02940              -1.20    27200.00
02941              -1.40    27200.00
02942              -2.20    25600.00
02943              -1.20    25600.00
02944              -1.40    24800.00
02945              -1.20    24800.00
02946              -2.00    24000.00
02947              -2.20    24000.00
02948               0.20    23200.00
02949              -0.80    24000.00
02950              -1.80    22400.00
02951              -1.20    22400.00
02952              -1.40    22400.00
02953              -1.00    21600.00
02954              -1.80    20800.00
02955              -1.40    20800.00
02956               0.40    19200.00
02957              -1.80    18400.00
02958              -2.20    19200.00
02959              -0.20    18400.00
02960              -2.20    17600.00
02961              -2.20    17600.00
02962               1.40    16800.00
02963              -1.00    16000.00
02964              -1.00    16000.00
02965               1.00    15200.00
02966              -2.60    14400.00
02967              -1.80    14400.00
02968              -0.20    13600.00
02969              -1.60    12800.00
02970              -0.60    12800.00
02971               0.60    12000.00
02972              -1.40    11200.00
02973              -0.60    11200.00
02974              -1.00     9600.00
02975              -1.20     9600.00
02976               0.20     8800.00
02977              -0.60     8800.00
02978              -0.60     8000.00
02979              -0.60     8000.00
02980              -1.00     6400.00
02981              -0.40     5600.00
02982               0.80     5600.00
02983              -0.60     4800.00
02984              -1.00     4000.00
02985              -0.60     3200.00
02986              -1.20     3200.00
02987              -1.00     2400.00
02988               0.20     1600.00
02989              -0.20     1600.00
02990              -0.20        0.00
02991               0.40        0.00
02992               0.40        0.00
02993               2.20     -800.00
02994               1.00    -1600.00
02995              -2.00    -2400.00
02996               1.40    -1600.00
02997               1.40    -2400.00
02998               0.40    -3200.00
02999               2.00    -4000.00
03000              12.20    -4800.00
03001              25.00    -6400.00
03002             -25.00    -7200.00
03003             -25.00    -8000.00
03004              21.60    -8000.00
03005               9.00    -8000.00
03006             -25.00    -8000.00
03007              25.00    -8800.00
03008              25.00   -10400.00
03009             -25.00    -9600.00
03010              25.00   -11200.00
03011              25.00   -11200.00
03012             -25.00   -11200.00
03013              25.00   -12800.00
03014              -9.20   -12800.00
03015              -3.00   -13600.00
03016              22.00   -14400.00
03017             -25.00   -14400.00
03018              25.00   -16000.00
03019               1.00   -16000.00
03020             -25.00   -16800.00
03021              25.00   -16800.00
03022               5.40   -17600.00
03023             -25.00   -17600.00
03024              16.20   -18400.00
03025              14.60   -19200.00
03026             -25.00   -19200.00
03027              23.40   -20000.00
03028               7.60   -20800.00
03029             -19.40   -20800.00
03030              18.80   -21600.00
03031              -5.00   -21600.00
03032              -8.40   -22400.00
03033              11.80   -23200.00
03034              -0.20   -22400.00
03035              -5.80   -24000.00
03036              13.80   -24000.00
03037              -6.00   -24000.00
03038              -3.80   -24000.00
03039              10.60   -25600.00
03040              -7.80   -25600.00
03041               3.20   -25600.00
03042               6.20   -26400.00
03043              -2.60   -27200.00
03044               1.00   -27200.00
03045               4.20   -27200.00
03046              -2.00   -27200.00
03047               0.60   -28000.00
03048               4.20   -28800.00
03049              -2.60   -28800.00
03050               1.80   -28800.00
03051               2.60   -28800.00
03052              -2.00   -29600.00
03053               3.00   -29600.00
03054               2.60   -29600.00
03055              -1.60   -30400.00
03056               3.00   -30400.00
03057               0.60   -30400.00
03058              -0.60   -30400.00
03059               2.20   -30400.00
03060               0.60   -30400.00
03061               2.00   -31200.00
03062               1.80   -31200.00
03063               0.60   -32000.00
03064               1.00   -32000.00
03065               0.60   -32000.00
03066               0.60   -32000.00
03067               0.80   -32000.00
03068               1.80   -32000.00
03069               0.40   -32000.00
03070               2.00   -32000.00
03071               1.80   -32000.00
03072               0.00   -32000.00
03073               2.00   -32000.00
03074               1.20   -32000.00
03075               0.60   -32000.00
03076               2.00   -32000.00
03077               0.00   -32000.00
03078               1.00   -32000.00
03079               1.60   -32000.00
03080               0.40   -32000.00
03081               1.20   -32000.00
03082               1.20   -32000.00
03083               1.00   -32000.00
03084               1.00   -32000.00
03085               1.20   -31200.00
03086               1.20   -31200.00
03087               1.20   -30400.00
03088               1.40   -30400.00
03089               1.00   -30400.00
03090               1.00   -30400.00
03091               1.00   -30400.00
03092               0.60   -30400.00
03093               1.80   -29600.00
03094               1.00   -29600.00
03095               0.60   -29600.00
03096               1.40   -28800.00
03097               0.60   -28800.00
03098               0.80   -28800.00
03099               1.40   -28000.00
03100               1.20   -28000.00
03101               0.40   -28800.00
03102               1.00   -27200.00
03103               1.00   -27200.00
03104               0.40   -26400.00
03105               1.00   -26400.00
03106               1.80   -26400.00
03107               0.60   -26400.00
03108               1.40   -25600.00
03109               0.20   -25600.00
03110               0.40   -25600.00
03111               1.40   -24000.00
03112               0.40   -24000.00
03113               0.20   -24000.00
03114               0.80   -24000.00
03115               0.40   -23200.00
03116               0.60   -22400.00
03117               1.00   -22400.00
03118               0.40   -21600.00
03119               0.20   -20800.00
03120               0.80   -20800.00
03121               0.20   -20000.00
03122              -0.20   -20000.00
03123               1.00   -18400.00
03124               0.00   -18400.00
03125               0.40   -17600.00
03126               0.80   -17600.00
03127              -0.20   -16800.00
03128               0.20   -16800.00
03129               0.20   -16800.00
03130              -0.40   -16000.00
03131               0.20   -14400.00
03132               0.20   -14400.00
03133               0.40   -13600.00
03134               0.40   -13600.00
03135              -0.20   -12800.00
03136               0.00   -12800.00
03137               0.40   -12000.00
03138              -0.20   -11200.00
03139              -0.20   -10400.00
03140               0.20   -10400.00
03141              -0.60    -9600.00
03142              -0.40    -8800.00
03143               0.20    -8800.00
03144              -0.20    -8000.00
03145              -0.20    -7200.00
03146               0.20    -6400.00
03147              -0.60    -6400.00
03148              -0.20    -5600.00
03149               0.00    -4800.00
03150              -0.60    -4000.00
03151              -0.20    -4000.00
03152               0.20    -3200.00
03153              -0.40    -3200.00
03154              -0.40    -1600.00
03155              -0.40    -1600.00
03156              -0.60     -800.00
03157              -0.20        0.00
03158              -0.20        0.00
03159              -0.20      800.00
03160               3.00     1600.00
03161               0.60     2400.00
03162              -2.00     2400.00
03163               0.80     3200.00
03164               1.00     3200.00
03165              -1.80     4800.00
03166               8.20     4800.00
03167              25.00     7200.00
03168             -14.60     7200.00
03169             -25.00     8000.00
03170              16.40     8000.00
03171              12.40     8000.00
03172             -25.00     8000.00
03173              25.00     9600.00
03174              17.80    10400.00
03175             -25.00    11200.00
03176              25.00    11200.00
03177             -25.00    11200.00
03178             -25.00    12000.00
03179              25.00    12800.00
03180             -25.00    12800.00
03181              25.00    14400.00
03182              -8.60    14400.00
03183             -25.00    14400.00
03184              25.00    15200.00
03185             -25.00    16000.00
03186              -3.60    16800.00
03187              25.00    16800.00
03188             -25.00    17600.00
03189             -17.60    18400.00
03190              25.00    18400.00
03191              -9.00    19200.00
03192             -25.00    20000.00
03193              25.00    20000.00
03194             -22.00    20800.00
03195              -2.80    21600.00
03196              17.20    21600.00
03197             -24.40    22400.00
03198               6.80    22400.00
03199               4.60    22400.00
03200             -10.80    23200.00
03201               2.60    24000.00
03202               9.40    24000.00
03203             -17.20    24800.00
03204               7.20    24800.00
03205               0.40    25600.00
03206             -11.80    25600.00
03207               8.60    25600.00
03208              -4.80    26400.00
03209              -3.00    27200.00
03210               1.80    27200.00
03211              -1.60    27200.00
03212              -4.60    28000.00
03213               1.80    28000.00
03214              -1.00    28800.00
03215              -5.40    28800.00
03216               1.80    28800.00
03217              -2.60    29600.00
03218              -4.20    28800.00
03219               3.00    30400.00
03220              -3.00    30400.00
03221              -3.80    30400.00
03222               2.00    30400.00
03223              -4.20    30400.00
03224              -2.00    31200.00
03225              -0.60    32000.00
03226              -2.80    32800.00
03227              -0.40    31200.00
03228              -1.20    31200.00
03229              -1.80    32000.00
03230              -2.20    32800.00
03231              -1.80    32800.00
03232              -1.20    32800.00
03233              -1.80    32800.00
03234              -1.40    32800.00
03235              -3.00    32800.00
03236              -0.40    32800.00
03237              -1.20    32800.00
03238              -3.60    32800.00
03239              -0.20    32800.00
03240              -2.80    32800.00
03241              -1.80    33600.00
03242              -0.20    32800.00
03243              -3.00    32800.00
03244              -1.00    32800.00
03245              -1.40    32800.00
03246              -2.00    32800.00
03247              -2.20    32800.00
03248              -2.20    32800.00
03249              -1.40    32000.00
03250              -1.80    32800.00
03251              -1.40    32000.00
03252              -2.20    32000.00
03253              -2.00    32800.00
03254              -1.80    31200.00
03255              -1.80    32000.00
03256              -0.60    31200.00
03257              -2.20    31200.00
03258              -2.20    31200.00
03259              -0.60    31200.00
03260              -2.20    30400.00
03261              -2.20    30400.00
03262              -1.20    30400.00
03263              -2.20    30400.00
03264              -1.40    29600.00
03265              -1.80    28800.00
03266              -2.40    28800.00
03267              -1.60    28800.00
03268              -1.40    28800.00
03269              -1.20    28000.00
03270              -1.40    28000.00
03271              -2.00    27200.00
03272              -2.00    27200.00
03273              -1.00    27200.00
03274              -1.20    26400.00
03275              -2.60    25600.00
03276              -1.00    25600.00
03277              -1.20    25600.00
03278              -1.80    24800.00
03279              -1.80    24800.00
03280              -1.40    24000.00
03281              -1.40    24000.00
03282              -1.20    24000.00
03283              -0.40    22400.00
03284              -1.40    22400.00
03285              -1.20    22400.00
03286              -0.60    21600.00
03287              -1.40    21600.00
03288              -1.00    20800.00
03289              -1.40    20000.00
03290              -1.20    19200.00
03291               0.20    19200.00
03292              -1.80    18400.00
03293              -2.20    17600.00
03294               0.20    17600.00
03295              -1.20    17600.00
03296              -1.40    16000.00
03297               0.00    16000.00
03298              -1.20    15200.00
03299              -2.00    15200.00
03300              -0.60    14400.00
03301              -1.00    12800.00
03302              -0.60    13600.00
03303              -0.20    12800.00
03304              -0.60    12000.00
03305              -0.80    11200.00
03306              -0.60    11200.00
03307              -1.20     9600.00
03308              -1.00     9600.00
03309              -0.20     8800.00
03310              -1.20     8800.00
03311              -0.40     8000.00
03312              -0.60     7200.00
03313              -0.60     7200.00
03314              -0.20     5600.00
03315              -0.60     5600.00
03316              -1.00     5600.00
03317              -0.60     4800.00
03318              -1.00     3200.00
03319              -0.20     3200.00
03320               0.40     2400.00
03321              -0.60     1600.00
03322              -0.40     1600.00
03323              -0.40        0.00
03324              -0.60        0.00
03325               0.20        0.00
03326               1.20     -800.00
03327               4.20     -800.00
03328              -1.40    -1600.00
03329              -1.00    -2400.00
03330               1.00    -3200.00
03331               0.40    -3200.00
03332              -0.60    -4000.00
03333               7.00    -4800.00
03334              23.40    -6400.00
03335               9.00    -7200.00
03336             -25.00    -7200.00
03337              -4.60    -8000.00
03338              25.00    -8000.00
03339             -25.00    -8800.00
03340             -21.20    -8000.00
03341              25.00    -9600.00
03342             -25.00   -10400.00
03343             -25.00   -10400.00
03344              25.00   -12000.00
03345             -25.00   -11200.00
03346             -10.20   -12800.00
03347              25.00   -12800.00
03348             -25.00   -13600.00
03349              25.00   -14400.00
03350             -21.00   -14400.00
03351              -3.40   -15200.00
03352              25.00   -16000.00
03353             -25.00   -16000.00
03354               4.60   -16800.00
03355              25.00   -16800.00
03356             -21.20   -17600.00
03357             -10.00   -18400.00
03358              25.00   -18400.00
03359             -20.00   -19200.00
03360              -6.20   -19200.00
03361              25.00   -20000.00
03362             -19.60   -20800.00
03363               3.40   -21600.00
03364              11.60   -22400.00
03365             -14.00   -21600.00
03366               5.20   -22400.00
03367               9.00   -23200.00
03368              -8.40   -23200.00
03369               5.80   -24000.00
03370               6.80   -24000.00
03371             -11.00   -24000.00
03372               9.20   -24800.00
03373               0.60   -25600.00
03374              -5.40   -25600.00
03375               7.80   -26400.00
03376              -0.80   -26400.00
03377              -2.60   -26400.00
03378               4.40   -27200.00
03379               1.40   -27200.00
03380              -1.80   -27200.00
03381               4.40   -27200.00
03382               0.60   -28800.00
03383              -1.40   -28800.00
03384               3.60   -28800.00
03385              -1.00   -28800.00
03386               0.60   -29600.00
03387               4.40   -29600.00
03388              -1.20   -29600.00
03389               1.20   -30400.00
03390               3.00   -30400.00
03391              -1.40   -30400.00
03392               1.80   -31200.00
03393               1.40   -31200.00
03394               0.40   -31200.00
03395               2.60   -32000.00
03396               1.20   -31200.00
03397              -0.20   -32000.00
03398               0.60   -32000.00
03399               1.80   -32000.00
03400               1.00   -32000.00
03401               1.80   -32000.00
03402               2.00   -32000.00
03403               0.40   -32000.00
03404               2.00   -32000.00
03405              -0.40   -32000.00
03406               0.20   -32000.00
03407               2.80   -32000.00
03408               1.00   -32800.00
03409               1.80   -32000.00
03410               1.80   -32000.00
03411               0.60   -32000.00
03412               1.40   -32000.00
03413               0.60   -32000.00
03414               1.20   -31200.00
03415               1.80   -32000.00
03416               1.80   -32000.00
03417               1.20   -30400.00
03418               1.00   -32000.00
03419               1.20   -30400.00
03420               1.00   -30400.00
03421               1.20   -31200.00
03422               0.80   -31200.00
03423               0.80   -30400.00
03424               1.40   -30400.00
03425               1.00   -29600.00
03426               1.60   -30400.00
03427               2.00   -29600.00
03428               1.00   -28800.00
03429               0.60   -29600.00
03430               1.20   -28800.00
03431               0.60   -28800.00
03432               1.00   -28800.00
03433               1.40   -28000.00
03434               0.80   -28000.00
03435               0.40   -28000.00
03436               1.40   -27200.00
03437               0.60   -27200.00
03438              -0.20   -27200.00
03439               0.60   -26400.00
03440               0.60   -25600.00
03441               1.00   -26400.00
03442               0.60   -25600.00
03443               0.60   -25600.00
03444               1.40   -24800.00
03445               1.00   -24000.00
03446               0.20   -24000.00
03447               0.60   -24000.00
03448               0.40   -23200.00
03449              -0.20   -22400.00
03450               0.20   -22400.00
03451               0.40   -22400.00
03452               0.20   -20800.00
03453               1.00   -20800.00
03454               1.00   -20800.00
03455               0.20   -20000.00
03456               0.00   -20000.00
03457               0.20   -18400.00
03458               0.20   -18400.00
03459               0.40   -17600.00
03460               0.20   -17600.00
03461               0.20   -16800.00
03462               0.40   -16000.00
03463               0.20   -16000.00
03464               0.40   -16000.00
03465               0.20   -14400.00
03466              -0.40   -14400.00
03467               0.20   -13600.00
03468              -0.20   -13600.00
03469               0.20   -12800.00
03470               0.40   -12000.00
03471               0.20   -11200.00
03472               0.40   -11200.00
03473               0.40   -10400.00
03474               0.00    -9600.00
03475              -0.40    -9600.00
03476              -0.40    -8000.00
03477               0.20    -8000.00
03478              -0.20    -7200.00
03479              -0.20    -7200.00
03480               0.20    -6400.00
03481              -0.40    -5600.00
03482               0.20    -4800.00
03483               0.00    -4000.00
03484              -0.40    -3200.00
03485              -0.40    -3200.00
03486              -0.20    -3200.00
03487              -1.00    -1600.00
03488              -0.40    -1600.00
03489              -0.20     -800.00
03490              -0.20        0.00
03491               0.20        0.00
03492               0.40        0.00
03493               1.00     1600.00
03494               2.80     1600.00
03495              -2.20     2400.00
03496              -0.60     3200.00
03497               1.20     3200.00
03498              -0.60     4000.00
03499               1.20     4800.00
03500              20.20     6400.00
03501              24.80     7200.00
03502             -25.00     8000.00
03503             -17.40     8000.00
03504              25.00     8000.00
03505             -25.00     8000.00
03506              -5.80     9600.00
03507              25.00     9600.00
03508             -25.00     9600.00
03509              25.00    11200.00
03510              25.00    11200.00
03511             -25.00    12000.00
03512              25.00    12800.00
03513             -19.80    12800.00
03514             -17.40    13600.00
03515              25.00    13600.00
03516             -25.00    14400.00
03517              25.00    16000.00
03518              21.20    16000.00
03519             -25.00    16000.00
03520              25.00    16800.00
03521               4.40    17600.00
03522             -25.00    17600.00
03523              10.00    18400.00
03524              21.40    19200.00
03525             -25.00    19200.00
03526              17.00    20000.00
03527              16.40    21600.00
03528             -25.00    21600.00
03529              25.00    20800.00
03530             -13.80    21600.00
03531             -10.60    22400.00
03532              11.60    22400.00
03533              -6.00    24000.00
03534              -6.00    24000.00
03535              13.00    24800.00
03536              -7.00    24000.00
03537              -9.40    24800.00
03538              12.20    25600.00
03539             -13.80    25600.00
03540               1.80    25600.00
03541               4.40    26400.00
03542              -7.00    27200.00
03543               0.20    27200.00
03544               0.40    28000.00
03545              -4.20    28000.00
03546              -2.20    28000.00
03547               3.00    28800.00
03548              -5.00    28800.00
03549              -0.60    28800.00
03550               0.80    29600.00
03551              -5.20    29600.00
03552               0.40    30400.00
03553               1.40    30400.00
03554              -4.80    30400.00
03555               0.60    30400.00
03556              -1.40    30400.00
03557              -4.40    30400.00
03558               0.20    31200.00
03559              -2.80    31200.00
03560              -1.40    31200.00
03561              -0.20    32000.00
03562              -1.60    32000.00
03563              -2.20    32800.00
03564              -2.20    32000.00
03565              -1.00    32800.00
03566              -2.60    32000.00
03567              -1.00    32000.00
03568              -1.80    32800.00
03569              -3.00    32800.00
03570               0.00    32800.00
03571              -3.40    32800.00
03572              -1.80    32800.00
03573              -1.20    32800.00
03574              -3.00    32800.00
03575              -0.20    32800.00
03576              -2.20    32000.00
03577              -2.80    33600.00
03578              -0.80    32800.00
03579              -2.00    32800.00
03580              -1.40    32800.00
03581              -2.20    32800.00
03582              -1.40    32000.00
03583              -2.20    32800.00
03584              -1.80    32800.00
03585              -1.20    32000.00
03586              -2.80    32000.00
03587              -1.20    31200.00
03588              -1.40    32000.00
03589              -2.00    32000.00
03590              -1.60    31200.00
03591              -2.20    31200.00
03592              -1.40    31200.00
03593              -1.40    30400.00
03594              -2.00    30400.00
03595              -1.40    29600.00
03596              -1.40    30400.00
03597              -1.60    28800.00
03598              -1.20    28800.00
03599              -2.00    28800.00
03600              -2.00    28800.00
03601              -2.00    28000.00
03602              -1.40    28800.00
03603              -1.00    28000.00
03604              -2.20    27200.00
03605              -1.40    28000.00
03606              -0.60    27200.00
03607              -2.20    26400.00
03608              -1.40    26400.00
03609              -1.00    25600.00
03610              -1.80    25600.00
03611              -1.20    24800.00
03612              -0.40    24800.00
03613              -2.00    24800.00
03614              -1.60    24000.00
03615              -0.20    24000.00
03616              -2.00    23200.00
03617              -1.20    22400.00
03618              -1.00    22400.00
03619              -1.80    22400.00
03620              -1.00    20800.00
03621              -1.20    20800.00
03622              -1.40    20800.00
03623              -1.40    20000.00
03624              -1.20    19200.00
03625              -0.80    18400.00
03626              -1.00    18400.00
03627              -1.20    17600.00
03628              -0.80    17600.00
03629              -0.80    16800.00
03630              -0.60    16000.00
03631              -1.20    16000.00
03632              -0.60    15200.00
03633              -1.20    14400.00
03634              -1.20    14400.00
03635              -0.60    12800.00
03636              -1.40    12800.00
03637              -1.40    12800.00
03638              -0.20    12000.00
03639              -1.00    11200.00
03640              -0.60    11200.00
03641              -0.60    10400.00
03642              -0.40     9600.00
03643              -1.00     8800.00
03644              -0.60     8800.00
03645              -0.40     8000.00
03646              -1.20     7200.00
03647              -0.60     6400.00
03648              -0.20     5600.00
03649              -1.40     4800.00
03650              -0.40     4800.00
03651              -0.60     4000.00
03652              -0.20     4000.00
03653              -0.20     3200.00
03654              -0.80     2400.00
03655              -0.60     1600.00
03656              -0.20     1600.00
03657              -0.20      800.00
03658               0.20        0.00
03659               0.40     -800.00
03660               3.20     -800.00
03661               1.40    -1600.00
03662              -1.80    -1600.00
03663               1.00    -2400.00
03664               1.20    -3200.00
03665              -0.20    -4000.00
03666               2.00    -4000.00
03667              13.00    -4800.00
03668              25.00    -6400.00
03669             -25.00    -7200.00
03670             -25.00    -8000.00
03671              23.80    -8000.00
03672               5.40    -8800.00
03673             -25.00    -8000.00
03674              25.00    -8800.00
03675              25.00   -10400.00
03676             -25.00    -9600.00
03677              25.00   -11200.00
03678              25.00   -11200.00
03679             -25.00   -12000.00
03680              25.00   -12800.00
03681             -14.80   -12800.00
03682               1.20   -13600.00
03683              18.80   -14400.00
03684             -25.00   -14400.00
03685              25.00   -15200.00
03686              -3.20   -16000.00
03687             -24.40   -16800.00
03688              25.00   -16800.00
03689               1.00   -16800.00
03690             -25.00   -18400.00
03691              17.40   -18400.00
03692              10.80   -18400.00
03693             -25.00   -20000.00
03694              25.00   -20000.00
03695               5.40   -20000.00
03696             -16.80   -20800.00
03697              19.40   -21600.00
03698              -7.00   -21600.00
03699              -8.40   -22400.00
03700              10.80   -23200.00
03701              -1.80   -23200.00
03702              -5.80   -23200.00
03703              13.80   -24000.00
03704              -5.80   -24000.00
03705              -2.00   -24000.00
03706              10.80   -25600.00
03707              -7.80   -25600.00
03708               3.40   -26400.00
03709               4.60   -26400.00
03710              -4.20   -26400.00
03711               0.40   -27200.00
03712               4.20   -27200.00
03713              -2.20   -27200.00
03714               2.20   -28000.00
03715               5.40   -28800.00
03716              -2.80   -28800.00
03717               2.20   -28800.00
03718               2.80   -28800.00
03719              -2.60   -29600.00
03720               3.00   -29600.00
03721               2.00   -29600.00
03722              -1.80   -29600.00
03723               3.60   -30400.00
03724               1.00   -30400.00
03725               0.20   -30400.00
03726               3.00   -30400.00
03727               1.00   -31200.00
03728               1.40   -32000.00
03729               1.20   -31200.00
03730               0.00   -32000.00
03731               0.40   -32000.00
03732               1.80   -32000.00
03733               1.60   -31200.00
03734               1.60   -32000.00
03735               2.60   -32000.00
03736               1.00   -32000.00
03737               1.00   -32000.00
03738               1.40   -32000.00
03739              -0.40   -32000.00
03740               1.60   -32000.00
03741               1.20   -32000.00
03742               0.60   -32000.00
03743               2.20   -32000.00
03744               0.60   -32000.00
03745               1.40   -32000.00
03746               2.00   -32000.00
03747               0.60   -32000.00
03748               1.00   -32000.00
03749               1.00   -32000.00
03750               1.00   -32000.00
03751               1.00   -32000.00
03752               1.80   -32000.00
03753               1.60   -32000.00
03754               1.00   -30400.00
03755               1.80   -31200.00
03756               1.00   -30400.00
03757               0.60   -30400.00
03758               0.80   -31200.00
03759               1.00   -29600.00
03760               1.40   -29600.00
03761               1.20   -29600.00
03762               1.00   -29600.00
03763               1.40   -29600.00
03764               1.20   -28800.00
03765               1.20   -28800.00
03766               0.60   -28800.00
03767               1.00   -28800.00
03768               0.20   -28000.00
03769               0.20   -27200.00
03770               1.40   -27200.00
03771               0.60   -27200.00
03772               1.00   -26400.00
03773               1.40   -26400.00
03774               0.40   -25600.00
03775               1.00   -25600.00
03776               0.20   -25600.00
03777               0.40   -24800.00
03778               1.20   -24000.00
03779               0.40   -24000.00
03780               0.40   -24000.00
03781               1.00   -23200.00
03782               0.40   -23200.00
03783               0.40   -22400.00
03784               0.60   -22400.00
03785               0.40   -21600.00
03786               0.20   -20800.00
03787               0.40   -20800.00
03788               0.20   -20000.00
03789              -0.20   -19200.00
03790               0.40   -18400.00
03791               0.40   -18400.00
03792               0.40   -17600.00
03793               0.80   -17600.00
03794               0.40   -17600.00
03795               0.40   -16800.00
03796               0.20   -16000.00
03797               0.20   -16000.00
03798               0.40   -15200.00
03799               0.20   -14400.00
03800               0.40   -13600.00
03801               0.20   -13600.00
03802               0.20   -12800.00
03803               0.20   -12000.00
03804              -0.20   -12000.00
03805               0.20   -11200.00
03806               0.20   -11200.00
03807              -0.60    -9600.00
03808               0.20    -9600.00
03809              -0.20    -9600.00
03810               0.20    -8000.00
03811               0.40    -8000.00
03812              -0.20    -7200.00
03813              -0.20    -6400.00
03814              -0.20    -6400.00
03815              -0.20    -5600.00
03816               0.20    -4800.00
03817              -0.40    -4800.00
03818              -0.60    -4000.00
03819               0.20    -3200.00
03820              -0.40    -2400.00
03821              -0.60    -1600.00
03822              -0.40    -1600.00
03823              -0.60     -800.00
03824              -0.40        0.00
03825               0.40      800.00
03826               0.20      800.00
03827               3.00     1600.00
03828               0.20     1600.00
03829              -2.00     2400.00
03830               0.60     3200.00
03831               0.40     4000.00
03832              -2.00     3200.00
03833               8.40     4800.00
03834              25.00     7200.00
03835             -19.00     7200.00
03836             -25.00     8000.00
03837              18.80     8000.00
03838               9.00     8000.00
03839             -25.00     8800.00
03840              25.00     9600.00
03841               8.40    10400.00
03842             -25.00    11200.00
03843              25.00    11200.00
03844             -25.00    11200.00
03845             -18.20    12800.00
03846              25.00    12000.00
03847             -25.00    12800.00
03848              25.00    13600.00
03849             -18.60    14400.00
03850             -25.00    14400.00
03851              25.00    15200.00
03852             -25.00    16000.00
03853               2.60    16000.00
03854              25.00    16800.00
03855             -25.00    17600.00
03856             -15.40    18400.00
03857              25.00    18400.00
03858             -13.00    19200.00
03859             -23.60    19200.00
03860              25.00    20800.00
03861             -24.60    20800.00
03862               0.60    20800.00
03863              14.80    21600.00
03864             -24.40    22400.00
03865               8.20    22400.00
03866               3.40    22400.00
03867             -10.20    23200.00
03868               4.40    24000.00
03869               8.00    24000.00
03870             -17.20    24800.00
03871               8.60    24800.00
03872              -1.20    24800.00
03873             -10.60    25600.00
03874               9.60    26400.00
03875              -5.60    27200.00
03876              -2.80    27200.00
03877               2.20    27200.00
03878              -2.60    28000.00
03879              -4.60    28000.00
03880               2.20    28000.00
03881              -1.80    28800.00
03882              -4.60    28800.00
03883               1.80    28800.00
03884              -3.20    28800.00
03885              -2.80    29600.00
03886               3.40    29600.00
03887              -3.60    30400.00
03888              -2.20    30400.00
03889               0.20    30400.00
03890              -3.60    31200.00
03891               0.20    30400.00
03892              -2.20    32000.00
03893              -2.20    32000.00
03894              -0.40    32000.00
03895              -2.40    32000.00
03896              -0.60    31200.00
03897              -3.00    32000.00
03898              -2.60    32800.00
03899              -0.60    32800.00
03900              -2.80    32800.00
03901              -1.20    32800.00
03902              -2.20    32000.00
03903              -1.40    32800.00
03904              -1.00    32000.00
03905              -2.20    32800.00
03906              -0.60    32800.00
03907              -3.60    32800.00
03908              -1.00    32800.00
03909              -1.00    32800.00
03910              -3.00    32800.00
03911              -0.40    32800.00
03912              -2.00    32800.00
03913              -2.40    32000.00
03914              -2.00    32800.00
03915              -2.60    32000.00
03916              -1.20    32800.00
03917              -1.80    32000.00
03918              -1.80    32800.00
03919              -1.80    32000.00
03920              -1.60    32000.00
03921              -2.00    31200.00
03922              -1.20    31200.00
03923              -0.60    31200.00
03924              -2.40    31200.00
03925              -2.00    31200.00
03926              -1.20    30400.00
03927              -2.40    30400.00
03928              -1.80    30400.00
03929              -1.40    30400.00
03930              -1.40    29600.00
03931              -1.00    29600.00
03932              -2.00    28800.00
03933              -1.60    28800.00
03934              -1.80    28800.00
03935              -1.20    28800.00
03936              -0.60    28800.00
03937              -1.40    28000.00
03938              -1.20    27200.00
03939              -1.40    27200.00
03940              -1.20    27200.00
03941              -1.20    26400.00
03942              -2.20    25600.00
03943              -1.20    25600.00
03944              -1.00    24800.00
03945              -1.60    24800.00
03946              -1.20    24800.00
03947              -1.80    24000.00
03948              -1.20    24000.00
03949              -0.60    23200.00
03950              -1.20    22400.00
03951              -1.20    22400.00
03952              -1.40    21600.00
03953              -1.00    21600.00
03954              -1.20    20800.00
03955              -1.20    20800.00
03956              -1.00    20000.00
03957              -1.40    19200.00
03958              -0.60    18400.00
03959              -1.20    18400.00
03960              -1.80    18400.00
03961              -1.00    17600.00
03962              -1.20    16000.00
03963              -0.60    16800.00
03964              -0.60    16000.00
03965              -1.20    15200.00
03966              -1.00    15200.00
03967              -1.20    14400.00
03968              -1.00    14400.00
03969              -1.00    12800.00
03970              -1.20    12000.00
03971              -0.60    12000.00
03972              -0.60    11200.00
03973              -1.00    11200.00
03974              -1.40    10400.00
03975              -0.60     9600.00
03976              -0.60     9600.00
03977              -1.20     8800.00
03978              -0.40     8000.00
03979              -1.00     7200.00
03980              -1.20     6400.00
03981              -0.20     6400.00
03982              -0.60     5600.00
03983              -0.60     5600.00
03984              -0.20     4800.00
03985              -0.60     4000.00
03986              -0.40     3200.00
03987              -0.60     2400.00
03988              -0.60     1600.00
03989              -0.40     1600.00
03990              -0.20      800.00
03991              -0.20        0.00
03992               0.40     -800.00
03993               1.20     -800.00
03994               3.60    -1600.00
03995              -1.20    -1600.00
03996              -0.20    -3200.00
03997               1.80    -3200.00
03998               1.00    -3200.00
03999              -0.20    -3200.00
04000               6.80    -4800.00
04001              24.40    -5600.00
04002               5.80    -7200.00
04003             -25.00    -8000.00
04004              -1.20    -7200.00
04005              25.00    -8800.00
04006             -25.00    -8000.00
04007             -17.00    -8800.00
04008              25.00    -9600.00
04009             -25.00   -10400.00
04010             -25.00   -10400.00
04011              25.00   -11200.00
04012             -25.00   -11200.00
04013              -2.60   -12800.00
04014              25.00   -12800.00
04015             -25.00   -12800.00
04016              25.00   -13600.00
04017             -25.00   -13600.00
04018               1.00   -16000.00
04019              25.00   -16000.00
04020             -25.00   -16800.00
04021               7.60   -16800.00
04022              25.00   -16800.00
04023             -22.80   -17600.00
04024              -7.00   -17600.00
04025              25.00   -19200.00
04026             -23.40   -19200.00
04027              -2.20   -19200.00
04028              25.00   -20000.00
04029             -21.40   -20800.00
04030               6.00   -20800.00
04031              10.20   -22400.00
04032             -15.00   -22400.00
04033               6.00   -22400.00
04034               8.40   -23200.00
04035              -9.40   -24000.00
04036               7.00   -24000.00
04037               5.80   -24000.00
04038             -11.60   -24000.00
04039              10.00   -25600.00
04040               0.20   -25600.00
04041              -4.60   -25600.00
04042               8.20   -25600.00
04043              -0.80   -26400.00
04044              -1.80   -27200.00
04045               4.20   -27200.00
04046               0.60   -27200.00
04047              -1.40   -28000.00
04048               4.60   -28000.00
04049              -0.60   -28800.00
04050              -1.80   -28800.00
04051               4.20   -28800.00
04052              -1.00   -29600.00
04053               0.40   -28800.00
04054               4.80   -29600.00
04055              -1.00   -29600.00
04056               1.00   -30400.00
04057               3.40   -30400.00
04058              -1.20   -30400.00
04059               1.80   -30400.00
04060               2.00   -30400.00
04061               1.00   -31200.00
04062               2.00   -31200.00
04063               1.00   -32000.00
04064               0.80   -32000.00
04065               1.20   -32000.00
04066               1.40   -32000.00
04067               1.20   -32000.00
04068               1.80   -32000.00
04069               1.20   -32000.00
04070               1.00   -32000.00
04071               2.20   -32000.00
04072               0.20   -32000.00
04073               1.20   -32000.00
04074               2.40   -32000.00
04075               0.20   -32800.00
04076               2.00   -32000.00
04077               1.80   -32000.00
04078               0.40   -32000.00
04079               1.80   -32000.00
04080               1.00   -32000.00
04081               1.00   -32000.00
04082               1.40   -32000.00
04083               1.20   -32000.00
04084               1.00   -32000.00
04085               1.20   -32000.00
04086               1.20   -31200.00
04087               0.60   -30400.00
04088               1.40   -30400.00
04089               1.00   -31200.00
04090               0.40   -30400.00
04091               1.20   -31200.00
04092               0.80   -30400.00
04093               1.00   -29600.00
04094               1.20   -30400.00
04095               0.60   -28800.00
04096               1.00   -29600.00
04097               1.40   -29600.00
04098               1.00   -28800.00
04099               0.60   -28800.00
04100               0.60   -28800.00
04101               1.00   -28000.00
04102               0.60   -28000.00
04103               1.20   -27200.00
04104               0.40   -27200.00
04105               0.60   -27200.00
04106               0.80   -26400.00
04107               1.00   -25600.00
04108               1.00   -25600.00
04109               0.40   -24800.00
04110               0.40   -24800.00
04111               1.20   -24800.00
04112               0.40   -24000.00
04113               0.20   -24000.00
04114               0.80   -23200.00
04115               0.40   -23200.00
04116               0.60   -23200.00
04117               0.40   -22400.00
04118               0.60   -21600.00
04119               0.60   -21600.00
04120               0.40   -20800.00
04121               0.60   -20000.00
04122               0.60   -20000.00
04123               0.40   -19200.00
04124               0.20   -18400.00
04125               0.40   -18400.00
04126               0.40   -17600.00
04127               0.00   -17600.00
04128               0.40   -16800.00
04129               0.40   -16800.00
04130               0.20   -16000.00
04131               0.60   -15200.00
04132               0.40   -14400.00
04133               0.20   -14400.00
04134               0.40   -13600.00
04135               0.20   -13600.00
04136               0.20   -12800.00
04137              -0.20   -12000.00
04138               0.20   -11200.00
04139               0.20   -10400.00
04140               0.20   -10400.00
04141              -0.20    -9600.00
04142              -0.60    -9600.00
04143              -0.40    -8800.00
04144               0.20    -8000.00
04145               0.20    -7200.00
04146              -0.20    -7200.00
04147               0.20    -6400.00
04148               0.20    -4800.00
04149              -0.40    -4800.00
04150              -0.60    -4800.00
04151              -0.20    -4000.00
04152              -0.20    -3200.00
04153              -0.40    -2400.00
04154              -0.40    -2400.00
04155              -0.20    -1600.00
04156              -0.60    -1600.00
04157              -0.60     -800.00
04158              -0.20        0.00
04159              -0.20     1600.00
04160               1.00      800.00
04161               3.40     1600.00
04162              -2.40     2400.00
04163              -0.60     3200.00
04164               1.40     3200.00
04165              -1.00     4000.00
04166               1.40     4800.00
04167              21.20     6400.00
04168              21.20     7200.00
04169             -25.00     8000.00
04170             -13.40     8000.00
04171              25.00     8000.00
04172             -25.00     8000.00
04173               0.40     9600.00
04174              25.00     9600.00
04175             -25.00     9600.00
04176              25.00    11200.00
04177              25.00    11200.00
04178             -25.00    12000.00
04179              25.00    12800.00
04180             -25.00    12800.00
04181              -7.80    13600.00
04182              25.00    14400.00
04183             -25.00    14400.00
04184              25.00    15200.00
04185              12.20    16000.00
04186             -25.00    16000.00
04187              25.00    16000.00
04188               0.60    17600.00
04189             -25.00    18400.00
04190              12.20    18400.00
04191              19.80    19200.00
04192             -25.00    19200.00
04193              19.40    20000.00
04194              13.40    20800.00
04195             -25.00    20800.00
04196              25.00    21600.00
04197             -15.00    21600.00
04198              -9.00    22400.00
04199              10.80    23200.00
04200              -6.00    23200.00
04201              -5.40    23200.00
04202              12.60    24000.00
04203              -9.20    24800.00
04204              -8.20    24800.00
04205              12.20    25600.00
04206             -14.20    26400.00
04207               3.00    25600.00
04208               3.60    27200.00
04209              -6.60    27200.00
04210               0.60    27200.00
04211               0.20    27200.00
04212              -4.20    27200.00
04213              -1.40    28000.00
04214               3.20    28000.00
04215              -5.00    28800.00
04216              -1.00    28000.00
04217               0.60    28800.00
04218              -5.40    30400.00
04219               0.80    29600.00
04220              -0.40    30400.00
04221              -5.00    30400.00
04222               1.40    31200.00
04223              -2.60    31200.00
04224              -3.40    31200.00
04225               0.40    31200.00
04226              -3.60    31200.00
04227              -0.40    31200.00
04228              -0.40    32000.00
04229              -2.80    32800.00
04230              -1.80    32000.00
04231              -2.60    32800.00
04232              -1.60    32000.00
04233              -1.80    32800.00
04234              -1.40    32000.00
04235              -2.40    32800.00
04236              -2.00    32800.00
04237              -0.60    32000.00
04238              -3.20    32800.00
04239              -1.20    32800.00
04240              -1.20    33600.00
04241              -2.60    32800.00
04242               0.40    32800.00
04243              -2.40    32800.00
04244              -2.00    32000.00
04245              -1.20    32800.00
04246              -2.20    32800.00
04247              -1.20    32800.00
04248              -2.20    32000.00
04249              -1.80    32800.00
04250              -2.00    32800.00
04251              -2.00    32000.00
04252              -1.20    32000.00
04253              -2.20    32000.00
04254              -1.40    31200.00
04255              -1.40    32000.00
04256              -1.40    31200.00
04257              -1.40    31200.00
04258              -2.20    31200.00
04259              -1.00    31200.00
04260              -1.20    30400.00
04261              -1.80    30400.00
04262              -1.20    30400.00
04263              -2.00    30400.00
04264              -1.40    29600.00
04265              -1.20    29600.00
04266              -2.00    28800.00
04267              -2.00    28800.00
04268              -1.20    28800.00
04269              -0.80    28000.00
04270              -1.40    28000.00
04271              -1.80    28000.00
04272              -1.40    27200.00
04273              -1.20    26400.00
04274              -1.20    26400.00
04275              -1.80    25600.00
04276              -1.40    25600.00
04277              -1.00    25600.00
04278              -1.20    24800.00
04279              -1.00    24800.00
04280              -1.60    24800.00
04281              -1.80    24000.00
04282              -1.00    24000.00
04283              -1.40    22400.00
04284              -1.20    22400.00
04285              -1.40    22400.00
04286              -1.20    21600.00
04287              -1.00    21600.00
04288              -1.20    20800.00
04289              -1.20    20800.00
04290              -1.40    19200.00
04291              -1.20    19200.00
04292              -1.00    17600.00
04293              -1.20    18400.00
04294              -1.00    17600.00
04295              -1.20    17600.00
04296              -1.20    16800.00
04297              -0.60    16000.00
04298              -1.40    16000.00
04299              -1.00    15200.00
04300              -1.20    14400.00
04301              -1.20    13600.00
04302              -0.60    13600.00
04303              -1.20    12800.00
04304              -1.20    12000.00
04305              -0.60    11200.00
04306              -0.80    11200.00
04307              -1.00    11200.00
04308              -1.20    10400.00
04309              -0.60     8800.00
04310              -1.20     8800.00
04311              -0.60     8000.00
04312              -0.40     8000.00
04313              -1.00     7200.00
04314              -0.60     6400.00
04315              -0.40     5600.00
04316              -1.00     5600.00
04317              -0.60     4800.00
04318              -0.40     4000.00
04319              -0.20     3200.00
04320               0.40     2400.00
04321              -0.60     2400.00
04322              -0.60     1600.00
04323              -0.20     1600.00
04324              -0.20      800.00
04325               0.20        0.00
04326               0.40     -800.00
04327               3.40     -800.00
04328               0.80     -800.00
04329              -1.80    -2400.00
04330               1.40    -2400.00
04331               1.40    -3200.00
04332              -0.20    -4000.00
04333               2.80    -4000.00
04334              14.20    -4800.00
04335              25.00    -6400.00
04336             -25.00    -8000.00
04337             -25.00    -8000.00
04338              25.00    -8000.00
04339               2.00    -8800.00
04340             -25.00    -8000.00
04341              25.00    -9600.00
04342              25.00   -10400.00
04343             -25.00    -9600.00
04344              25.00   -11200.00
04345              25.00   -11200.00
04346             -25.00   -11200.00
04347              25.00   -12800.00
04348             -19.00   -13600.00
04349               4.40   -13600.00
04350              15.20   -14400.00
04351             -25.00   -14400.00
04352              25.00   -15200.00
04353              -7.40   -16000.00
04354             -22.60   -16000.00
04355              25.00   -16800.00
04356              -1.00   -16800.00
04357             -25.00   -17600.00
04358              20.20   -17600.00
04359               7.60   -19200.00
04360             -25.00   -19200.00
04361              25.00   -20000.00
04362               1.20   -20000.00
04363             -15.60   -20000.00
04364              19.40   -21600.00
04365              -8.60   -21600.00
04366              -6.00   -22400.00
04367              11.60   -22400.00
04368              -2.60   -23200.00
04369              -4.00   -23200.00
04370              13.40   -24000.00
04371              -7.60   -24000.00
04372              -1.00   -24800.00
04373               9.20   -25600.00
04374              -8.60   -26400.00
04375               4.40   -25600.00
04376               4.60   -26400.00
04377              -2.80   -27200.00
04378               1.80   -27200.00
04379               3.40   -27200.00
04380              -2.20   -27200.00
04381               2.20   -27200.00
04382               3.80   -28800.00
04383              -2.80   -28800.00
04384               2.60   -28800.00
04385               2.60   -28800.00
04386              -2.20   -28800.00
04387               3.40   -28800.00
04388               2.40   -29600.00
04389              -1.40   -29600.00
04390               3.60   -30400.00
04391               1.00   -30400.00
04392              -0.60   -30400.00
04393               2.20   -30400.00
04394               1.00   -30400.00
04395               1.80   -30400.00
04396               1.80   -31200.00
04397               1.00   -32000.00
04398               1.00   -32000.00
04399               1.20   -32000.00
04400               1.00   -32000.00
04401               1.20   -32000.00
04402               2.20   -32000.00
04403               0.40   -32000.00
04404               1.60   -32000.00
04405               1.80   -32000.00
04406              -0.20   -32000.00
04407               1.80   -32000.00
04408               1.40   -32000.00
04409               1.00   -32000.00
04410               2.00   -32000.00
04411               1.00   -32000.00
04412               1.80   -32000.00
04413               1.20   -32000.00
04414               1.40   -32000.00
04415               1.20   -32000.00
04416               0.60   -32000.00
04417               1.80   -32000.00
04418               0.20   -31200.00
04419               1.20   -32000.00
04420               1.40   -31200.00
04421              -0.20   -31200.00
04422               2.20   -31200.00
04423               1.40   -30400.00
04424              -0.60   -29600.00
04425               2.00   -30400.00
04426               1.20   -30400.00
04427               0.60   -29600.00
04428               2.20   -29600.00
04429               0.40   -29600.00
04430               0.60   -29600.00
04431               1.00   -28800.00
04432               0.40   -28800.00
04433               0.60   -28800.00
04434               0.60   -28000.00
04435               0.60   -28000.00
04436               0.60   -27200.00
04437               0.40   -27200.00
04438               0.80   -27200.00
04439               0.60   -26400.00
04440               1.20   -26400.00
04441               0.60   -25600.00
04442               1.00   -25600.00
04443               0.40   -25600.00
04444               1.00   -24800.00
04445               1.20   -24000.00
04446               0.20   -24000.00
04447               1.00   -24000.00
04448               0.40   -23200.00
04449               0.40   -22400.00
04450               1.00   -22400.00
04451               0.00   -22400.00
04452               0.60   -21600.00
04453               0.40   -20800.00
04454               0.40   -20800.00
04455               1.00   -20000.00
04456               0.40   -20000.00
04457               0.20   -19200.00
04458               0.60   -18400.00
04459               0.60   -17600.00
04460               0.40   -17600.00
04461               0.40   -17600.00
04462               0.20   -16800.00
04463               0.20   -16800.00
04464               0.40   -16000.00
04465               0.20   -15200.00
04466              -0.20   -14400.00
04467               0.60   -14400.00
04468               0.00   -13600.00
04469               0.00   -12800.00
04470               0.40   -12000.00
04471              -0.20   -12000.00
04472              -0.20   -11200.00
04473               0.40   -10400.00
04474              -0.40   -10400.00
04475              -0.60    -9600.00
04476               0.40    -8800.00
04477              -0.40    -8000.00
04478              -0.60    -7200.00
04479               0.20    -7200.00
04480               0.00    -7200.00
04481              -0.60    -6400.00
04482               0.40    -5600.00
04483              -0.20    -4800.00
04484              -1.00    -4000.00
04485              -0.40    -3200.00
04486              -0.40    -3200.00
04487              -0.60    -1600.00
04488              -0.20    -1600.00
04489              -1.00     -800.00
04490              -0.40        0.00
04491              -0.20        0.00
04492              -0.60     1600.00
04493               0.40      800.00
04494               3.40     1600.00
04495              -1.00     2400.00
04496              -1.80     2400.00
04497               0.60     3200.00
04498              -0.20     3200.00
04499              -1.40     4800.00
04500               9.20     4800.00
04501              25.00     6400.00
04502             -22.60     7200.00
04503             -25.00     8000.00
04504              20.60     8000.00
04505               6.00     8000.00
04506             -25.00     8000.00
04507              25.00     9600.00
04508              -0.60     9600.00
04509             -25.00    10400.00
04510              25.00    11200.00
04511             -25.00    11200.00
04512              -9.40    12000.00
04513              25.00    12800.00
04514             -25.00    13600.00
04515              25.00    14400.00
04516             -25.00    13600.00
04517             -25.00    15200.00
04518              25.00    15200.00
04519             -25.00    15200.00
04520               8.40    16800.00
04521              25.00    17600.00
04522             -25.00    17600.00
04523             -13.40    18400.00
04524              25.00    18400.00
04525             -16.60    19200.00
04526             -19.80    20000.00
04527              25.00    20000.00
04528             -25.00    20800.00
04529               3.80    21600.00
04530              12.20    21600.00
04531             -23.40    22400.00
04532               9.40    22400.00
04533               2.60    23200.00
04534             -10.00    24000.00
04535               5.20    24000.00
04536               6.80    24000.00
04537             -17.20    24800.00
04538              10.00    25600.00
04539              -2.60    25600.00
04540             -10.20    25600.00
04541               9.00    26400.00
04542              -6.00    27200.00
04543              -2.00    27200.00
04544               2.00    27200.00
04545              -2.40    28000.00
04546              -4.40    27200.00
04547               2.20    28000.00
04548              -2.60    28800.00
04549              -4.60    28800.00
04550               2.00    29600.00
04551              -3.40    29600.00
04552              -2.80    29600.00
04553               3.40    30400.00
04554              -4.40    30400.00
04555              -2.20    31200.00
04556               1.00    31200.00
04557              -5.20    31200.00
04558              -0.60    31200.00
04559              -1.80    31200.00
04560              -2.80    32000.00
04561               0.60    31200.00
04562              -2.00    32000.00
04563              -2.00    32800.00
04564              -1.80    32000.00
04565              -2.60    32800.00
04566              -2.20    32000.00
04567              -1.40    32800.00
04568              -1.80    32800.00
04569              -3.00    32800.00
04570              -0.20    32800.00
04571              -1.80    32800.00
04572              -3.00    32000.00
04573              -0.40    32800.00
04574              -3.60    32800.00
04575              -1.00    32800.00
04576              -1.00    32800.00
04577              -3.60    32800.00
04578              -0.60    32800.00
04579              -1.40    32000.00
04580              -1.80    32800.00
04581              -1.20    32000.00
04582              -2.20    32800.00
04583              -2.00    32000.00
04584              -1.60    32800.00
04585              -1.40    32000.00
04586              -2.00    32800.00
04587              -1.00    32000.00
04588              -1.20    32000.00
04589              -2.00    31200.00
04590              -0.80    31200.00
04591              -2.20    31200.00
04592              -2.20    31200.00
04593              -1.00    30400.00
04594              -2.00    30400.00
04595              -1.40    30400.00
04596              -1.20    30400.00
04597              -1.20    30400.00
04598              -0.80    29600.00
04599              -2.00    29600.00
04600              -1.80    28800.00
04601              -1.60    28800.00
04602              -2.00    28800.00
04603              -1.40    28000.00
04604              -1.40    28000.00
04605              -1.20    27200.00
04606              -1.20    27200.00
04607              -1.20    27200.00
04608              -1.40    26400.00
04609              -2.80    25600.00
04610              -1.20    25600.00
04611              -1.20    24800.00
04612              -2.00    24800.00
04613              -0.60    24000.00
04614              -1.40    24000.00
04615              -1.80    24000.00
04616              -1.20    23200.00
04617              -1.40    22400.00
04618              -1.20    22400.00
04619              -1.60    21600.00
04620              -1.20    21600.00
04621              -1.20    20800.00
04622              -1.40    20000.00
04623              -1.20    19200.00
04624              -1.80    19200.00
04625              -1.20    19200.00
04626              -1.20    18400.00
04627              -1.00    17600.00
04628              -1.00    17600.00
04629              -1.40    16800.00
04630              -0.20    16000.00
04631              -1.00    16000.00
04632              -1.80    15200.00
04633              -1.60    14400.00
04634              -1.80    14400.00
04635              -1.00    14400.00
04636              -0.60    12800.00
04637              -1.00    12800.00
04638              -0.20    12000.00
04639              -0.20    12000.00
04640              -1.00    11200.00
04641              -1.20    10400.00
04642              -1.00     9600.00
04643              -0.60     9600.00
04644              -0.40     8800.00
04645              -0.60     8000.00
04646              -1.20     8000.00
04647              -1.00     7200.00
04648              -0.20     6400.00
04649              -0.60     5600.00
04650              -0.60     4800.00
04651              -0.60     4000.00
04652              -0.60     4000.00
04653              -0.40     3200.00
04654              -0.60     2400.00
04655              -0.40     1600.00
04656               0.20     1600.00
04657               0.20        0.00
04658               0.20        0.00
04659               0.20     -800.00
04660               1.20    -1600.00
04661               3.40    -1600.00
04662              -1.80    -1600.00
04663               0.20    -2400.00
04664               2.00    -3200.00
04665               0.60    -3200.00
04666              -0.20    -3200.00
04667               7.40    -4800.00
04668              24.80    -4800.00
04669               2.80    -7200.00
04670             -25.00    -8000.00
04671               1.80    -8000.00
04672              25.00    -8800.00
04673             -25.00    -8000.00
04674             -12.40    -8800.00
04675              25.00   -10400.00
04676             -25.00   -10400.00
04677             -25.00   -11200.00
04678              25.00   -12000.00
04679             -25.00   -11200.00
04680               3.60   -12800.00
04681              25.00   -12800.00
04682             -25.00   -12800.00
04683              25.00   -14400.00
04684             -25.00   -14400.00
04685               4.20   -16000.00
04686              25.00   -15200.00
04687             -25.00   -16000.00
04688              10.80   -16800.00
04689              23.60   -16800.00
04690             -24.00   -17600.00
04691              -5.00   -18400.00
04692              25.00   -19200.00
04693             -25.00   -19200.00
04694               0.40   -20000.00
04695              25.00   -20000.00
04696             -22.20   -20800.00
04697               7.80   -20800.00
04698               8.40   -21600.00
04699             -15.00   -21600.00
04700               7.40   -22400.00
04701               7.40   -23200.00
04702              -9.40   -24000.00
04703               8.40   -24000.00
04704               4.40   -24000.00
04705             -11.00   -24800.00
04706              10.80   -24800.00
04707              -1.00   -25600.00
04708              -3.80   -25600.00
04709               8.40   -26400.00
04710              -1.40   -26400.00
04711              -1.40   -26400.00
04712               3.80   -27200.00
04713               0.20   -27200.00
04714              -1.00   -27200.00
04715               4.60   -28000.00
04716              -0.40   -28800.00
04717              -0.60   -28000.00
04718               4.20   -28800.00
04719              -1.00   -29600.00
04720               1.00   -28800.00
04721               4.60   -29600.00
04722              -1.20   -29600.00
04723               1.40   -29600.00
04724               2.60   -30400.00
04725              -1.40   -30400.00
04726               2.00   -30400.00
04727               1.80   -30400.00
04728               1.00   -32000.00
04729               1.80   -30400.00
04730               1.20   -32000.00
04731               1.00   -32000.00
04732               1.00   -32000.00
04733               1.20   -32000.00
04734               1.20   -32000.00
04735               2.00   -32000.00
04736               1.40   -32000.00
04737               1.00   -32000.00
04738               2.20   -32000.00
04739               0.00   -32000.00
04740               0.80   -32000.00
04741               2.00   -32000.00
04742               0.20   -32000.00
04743               2.00   -32000.00
04744               1.20   -32000.00
04745              -0.20   -32000.00
04746               1.40   -32000.00
04747               1.20   -32000.00
04748               1.20   -32000.00
04749               1.20   -32000.00
04750               1.20   -32000.00
04751               1.00   -32000.00
04752               1.20   -31200.00
04753               1.00   -31200.00
04754               0.60   -31200.00
04755               1.40   -30400.00
04756               0.80   -31200.00
04757               0.40   -30400.00
04758               1.80   -30400.00
04759               0.80   -30400.00
04760               0.80   -30400.00
04761               1.80   -28800.00
04762               0.60   -29600.00
04763               1.00   -29600.00
04764               1.40   -28800.00
04765               0.40   -28800.00
04766               0.40   -28800.00
04767               1.60   -28800.00
04768               1.80   -28000.00
04769               0.40   -27200.00
04770               0.60   -27200.00
04771               0.40   -27200.00
04772               1.40   -27200.00
04773               0.60   -26400.00
04774              -0.20   -25600.00
04775               2.20   -25600.00
04776               0.80   -25600.00
04777              -0.60   -24800.00
04778               2.00   -24000.00
04779               1.00   -24000.00
04780              -1.00   -24000.00
04781               2.00   -24000.00
04782               1.00   -23200.00
04783              -0.20   -22400.00
04784               1.00   -22400.00
04785               1.20   -20800.00
04786               0.20   -20800.00
04787               1.00   -20800.00
04788               1.00   -20000.00
04789               0.00   -20000.00
04790               0.40   -19200.00
04791              -0.20   -18400.00
04792               0.20   -17600.00
04793               1.20   -17600.00
04794               0.40   -17600.00
04795               0.40   -16800.00
04796               0.60   -16800.00
04797              -0.20   -16000.00
04798               0.60   -15200.00
04799               0.20   -14400.00
04800               0.20   -14400.00
04801               0.60   -13600.00
04802               0.40   -13600.00
04803              -0.40   -12800.00
04804              -0.20   -12000.00
04805               0.00   -11200.00
04806              -0.20   -11200.00
04807              -0.20   -10400.00
04808               0.20   -10400.00
04809              -0.20    -9600.00
04810              -0.20    -8000.00
04811               0.20    -8000.00
04812              -0.20    -7200.00
04813              -0.40    -6400.00
04814               0.00    -6400.00
04815               0.20    -4800.00
04816              -0.20    -4800.00
04817              -1.00    -4000.00
04818              -0.40    -4000.00
04819               0.20    -3200.00
04820              -0.60    -3200.00
04821              -1.20    -1600.00
04822              -0.40     -800.00
04823              -0.40     -800.00
04824              -1.00     -800.00
04825              -0.40        0.00
04826               0.40      800.00
04827               1.40     1600.00
04828               2.80     1600.00
04829              -2.20     2400.00
04830              -0.60     2400.00
04831               1.20     3200.00
04832              -1.40     4000.00
04833               1.20     4800.00
04834              22.80     6400.00
04835              18.80     7200.00
04836             -25.00     8000.00
04837             -10.40     8000.00
04838              25.00     8000.00
04839             -25.00     8000.00
04840               6.60     9600.00
04841              25.00     9600.00
04842             -25.00     9600.00
04843              25.00    11200.00
04844              25.00    11200.00
04845             -25.00    12000.00
04846              25.00    12800.00
04847             -25.00    12800.00
04848               0.00    12800.00
04849              25.00    13600.00
04850             -25.00    15200.00
04851              25.00    15200.00
04852               7.00    15200.00
04853             -25.00    16000.00
04854              25.00    16800.00
04855              -1.80    17600.00
04856             -25.00    17600.00
04857              14.80    18400.00
04858              18.60    18400.00
04859             -25.00    19200.00
04860              23.00    20000.00
04861              10.20    20800.00
04862             -25.00    21600.00
04863              25.00    22400.00
04864             -16.60    21600.00
04865              -7.60    22400.00
04866              10.20    22400.00
04867              -7.40    23200.00
04868              -4.20    24000.00
04869              14.20    24000.00
04870             -10.40    24800.00
04871              -6.20    24800.00
04872              10.80    25600.00
04873             -16.20    25600.00
04874               4.20    25600.00
04875               3.00    26400.00
04876              -7.00    27200.00
04877               1.20    27200.00
04878               0.20    27200.00
04879              -5.00    28000.00
04880              -1.40    28000.00
04881               2.00    28800.00
04882              -5.80    28000.00
04883              -1.20    28800.00
04884               0.20    28800.00
04885              -5.20    29600.00
04886               1.40    30400.00
04887              -0.20    30400.00
04888              -5.00    31200.00
04889               1.40    30400.00
04890              -3.00    31200.00
04891              -3.40    31200.00
04892               0.60    31200.00
04893              -3.60    31200.00
04894              -0.20    31200.00
04895              -0.60    32000.00
04896              -2.60    32000.00
04897              -2.20    32800.00
04898              -2.80    32000.00
04899              -1.80    32800.00
04900              -2.00    32800.00
04901              -0.60    32800.00
04902              -2.00    32800.00
04903              -1.80    32800.00
04904              -0.60    32000.00
04905              -3.60    32000.00
04906              -1.20    32800.00
04907              -1.80    32800.00
04908              -2.40    32000.00
04909               0.60    32800.00
04910              -2.40    32000.00
04911              -1.80    32800.00
04912              -1.20    32800.00
04913              -2.60    32800.00
04914              -1.20    32800.00
04915              -2.40    32000.00
04916              -2.00    32000.00
04917              -1.20    32000.00
04918              -1.20    32800.00
04919              -1.40    32800.00
04920              -1.80    32000.00
04921              -0.60    32000.00
04922              -2.00    31200.00
04923              -1.40    32000.00
04924              -1.40    31200.00
04925              -2.60    31200.00
04926              -1.20    31200.00
04927              -1.40    30400.00
04928              -1.80    30400.00
04929              -1.20    30400.00
04930              -2.00    30400.00
04931              -1.00    30400.00
04932              -1.20    28800.00
04933              -2.20    28800.00
04934              -1.60    28800.00
04935              -1.00    28800.00
04936              -1.40    28000.00
04937              -1.80    27200.00
04938              -1.40    27200.00
04939              -2.00    27200.00
04940              -1.80    27200.00
04941              -1.20    26400.00
04942              -2.20    25600.00
04943              -1.40    25600.00
04944              -1.00    25600.00
04945              -2.00    25600.00
04946              -1.20    24800.00
04947              -0.80    24800.00
04948              -1.80    24000.00
04949              -1.20    24000.00
04950              -1.40    23200.00
04951              -1.60    22400.00
04952              -1.40    22400.00
04953              -1.20    21600.00
04954              -1.20    21600.00
04955              -1.20    20800.00
04956              -1.40    20000.00
04957              -1.60    19200.00
04958              -1.40    19200.00
04959              -1.00    19200.00
04960              -1.40    18400.00
04961              -1.20    17600.00
04962              -1.20    17600.00
04963              -1.20    16000.00
04964              -0.60    16000.00
04965              -1.40    16000.00
04966              -0.60    15200.00
04967              -0.80    14400.00
04968              -0.80    14400.00
04969              -0.40    13600.00
04970              -1.00    12800.00
04971              -1.40    12800.00
04972              -0.60    12000.00
04973              -1.00    11200.00
04974              -1.20    11200.00
04975              -0.40     9600.00
04976              -1.00     9600.00
04977              -0.20     8800.00
04978              -0.60     8000.00
04979              -1.00     8000.00
04980              -0.60     8000.00
04981              -0.40     6400.00
04982              -1.00     5600.00
04983              -0.60     5600.00
04984               0.40     4800.00
04985              -1.20     4000.00
04986               0.40     3200.00
04987               0.40     3200.00
04988              -1.00     2400.00
04989              -0.60     1600.00
04990              -0.20     1600.00
04991              -1.00        0.00
04992               0.40        0.00
04993               0.40        0.00
04994               3.00     -800.00
04995               1.00    -1600.00
04996              -1.20    -1600.00
04997               1.20    -2400.00
04998               1.80    -3200.00
04999              -0.60    -3200.00
05000               2.60    -4000.00
