Unit:(mV)
                     CH1         CH2
Frequency              ? 299.862 kHz
00001             -25.00    -7200.00
00002             -25.00    -8000.00
00003              25.00    -8000.00
00004               3.80    -9600.00
00005             -25.00    -8800.00
00006              25.00    -9600.00
00007              25.00   -11200.00
00008             -25.00   -10400.00
00009              25.00   -11200.00
00010              25.00   -11200.00
00011             -25.00   -12000.00
00012              25.00   -13600.00
00013             -11.40   -13600.00
00014               2.00   -14400.00
00015              12.20   -13600.00
00016             -25.00   -15200.00
00017              25.00   -16000.00
00018              -6.20   -16000.00
00019             -25.00   -16800.00
00020              25.00   -17600.00
00021               2.60   -17600.00
00022             -25.00   -18400.00
00023              15.60   -18400.00
00024              13.00   -20000.00
00025             -25.00   -19200.00
00026              24.40   -20000.00
00027               4.20   -20800.00
00028             -18.20   -21600.00
00029              18.00   -22400.00
00030              -8.20   -22400.00
00031              -8.20   -22400.00
00032              10.60   -23200.00
00033              -2.80   -24000.00
00034              -5.80   -24000.00
00035              13.40   -24000.00
00036              -9.00   -25600.00
00037              -2.20   -25600.00
00038              10.20   -25600.00
00039             -11.00   -26400.00
00040               3.80   -26400.00
00041               5.00   -27200.00
00042              -5.40   -26400.00
00043               1.00   -27200.00
00044               3.00   -28000.00
00045              -3.80   -28800.00
00046               2.20   -28000.00
00047               2.80   -28800.00
00048              -4.00   -28800.00
00049               2.20   -29600.00
00050               1.80   -29600.00
00051              -2.00   -29600.00
00052               2.00   -30400.00
00053               2.20   -30400.00
00054              -1.20   -30400.00
00055               2.80   -31200.00
00056               0.40   -32000.00
00057              -0.20   -32000.00
00058               2.80   -32000.00
00059               0.40   -32000.00
00060               1.80   -32000.00
00061               3.00   -32000.00
00062               0.60   -32000.00
00063               2.00   -32000.00
00064               3.20   -32000.00
00065               2.20   -32000.00
00066               3.00   -32000.00
00067               5.00   -32000.00
00068               3.60   -32800.00
00069               4.60   -32800.00
00070               6.20   -32800.00
00071               4.20   -32800.00
00072               7.40   -32800.00
00073               7.80   -32800.00
00074               7.60   -32800.00
00075              11.40   -32800.00
00076              10.00   -32800.00
00077              10.80   -32800.00
00078              13.80   -32800.00
00079              12.60   -32800.00
00080              13.60   -32800.00
00081              15.00   -32800.00
00082              16.40   -32000.00
00083              19.80   -32800.00
00084              24.80   -32000.00
00085              15.80   -32000.00
00086               4.60   -32000.00
00087              11.00   -32000.00
00088              11.40   -30400.00
00089               5.60   -32000.00
00090               6.20   -30400.00
00091               7.60   -32000.00
00092               6.20   -30400.00
00093               3.40   -30400.00
00094               4.40   -30400.00
00095               6.20   -29600.00
00096               2.00   -29600.00
00097               1.80   -29600.00
00098               4.60   -28800.00
00099               1.40   -28800.00
00100               0.60   -28800.00
00101               3.40   -28800.00
00102               1.20   -28000.00
00103              -0.60   -27200.00
00104               2.20   -27200.00
00105               0.60   -27200.00
00106              -0.40   -26400.00
00107               1.20   -25600.00
00108               0.40   -25600.00
00109              -0.20   -25600.00
00110               1.00   -24800.00
00111               0.20   -24000.00
00112               0.40   -24000.00
00113               0.20   -24000.00
00114              -0.40   -23200.00
00115               0.20   -23200.00
00116              -0.20   -22400.00
00117              -0.20   -22400.00
00118              -0.40   -21600.00
00119              -0.20   -20800.00
00120               0.00   -20800.00
00121              -0.60   -20000.00
00122               0.00   -19200.00
00123              -0.60   -18400.00
00124              -0.60   -18400.00
00125               0.20   -17600.00
00126              -0.60   -17600.00
00127              -0.60   -17600.00
00128              -0.20   -16800.00
00129              -0.40   -16000.00
00130              -0.40   -15200.00
00131              -0.20   -15200.00
00132              -0.40   -14400.00
00133              -0.60   -13600.00
00134              -0.40   -13600.00
00135              -0.60   -12800.00
00136              -0.40   -11200.00
00137               0.20   -11200.00
00138              -0.60   -11200.00
00139              -0.60    -9600.00
00140              -0.40   -10400.00
00141              -1.20    -8800.00
00142              -0.20    -8000.00
00143              -0.60    -8000.00
00144              -1.00    -7200.00
00145               0.40    -7200.00
00146              -0.60    -6400.00
00147              -0.60    -5600.00
00148               0.40    -4800.00
00149              -1.60    -4000.00
00150              -0.80    -3200.00
00151               0.60    -3200.00
00152              -2.00    -2400.00
00153              -0.60    -1600.00
00154              -0.20     -800.00
00155              -0.60     -800.00
00156              -0.60        0.00
00157               0.40        0.00
00158               1.00      800.00
00159               2.80     1600.00
00160              -0.20     2400.00
00161              -1.60     2400.00
00162               0.80     3200.00
00163               1.00     3200.00
00164              -1.40     4800.00
00165              10.20     5600.00
00166              25.00     7200.00
00167             -22.60     7200.00
00168             -25.00     8000.00
00169              21.20     8800.00
00170               9.00     8000.00
00171             -25.00     8800.00
00172              25.00     9600.00
00173              18.00     9600.00
00174             -25.00    11200.00
00175              25.00    12000.00
00176             -25.00    12000.00
00177             -18.80    12800.00
00178              25.00    12800.00
00179             -25.00    13600.00
00180              25.00    14400.00
00181             -24.40    14400.00
00182             -25.00    15200.00
00183              25.00    16000.00
00184             -25.00    16000.00
00185               3.00    17600.00
00186              25.00    17600.00
00187             -22.00    17600.00
00188             -18.40    18400.00
00189              25.00    19200.00
00190              -9.40    19200.00
00191             -23.00    20800.00
00192              25.00    21600.00
00193             -24.20    21600.00
00194               2.80    22400.00
00195              13.40    22400.00
00196             -21.80    22400.00
00197               8.40    24000.00
00198               4.60    24000.00
00199              -9.80    24000.00
00200               4.80    24800.00
00201               9.00    24800.00
00202             -17.40    24800.00
00203              10.20    25600.00
00204               0.20    25600.00
00205             -10.80    26400.00
00206               9.80    27200.00
00207              -3.40    27200.00
00208              -2.80    28000.00
00209               2.80    27200.00
00210              -1.20    28800.00
00211              -4.60    28800.00
00212               3.20    28800.00
00213              -1.20    28800.00
00214              -4.20    29600.00
00215               2.60    30400.00
00216              -2.60    30400.00
00217              -3.00    30400.00
00218               3.60    30400.00
00219              -3.80    31200.00
00220              -1.40    31200.00
00221               1.40    31200.00
00222              -5.20    32000.00
00223               0.00    32000.00
00224              -1.20    32000.00
00225              -3.60    32800.00
00226               0.20    32800.00
00227              -2.20    32800.00
00228              -3.00    33600.00
00229              -2.60    32800.00
00230              -3.00    32800.00
00231              -3.00    32800.00
00232              -3.60    33600.00
00233              -3.00    33600.00
00234              -5.40    33600.00
00235              -3.80    33600.00
00236              -5.20    33600.00
00237              -7.00    32800.00
00238              -5.40    33600.00
00239              -9.00    33600.00
00240              -7.60    33600.00
00241              -8.20    33600.00
00242             -12.20    33600.00
00243             -10.60    33600.00
00244             -12.20    33600.00
00245             -13.20    33600.00
00246             -13.60    32800.00
00247             -15.00    33600.00
00248             -15.60    33600.00
00249             -17.20    32800.00
00250             -20.60    32800.00
00251             -25.00    32800.00
00252             -15.00    32800.00
00253              -5.00    32000.00
00254             -12.20    32800.00
00255             -11.60    32000.00
00256              -6.80    32800.00
00257              -7.00    31200.00
00258              -8.20    31200.00
00259              -6.80    31200.00
00260              -4.40    31200.00
00261              -5.40    30400.00
00262              -6.20    30400.00
00263              -2.20    30400.00
00264              -3.40    30400.00
00265              -5.20    30400.00
00266              -2.20    28800.00
00267              -1.40    28800.00
00268              -3.60    28800.00
00269              -1.80    28000.00
00270              -0.80    28800.00
00271              -2.60    28000.00
00272              -1.40    27200.00
00273              -0.20    27200.00
00274              -2.40    26400.00
00275              -1.40    26400.00
00276              -0.40    25600.00
00277              -1.20    25600.00
00278              -1.00    24800.00
00279              -0.40    24800.00
00280              -0.60    24800.00
00281              -1.20    24000.00
00282               0.00    23200.00
00283              -0.60    22400.00
00284              -1.20    22400.00
00285              -0.20    22400.00
00286              -0.40    21600.00
00287              -1.00    21600.00
00288              -1.00    20800.00
00289              -0.60    19200.00
00290               0.20    19200.00
00291              -0.60    19200.00
00292              -1.00    18400.00
00293              -0.40    17600.00
00294              -0.40    17600.00
00295              -0.60    16800.00
00296               0.00    16000.00
00297              -0.20    16000.00
00298              -0.40    15200.00
00299              -0.60    14400.00
00300               0.20    14400.00
00301              -0.60    13600.00
00302              -0.80    12800.00
00303               0.20    12000.00
00304               0.00    12000.00
00305              -0.60    11200.00
00306              -0.80    11200.00
00307               0.40    10400.00
00308               0.20     9600.00
00309              -1.80     8800.00
00310               1.00     8800.00
00311               0.40     7200.00
00312              -1.80     7200.00
00313               0.20     6400.00
00314               1.20     5600.00
00315              -2.00     4800.00
00316               0.00     4800.00
00317               1.20     4000.00
00318              -1.20     3200.00
00319              -1.20     3200.00
00320               0.60     2400.00
00321              -1.00     1600.00
00322              -1.00      800.00
00323               1.20        0.00
00324               0.60        0.00
00325               0.60     -800.00
00326               3.60    -1600.00
00327              -1.80    -1600.00
00328              -0.80    -2400.00
00329               1.40    -3200.00
00330               0.60    -3200.00
00331              -0.20    -4000.00
00332               6.80    -4800.00
00333              25.00    -6400.00
00334               3.60    -7200.00
00335             -25.00    -8000.00
00336               0.40    -8000.00
00337              25.00    -8000.00
00338             -25.00    -8800.00
00339             -21.00    -8800.00
00340              25.00   -10400.00
00341             -22.60   -10400.00
00342             -25.00   -11200.00
00343              25.00   -12000.00
00344             -25.00   -11200.00
00345             -12.00   -12800.00
00346              25.00   -12800.00
00347             -25.00   -13600.00
00348              25.00   -14400.00
00349             -25.00   -14400.00
00350               3.00   -16000.00
00351              25.00   -16000.00
00352             -25.00   -16000.00
00353               6.00   -16800.00
00354              25.00   -17600.00
00355             -22.20   -17600.00
00356             -11.00   -17600.00
00357              25.00   -19200.00
00358             -21.80   -19200.00
00359              -5.80   -20000.00
00360              25.00   -20800.00
00361             -19.80   -21600.00
00362               4.20   -22400.00
00363               8.60   -22400.00
00364             -14.20   -22400.00
00365               4.20   -23200.00
00366               7.40   -23200.00
00367             -10.60   -24000.00
00368               6.60   -24000.00
00369               6.20   -24800.00
00370             -13.80   -24800.00
00371               9.80   -25600.00
00372               0.60   -25600.00
00373              -7.80   -26400.00
00374               6.80   -26400.00
00375               0.40   -27200.00
00376              -4.40   -27200.00
00377               2.80   -27200.00
00378               3.60   -28800.00
00379              -4.00   -28800.00
00380               2.60   -28800.00
00381               1.80   -28800.00
00382              -4.20   -29600.00
00383               2.60   -28800.00
00384               1.20   -29600.00
00385              -1.20   -30400.00
00386               3.60   -30400.00
00387              -0.20   -30400.00
00388              -0.40   -30400.00
00389               3.40   -30400.00
00390              -0.20   -31200.00
00391               0.60   -31200.00
00392               2.00   -32000.00
00393               0.80   -32000.00
00394               1.80   -32000.00
00395               2.20   -32000.00
00396               2.00   -32000.00
00397               1.80   -32000.00
00398               3.00   -32800.00
00399               2.60   -32000.00
00400               2.60   -32800.00
00401               4.00   -32800.00
00402               4.40   -32800.00
00403               5.40   -32800.00
00404               5.60   -32800.00
00405               6.80   -32800.00
00406               7.40   -32800.00
00407               7.20   -32800.00
00408              10.00   -32800.00
00409              10.40   -33600.00
00410              10.60   -32800.00
00411              12.60   -32800.00
00412              13.00   -32800.00
00413              13.20   -32800.00
00414              14.00   -32000.00
00415              15.60   -32800.00
00416              18.20   -32800.00
00417              22.80   -32000.00
00418              22.00   -32000.00
00419               8.40   -32000.00
00420               7.20   -32000.00
00421              13.20   -32000.00
00422               8.40   -31200.00
00423               5.40   -30400.00
00424               7.00   -30400.00
00425               7.80   -30400.00
00426               5.00   -30400.00
00427               2.80   -30400.00
00428               6.20   -29600.00
00429               3.80   -29600.00
00430               0.80   -29600.00
00431               4.20   -29600.00
00432               3.60   -28800.00
00433               0.00   -28800.00
00434               2.00   -28800.00
00435               2.00   -27200.00
00436               0.40   -27200.00
00437               1.20   -27200.00
00438               1.80   -26400.00
00439               0.20   -26400.00
00440               0.60   -26400.00
00441               0.60   -26400.00
00442              -0.20   -25600.00
00443               0.60   -24800.00
00444               0.20   -24800.00
00445              -0.20   -24000.00
00446               0.20   -23200.00
00447              -0.40   -24000.00
00448              -0.40   -22400.00
00449              -0.20   -23200.00
00450               0.20   -22400.00
00451              -0.20   -22400.00
00452              -0.20   -20800.00
00453               0.20   -20800.00
00454              -0.40   -20000.00
00455              -0.80   -20000.00
00456              -0.20   -18400.00
00457              -0.40   -18400.00
00458               0.00   -17600.00
00459              -0.60   -16800.00
00460              -0.60   -17600.00
00461              -0.20   -16800.00
00462              -0.60   -16800.00
00463              -0.60   -15200.00
00464              -0.40   -15200.00
00465              -0.60   -14400.00
00466              -0.40   -13600.00
00467              -0.60   -13600.00
00468              -0.20   -12800.00
00469              -0.60   -12800.00
00470              -0.60   -11200.00
00471              -0.20   -11200.00
00472              -0.60   -10400.00
00473              -1.00    -9600.00
00474              -0.60    -9600.00
00475              -0.60    -9600.00
00476              -0.60    -8000.00
00477              -0.60    -8000.00
00478              -0.60    -7200.00
00479               0.00    -7200.00
00480              -0.60    -6400.00
00481              -0.60    -4800.00
00482              -0.20    -4800.00
00483              -0.60    -4000.00
00484              -0.60    -3200.00
00485              -0.60    -3200.00
00486              -0.20    -1600.00
00487              -0.20    -1600.00
00488              -1.20     -800.00
00489               0.00     -800.00
00490               0.60        0.00
00491              -0.60      800.00
00492               1.80     1600.00
00493               3.60     2400.00
00494              -3.60     2400.00
00495              -0.40     3200.00
00496               2.60     3200.00
00497              -1.20     4000.00
00498               2.60     4800.00
00499              24.20     6400.00
00500              20.20     7200.00
00501             -25.00     8000.00
00502             -10.20     8000.00
00503              25.00     8800.00
00504             -25.00     8000.00
00505              -5.80     9600.00
00506              25.00    10400.00
00507             -25.00    10400.00
00508              23.80    11200.00
00509              25.00    11200.00
00510             -25.00    12000.00
00511              25.00    12800.00
00512             -25.00    13600.00
00513              -2.00    14400.00
00514              25.00    14400.00
00515             -25.00    15200.00
00516              25.00    15200.00
00517              13.20    16000.00
00518             -25.00    16000.00
00519              25.00    16800.00
00520               5.00    17600.00
00521             -25.00    18400.00
00522               7.80    19200.00
00523              24.40    19200.00
00524             -25.00    20000.00
00525              19.60    20800.00
00526              14.80    21600.00
00527             -25.00    21600.00
00528              25.00    22400.00
00529             -14.20    23200.00
00530              -8.00    22400.00
00531              11.00    24000.00
00532              -4.40    24000.00
00533              -5.40    24000.00
00534              15.80    24800.00
00535              -8.60    24800.00
00536              -7.40    25600.00
00537              13.20    25600.00
00538             -14.00    26400.00
00539               3.00    27200.00
00540               5.40    27200.00
00541              -6.00    27200.00
00542               0.40    28000.00
00543               2.00    28800.00
00544              -3.80    28800.00
00545              -0.80    28800.00
00546               3.40    28800.00
00547              -4.40    29600.00
00548              -0.60    30400.00
00549               1.00    30400.00
00550              -4.60    30400.00
00551               1.60    30400.00
00552               0.60    31200.00
00553              -5.00    31200.00
00554               1.80    31200.00
00555              -2.20    31200.00
00556              -4.20    32000.00
00557               1.00    31200.00
00558              -3.40    32800.00
00559              -1.40    32000.00
00560              -0.60    32800.00
00561              -2.20    32800.00
00562              -2.80    32800.00
00563              -3.00    32800.00
00564              -2.20    33600.00
00565              -3.80    33600.00
00566              -3.00    33600.00
00567              -4.40    32800.00
00568              -5.40    33600.00
00569              -3.40    33600.00
00570              -7.00    33600.00
00571              -6.00    33600.00
00572              -6.80    32800.00
00573              -9.40    33600.00
00574              -6.60    33600.00
00575             -10.40    33600.00
00576             -11.60    33600.00
00577             -10.60    33600.00
00578             -13.20    32800.00
00579             -13.20    33600.00
00580             -14.80    33600.00
00581             -15.00    33600.00
00582             -16.40    32800.00
00583             -19.00    32800.00
00584             -23.60    32000.00
00585             -22.20    32800.00
00586              -7.60    32800.00
00587              -8.40    32800.00
00588             -13.40    32000.00
00589              -8.40    32000.00
00590              -7.00    32800.00
00591              -7.60    31200.00
00592              -7.60    31200.00
00593              -5.40    31200.00
00594              -3.80    31200.00
00595              -6.80    30400.00
00596              -4.40    30400.00
00597              -2.00    29600.00
00598              -5.00    29600.00
00599              -4.20    29600.00
00600              -1.20    28800.00
00601              -2.80    28800.00
00602              -3.00    28800.00
00603              -0.60    28000.00
00604              -2.00    28000.00
00605              -2.20    27200.00
00606              -0.60    27200.00
00607              -1.40    26400.00
00608              -2.00    26400.00
00609              -0.60    25600.00
00610              -1.40    25600.00
00611              -0.60    25600.00
00612              -0.60    24800.00
00613              -1.20    24800.00
00614              -0.40    24000.00
00615              -0.80    24000.00
00616              -0.60    23200.00
00617              -0.60    22400.00
00618              -1.20    22400.00
00619              -0.20    21600.00
00620              -0.20    21600.00
00621              -0.60    20800.00
00622              -0.80    20000.00
00623               0.20    19200.00
00624              -0.20    19200.00
00625              -0.40    18400.00
00626              -0.40    18400.00
00627              -0.60    17600.00
00628              -0.20    17600.00
00629               0.40    16000.00
00630              -1.00    16000.00
00631              -0.40    15200.00
00632              -0.40    14400.00
00633              -0.40    14400.00
00634               0.00    14400.00
00635              -1.20    12800.00
00636              -0.20    12800.00
00637               0.20    12000.00
00638              -0.60    11200.00
00639              -0.40    11200.00
00640              -0.60    10400.00
00641              -0.40     9600.00
00642               0.40     8800.00
00643              -1.00     8800.00
00644               0.20     8000.00
00645              -0.40     7200.00
00646              -0.60     6400.00
00647              -0.20     5600.00
00648              -0.60     5600.00
00649              -0.60     4800.00
00650               0.00     4800.00
00651              -0.40     3200.00
00652              -0.20     2400.00
00653               0.00     2400.00
00654              -0.60     2400.00
00655              -0.40     1600.00
00656              -0.20        0.00
00657              -0.20        0.00
00658               0.40     -800.00
00659               2.80     -800.00
00660               0.60    -1600.00
00661              -1.80    -1600.00
00662               1.20    -3200.00
00663               1.00    -3200.00
00664              -0.40    -3200.00
00665               2.00    -4000.00
00666              14.20    -5600.00
00667              25.00    -6400.00
00668             -25.00    -7200.00
00669             -25.00    -8000.00
00670              25.00    -8000.00
00671               1.00    -9600.00
00672             -25.00    -8800.00
00673              25.00    -9600.00
00674              25.00   -10400.00
00675             -25.00    -9600.00
00676              25.00   -11200.00
00677              25.00   -12000.00
00678             -25.00   -12000.00
00679              25.00   -12800.00
00680             -14.00   -13600.00
00681               5.20   -14400.00
00682              10.80   -14400.00
00683             -25.00   -14400.00
00684              25.00   -16000.00
00685              -8.60   -16000.00
00686             -24.60   -16800.00
00687              25.00   -16800.00
00688               0.80   -17600.00
00689             -25.00   -17600.00
00690              17.20   -18400.00
00691              11.00   -19200.00
00692             -25.00   -19200.00
00693              25.00   -20000.00
00694               2.00   -20800.00
00695             -16.60   -22400.00
00696              17.80   -22400.00
00697              -9.00   -22400.00
00698              -6.60   -22400.00
00699              10.60   -23200.00
00700              -3.40   -24000.00
00701              -5.20   -24000.00
00702              13.80   -24000.00
00703              -9.80   -24800.00
00704              -1.40   -24800.00
00705               9.60   -25600.00
00706             -11.00   -26400.00
00707               3.80   -26400.00
00708               4.60   -26400.00
00709              -4.60   -27200.00
00710               1.40   -27200.00
00711               3.40   -27200.00
00712              -3.40   -28800.00
00713               1.20   -28800.00
00714               3.00   -28800.00
00715              -3.40   -29600.00
00716               2.20   -29600.00
00717               1.40   -29600.00
00718              -2.20   -29600.00
00719               3.00   -29600.00
00720               1.00   -30400.00
00721              -1.40   -30400.00
00722               2.80   -30400.00
00723              -0.40   -31200.00
00724              -0.60   -32000.00
00725               2.80   -32000.00
00726               0.40   -32000.00
00727               2.20   -32000.00
00728               3.40   -32000.00
00729               1.80   -32000.00
00730               1.80   -32000.00
00731               2.80   -32800.00
00732               2.00   -32000.00
00733               2.20   -32800.00
00734               3.60   -32800.00
00735               3.00   -32800.00
00736               5.20   -32800.00
00737               5.80   -32800.00
00738               6.00   -32800.00
00739               9.00   -32800.00
00740               6.80   -32800.00
00741               8.00   -32800.00
00742              10.40   -32800.00
00743               8.40   -32800.00
00744              11.00   -32800.00
00745              13.20   -32800.00
00746              13.20   -32800.00
00747              15.60   -32800.00
00748              15.40   -32000.00
00749              17.20   -32000.00
00750              21.00   -32000.00
00751              22.80   -32000.00
00752              14.80   -32000.00
00753               5.00   -32000.00
00754              10.00   -32000.00
00755              11.60   -32000.00
00756               7.00   -30400.00
00757               6.60   -31200.00
00758               9.20   -30400.00
00759               7.60   -30400.00
00760               3.00   -30400.00
00761               4.40   -30400.00
00762               5.40   -30400.00
00763               1.00   -29600.00
00764               1.80   -28800.00
00765               4.60   -28800.00
00766               1.80   -28800.00
00767               1.20   -28800.00
00768               3.80   -28000.00
00769               1.20   -28000.00
00770              -0.60   -27200.00
00771               1.20   -27200.00
00772               0.40   -26400.00
00773              -0.60   -26400.00
00774               1.00   -26400.00
00775               1.00   -25600.00
00776               0.40   -25600.00
00777               1.20   -24800.00
00778               0.40   -24000.00
00779               0.20   -24800.00
00780              -0.40   -24000.00
00781              -0.60   -23200.00
00782              -0.60   -23200.00
00783              -0.80   -22400.00
00784              -0.60   -22400.00
00785               0.40   -21600.00
00786               0.40   -20800.00
00787               0.40   -20800.00
00788              -0.20   -20000.00
00789              -0.20   -19200.00
00790              -1.00   -18400.00
00791              -0.40   -18400.00
00792              -0.60   -17600.00
00793              -1.20   -17600.00
00794              -0.40   -16800.00
00795              -0.20   -16800.00
00796              -0.40   -16000.00
00797              -0.20   -15200.00
00798              -0.40   -14400.00
00799              -0.60   -14400.00
00800              -0.60   -13600.00
00801              -1.00   -13600.00
00802              -1.20   -12800.00
00803              -0.60   -11200.00
00804               0.00   -11200.00
00805              -0.40   -11200.00
00806              -0.40   -10400.00
00807               0.00    -9600.00
00808              -0.60    -8800.00
00809              -0.60    -8000.00
00810              -0.60    -7200.00
00811              -1.00    -7200.00
00812              -0.60    -7200.00
00813              -1.00    -6400.00
00814              -0.60    -5600.00
00815              -0.20    -4000.00
00816              -0.40    -4800.00
00817              -0.40    -4000.00
00818              -0.20    -3200.00
00819              -0.60    -1600.00
00820              -1.00    -1600.00
00821              -0.60     -800.00
00822              -0.60     -800.00
00823              -0.20        0.00
00824               0.40      800.00
00825               0.60     1600.00
00826               3.60     2400.00
00827              -0.20     1600.00
00828              -1.80     2400.00
00829               0.60     2400.00
00830               0.20     3200.00
00831              -1.40     4800.00
00832              10.40     5600.00
00833              25.00     6400.00
00834             -24.40     7200.00
00835             -25.00     8000.00
00836              23.00     8000.00
00837               7.60     8800.00
00838             -25.00     8800.00
00839              25.00     9600.00
00840              13.20    10400.00
00841             -25.00    11200.00
00842              25.00    11200.00
00843             -25.00    12000.00
00844             -14.00    12800.00
00845              25.00    12800.00
00846             -25.00    13600.00
00847              25.00    15200.00
00848             -25.00    14400.00
00849             -25.00    15200.00
00850              25.00    15200.00
00851             -25.00    16000.00
00852               6.20    17600.00
00853              25.00    17600.00
00854             -23.00    18400.00
00855             -17.20    17600.00
00856              25.00    19200.00
00857             -12.40    19200.00
00858             -21.40    20800.00
00859              25.00    21600.00
00860             -25.00    21600.00
00861               4.20    21600.00
00862              11.80    22400.00
00863             -21.20    23200.00
00864               8.40    22400.00
00865               4.20    24000.00
00866              -9.20    24000.00
00867               5.00    24800.00
00868               8.60    24800.00
00869             -17.20    25600.00
00870              10.40    25600.00
00871              -1.20    26400.00
00872              -9.80    27200.00
00873               9.20    27200.00
00874              -3.60    27200.00
00875              -2.20    28000.00
00876               2.00    28000.00
00877              -0.60    28000.00
00878              -4.20    28800.00
00879               2.60    28800.00
00880              -1.00    28800.00
00881              -3.80    28800.00
00882               1.80    30400.00
00883              -2.00    29600.00
00884              -2.80    30400.00
00885               3.40    30400.00
00886              -2.80    31200.00
00887              -1.80    31200.00
00888               1.00    31200.00
00889              -5.00    31200.00
00890              -0.60    32000.00
00891              -1.80    32000.00
00892              -2.60    32800.00
00893               0.20    32000.00
00894              -2.00    32800.00
00895              -2.40    32800.00
00896              -3.40    33600.00
00897              -3.20    33600.00
00898              -2.80    32800.00
00899              -3.60    32800.00
00900              -3.00    33600.00
00901              -5.20    33600.00
00902              -3.40    33600.00
00903              -5.80    33600.00
00904              -6.40    33600.00
00905              -5.20    33600.00
00906              -9.80    32800.00
00907              -7.00    33600.00
00908              -8.80    33600.00
00909             -13.00    33600.00
00910             -10.60    33600.00
00911             -12.20    33600.00
00912             -13.00    33600.00
00913             -13.80    33600.00
00914             -15.00    33600.00
00915             -15.00    32800.00
00916             -18.00    32000.00
00917             -21.80    32800.00
00918             -25.00    32800.00
00919             -14.80    32800.00
00920              -5.40    32800.00
00921             -11.80    32000.00
00922             -11.00    32800.00
00923              -7.20    32000.00
00924              -7.60    32000.00
00925              -8.20    31200.00
00926              -7.00    31200.00
00927              -4.20    31200.00
00928              -5.80    31200.00
00929              -6.00    30400.00
00930              -1.80    30400.00
00931              -3.40    30400.00
00932              -5.00    30400.00
00933              -1.80    29600.00
00934              -2.00    28800.00
00935              -3.80    28000.00
00936              -1.80    28000.00
00937              -1.20    28000.00
00938              -3.00    28000.00
00939              -1.20    28000.00
00940              -0.40    27200.00
00941              -2.20    26400.00
00942              -1.00    26400.00
00943              -0.60    25600.00
00944              -1.40    25600.00
00945              -0.40    24800.00
00946              -1.20    24000.00
00947              -1.00    24000.00
00948              -0.40    24000.00
00949              -0.80    23200.00
00950              -0.40    22400.00
00951              -0.40    22400.00
00952              -0.60    22400.00
00953              -0.40    21600.00
00954              -0.40    20800.00
00955              -1.00    20000.00
00956              -1.00    20000.00
00957               0.20    19200.00
00958              -0.40    19200.00
00959              -0.60    18400.00
00960              -0.20    17600.00
00961              -0.40    16800.00
00962              -0.20    16000.00
00963              -0.20    16000.00
00964              -0.60    15200.00
00965              -0.40    15200.00
00966              -0.60    15200.00
00967              -0.40    14400.00
00968              -0.60    12800.00
00969              -0.40    12800.00
00970              -0.40    12000.00
00971              -0.40    12000.00
00972              -0.40    11200.00
00973              -0.60    11200.00
00974              -0.40     9600.00
00975               0.40     9600.00
00976              -1.00     8800.00
00977              -0.20     8000.00
00978              -0.20     7200.00
00979              -0.60     7200.00
00980              -0.20     6400.00
00981              -0.40     5600.00
00982              -1.00     4800.00
00983               0.20     4800.00
00984              -0.60     4000.00
00985              -0.40     3200.00
00986              -0.20     2400.00
00987              -0.60     1600.00
00988              -0.40     1600.00
00989              -0.20      800.00
00990              -0.40        0.00
00991               0.20        0.00
00992               1.20     -800.00
00993               3.40    -1600.00
00994              -2.00    -1600.00
00995               0.20    -2400.00
00996               1.20    -3200.00
00997               0.20    -3200.00
00998              -0.40    -4000.00
00999               7.00    -4000.00
01000              25.00    -6400.00
01001               1.40    -7200.00
01002             -25.00    -8000.00
01003               1.60    -8000.00
01004              25.00    -8000.00
01005             -25.00    -8000.00
01006             -19.20    -9600.00
01007              25.00   -10400.00
01008             -25.00   -10400.00
01009             -25.00   -10400.00
01010              25.00   -12000.00
01011             -25.00   -12000.00
01012              -8.80   -12800.00
01013              25.00   -13600.00
01014             -25.00   -13600.00
01015              25.00   -14400.00
01016             -25.00   -14400.00
01017               5.80   -16000.00
01018              25.00   -16000.00
01019             -25.00   -16000.00
01020               6.80   -16800.00
01021              25.00   -16800.00
01022             -22.80   -17600.00
01023             -11.40   -18400.00
01024              25.00   -19200.00
01025             -23.80   -19200.00
01026              -5.00   -20000.00
01027              25.00   -20800.00
01028             -21.20   -20800.00
01029               4.20   -22400.00
01030               9.00   -22400.00
01031             -14.80   -23200.00
01032               4.20   -23200.00
01033               7.60   -23200.00
01034              -9.80   -24000.00
01035               7.40   -24000.00
01036               4.60   -25600.00
01037             -12.60   -25600.00
01038              10.00   -25600.00
01039              -2.20   -26400.00
01040              -6.20   -27200.00
01041               8.80   -26400.00
01042              -2.20   -27200.00
01043              -3.80   -27200.00
01044               4.40   -28000.00
01045              -0.40   -28000.00
01046              -3.20   -28800.00
01047               4.60   -28800.00
01048              -1.00   -29600.00
01049              -3.00   -29600.00
01050               4.40   -29600.00
01051              -1.80   -29600.00
01052              -1.00   -30400.00
01053               5.20   -29600.00
01054              -1.40   -30400.00
01055               0.20   -30400.00
01056               3.20   -31200.00
01057              -1.80   -31200.00
01058               1.20   -32000.00
01059               2.00   -32000.00
01060               0.60   -32000.00
01061               2.60   -32000.00
01062               1.40   -32000.00
01063               1.20   -32000.00
01064               2.60   -32800.00
01065               2.60   -32800.00
01066               2.60   -32000.00
01067               4.20   -32800.00
01068               4.20   -32800.00
01069               3.80   -32800.00
01070               6.40   -32800.00
01071               4.60   -32800.00
01072               6.00   -32000.00
01073               8.60   -32800.00
01074               7.00   -32800.00
01075               9.20   -32800.00
01076              10.80   -32800.00
01077              10.40   -32800.00
01078              12.20   -32800.00
01079              13.20   -32800.00
01080              13.80   -32000.00
01081              14.20   -32000.00
01082              15.40   -32000.00
01083              18.60   -32800.00
01084              22.80   -32000.00
01085              22.00   -32000.00
01086               8.40   -32000.00
01087               6.80   -32000.00
01088              13.20   -32000.00
01089               8.40   -32000.00
01090               4.60   -30400.00
01091               7.60   -31200.00
01092               8.20   -30400.00
01093               4.20   -30400.00
01094               3.40   -30400.00
01095               6.60   -30400.00
01096               2.80   -29600.00
01097               1.00   -29600.00
01098               4.20   -28800.00
01099               3.00   -29600.00
01100              -0.20   -28800.00
01101               2.20   -28000.00
01102               2.40   -27200.00
01103               0.40   -27200.00
01104               1.00   -27200.00
01105               2.00   -26400.00
01106              -0.20   -26400.00
01107               0.40   -26400.00
01108               0.60   -25600.00
01109              -0.40   -25600.00
01110               0.40   -24800.00
01111               0.60   -24800.00
01112              -0.20   -24000.00
01113              -0.40   -24000.00
01114              -0.20   -23200.00
01115               0.00   -23200.00
01116              -0.20   -23200.00
01117               0.20   -22400.00
01118              -0.40   -21600.00
01119              -0.60   -20800.00
01120              -0.20   -20800.00
01121              -0.60   -20000.00
01122              -0.40   -20000.00
01123              -0.60   -18400.00
01124              -0.60   -18400.00
01125              -0.20   -18400.00
01126              -1.00   -17600.00
01127              -1.00   -17600.00
01128               0.20   -16800.00
01129              -0.40   -16000.00
01130              -0.60   -15200.00
01131              -0.20   -15200.00
01132              -0.60   -14400.00
01133              -0.40   -13600.00
01134              -0.40   -13600.00
01135              -0.40   -12800.00
01136              -0.40   -12800.00
01137              -0.60   -11200.00
01138              -0.40   -11200.00
01139              -0.80   -10400.00
01140              -1.00    -9600.00
01141              -0.40    -9600.00
01142              -0.60    -9600.00
01143              -0.80    -8000.00
01144               0.00    -7200.00
01145               0.20    -7200.00
01146              -0.60    -6400.00
01147              -0.40    -6400.00
01148               0.00    -4800.00
01149              -0.60    -4000.00
01150              -0.60    -4000.00
01151              -0.40    -3200.00
01152              -0.60    -2400.00
01153              -0.60    -1600.00
01154              -0.40    -1600.00
01155              -0.40     -800.00
01156              -0.40        0.00
01157              -0.20      800.00
01158               0.40     1600.00
01159               2.00     1600.00
01160               2.60     2400.00
01161              -2.20     2400.00
01162               0.40     3200.00
01163               1.20     3200.00
01164              -0.60     4000.00
01165               3.40     5600.00
01166              23.80     5600.00
01167              18.20     7200.00
01168             -25.00     8000.00
01169              -9.00     8000.00
01170              25.00     8000.00
01171             -25.00     8800.00
01172              -2.20     9600.00
01173              25.00    10400.00
01174             -25.00     9600.00
01175              25.00    12000.00
01176              25.00    12000.00
01177             -25.00    12000.00
01178              25.00    12800.00
01179             -25.00    12800.00
01180               2.00    14400.00
01181              25.00    14400.00
01182             -25.00    14400.00
01183              25.00    16000.00
01184               8.40    16000.00
01185             -25.00    16000.00
01186              25.00    16800.00
01187               3.00    18400.00
01188             -25.00    17600.00
01189              10.00    19200.00
01190              22.80    19200.00
01191             -25.00    20000.00
01192              21.20    20800.00
01193              12.60    21600.00
01194             -25.00    21600.00
01195              25.00    22400.00
01196             -15.00    22400.00
01197              -7.20    22400.00
01198              10.60    24000.00
01199              -4.20    24000.00
01200              -5.20    24000.00
01201              15.40    24800.00
01202              -9.20    24800.00
01203              -7.00    25600.00
01204              12.20    25600.00
01205             -14.00    26400.00
01206               4.20    27200.00
01207               5.80    27200.00
01208              -5.00    27200.00
01209               0.60    28000.00
01210               1.20    28800.00
01211              -4.40    28800.00
01212              -0.60    28800.00
01213               3.80    28800.00
01214              -4.40    30400.00
01215              -0.40    29600.00
01216               1.20    30400.00
01217              -5.00    31200.00
01218               1.40    30400.00
01219               1.00    31200.00
01220              -4.20    31200.00
01221               2.00    31200.00
01222              -2.60    32000.00
01223              -3.80    32000.00
01224               0.60    32800.00
01225              -3.00    32000.00
01226              -0.40    32800.00
01227              -0.60    32800.00
01228              -2.80    33600.00
01229              -3.00    33600.00
01230              -3.40    32800.00
01231              -2.80    33600.00
01232              -3.80    33600.00
01233              -3.00    33600.00
01234              -4.20    33600.00
01235              -5.40    32800.00
01236              -3.40    33600.00
01237              -7.00    32800.00
01238              -6.20    33600.00
01239              -6.60    33600.00
01240              -9.00    33600.00
01241              -7.00    33600.00
01242             -11.60    33600.00
01243             -11.80    33600.00
01244             -11.00    33600.00
01245             -13.20    33600.00
01246             -13.00    32800.00
01247             -14.00    33600.00
01248             -15.60    32800.00
01249             -17.00    32000.00
01250             -19.20    32800.00
01251             -24.60    33600.00
01252             -22.00    32800.00
01253              -6.60    32800.00
01254              -8.40    32800.00
01255             -14.00    32000.00
01256              -8.40    32000.00
01257              -6.80    32000.00
01258              -8.60    31200.00
01259              -7.60    31200.00
01260              -5.00    31200.00
01261              -5.00    30400.00
01262              -6.80    30400.00
01263              -3.80    30400.00
01264              -2.20    30400.00
01265              -5.00    29600.00
01266              -3.40    30400.00
01267              -1.20    28800.00
01268              -2.80    28800.00
01269              -2.60    28800.00
01270              -0.80    28000.00
01271              -2.20    28000.00
01272              -2.20    27200.00
01273              -0.40    27200.00
01274              -1.80    27200.00
01275              -1.80    26400.00
01276               0.20    25600.00
01277              -0.80    25600.00
01278              -1.00    25600.00
01279              -0.60    24800.00
01280              -1.40    24800.00
01281              -0.40    24000.00
01282              -0.40    24000.00
01283              -0.60    23200.00
01284              -0.60    22400.00
01285              -0.60    22400.00
01286              -0.40    22400.00
01287              -0.60    20800.00
01288              -0.40    20800.00
01289              -0.60    20800.00
01290              -0.20    19200.00
01291              -0.20    19200.00
01292              -1.00    18400.00
01293              -0.60    18400.00
01294              -0.60    17600.00
01295              -0.40    17600.00
01296               0.20    16000.00
01297              -0.60    15200.00
01298              -0.40    15200.00
01299              -0.60    15200.00
01300              -0.40    14400.00
01301              -1.00    13600.00
01302              -0.60    12800.00
01303              -0.40    12800.00
01304              -0.40    12000.00
01305              -0.20    11200.00
01306              -0.40    11200.00
01307              -1.20    10400.00
01308              -0.20     9600.00
01309              -0.80     9600.00
01310              -1.00     8000.00
01311              -0.40     8000.00
01312              -0.80     8000.00
01313              -0.60     6400.00
01314              -0.20     5600.00
01315              -0.60     5600.00
01316              -0.20     5600.00
01317              -0.40     4800.00
01318              -0.40     3200.00
01319              -0.20     3200.00
01320              -0.60     2400.00
01321              -1.00     1600.00
01322              -0.20     1600.00
01323              -0.40        0.00
01324              -0.20        0.00
01325               0.40     -800.00
01326               3.00     -800.00
01327              -0.20    -1600.00
01328              -1.20    -1600.00
01329               1.00    -2400.00
01330               1.00    -3200.00
01331              -0.60    -4000.00
01332               2.80    -4000.00
01333              15.00    -4800.00
01334              25.00    -6400.00
01335             -25.00    -7200.00
01336             -25.00    -8000.00
01337              25.00    -8000.00
01338              -0.20    -8800.00
01339             -25.00    -8000.00
01340              25.00    -9600.00
01341              25.00   -10400.00
01342             -25.00    -9600.00
01343              25.00   -12000.00
01344              25.00   -11200.00
01345             -25.00   -12000.00
01346              25.00   -12800.00
01347             -16.20   -13600.00
01348               6.80   -14400.00
01349               9.00   -14400.00
01350             -25.00   -15200.00
01351              25.00   -16000.00
01352             -10.80   -16000.00
01353             -23.40   -16800.00
01354              25.00   -17600.00
01355              -0.60   -17600.00
01356             -25.00   -18400.00
01357              18.80   -19200.00
01358               9.40   -19200.00
01359             -25.00   -19200.00
01360              25.00   -20000.00
01361               0.40   -20800.00
01362             -15.60   -20800.00
01363              17.80   -22400.00
01364             -10.20   -22400.00
01365              -6.00   -23200.00
01366              10.60   -23200.00
01367              -4.40   -24000.00
01368              -4.40   -24000.00
01369              13.40   -24800.00
01370             -10.80   -24800.00
01371              -1.00   -25600.00
01372               9.20   -25600.00
01373             -11.40   -26400.00
01374               4.40   -26400.00
01375               4.60   -26400.00
01376              -5.40   -27200.00
01377               1.40   -28000.00
01378               3.60   -27200.00
01379              -4.40   -28800.00
01380               1.80   -28800.00
01381               3.00   -28800.00
01382              -4.20   -28800.00
01383               2.20   -29600.00
01384               1.40   -29600.00
01385              -2.80   -29600.00
01386               3.40   -30400.00
01387               1.40   -30400.00
01388              -2.20   -30400.00
01389               3.40   -31200.00
01390              -0.40   -31200.00
01391              -0.20   -31200.00
01392               2.80   -32000.00
01393               0.20   -32000.00
01394               2.20   -32000.00
01395               2.60   -32000.00
01396               1.00   -32000.00
01397               2.00   -32000.00
01398               3.00   -32800.00
01399               2.60   -32800.00
01400               2.80   -32800.00
01401               4.40   -32800.00
01402               3.60   -32800.00
01403               5.40   -32800.00
01404               5.80   -32800.00
01405               4.80   -32800.00
01406               8.20   -32800.00
01407               7.80   -32800.00
01408               8.40   -32800.00
01409              11.40   -32800.00
01410               9.80   -32800.00
01411              12.20   -32800.00
01412              13.40   -32800.00
01413              12.80   -32000.00
01414              14.00   -32800.00
01415              14.80   -32800.00
01416              16.40   -32800.00
01417              20.40   -32800.00
01418              24.40   -32000.00
01419              14.80   -32000.00
01420               5.20   -31200.00
01421              11.40   -32000.00
01422              11.60   -32000.00
01423               5.80   -31200.00
01424               6.60   -30400.00
01425               8.40   -30400.00
01426               6.00   -30400.00
01427               3.40   -30400.00
01428               5.00   -29600.00
01429               5.20   -29600.00
01430               2.00   -29600.00
01431               2.20   -28800.00
01432               4.00   -28800.00
01433               1.00   -28800.00
01434               0.20   -28800.00
01435               3.40   -28000.00
01436               1.20   -27200.00
01437              -0.60   -28000.00
01438               2.20   -27200.00
01439               0.40   -26400.00
01440              -0.60   -27200.00
01441               1.80   -25600.00
01442               0.80   -25600.00
01443              -1.00   -24800.00
01444               0.40   -24800.00
01445              -0.20   -24000.00
01446              -0.40   -24000.00
01447               0.20   -23200.00
01448              -0.20   -22400.00
01449              -0.40   -23200.00
01450              -0.60   -22400.00
01451              -0.40   -21600.00
01452               0.00   -20800.00
01453              -0.40   -20800.00
01454              -0.60   -20800.00
01455              -0.20   -20000.00
01456              -0.40   -19200.00
01457              -0.60   -18400.00
01458               0.20   -18400.00
01459              -0.60   -17600.00
01460              -1.00   -17600.00
01461               0.20   -17600.00
01462              -0.60   -16000.00
01463              -0.60   -16000.00
01464              -0.20   -16000.00
01465              -0.60   -14400.00
01466              -0.40   -14400.00
01467              -0.40   -13600.00
01468              -0.60   -13600.00
01469              -0.60   -12800.00
01470              -0.60   -12000.00
01471              -0.20   -11200.00
01472              -0.40   -10400.00
01473              -1.00   -10400.00
01474              -0.60    -9600.00
01475              -0.60    -9600.00
01476              -0.60    -8800.00
01477              -0.40    -7200.00
01478              -0.40    -7200.00
01479              -0.40    -6400.00
01480              -0.60    -6400.00
01481              -0.40    -5600.00
01482              -0.20    -4800.00
01483              -0.60    -4000.00
01484              -0.60    -3200.00
01485              -0.20    -3200.00
01486              -0.60    -3200.00
01487              -0.60    -1600.00
01488              -0.40     -800.00
01489              -0.60     -800.00
01490              -0.20        0.00
01491               0.40        0.00
01492               0.40     1600.00
01493               3.40     1600.00
01494              -0.60     2400.00
01495              -1.60     2400.00
01496               0.60     3200.00
01497               0.40     3200.00
01498              -1.20     4800.00
01499              10.80     5600.00
01500              25.00     7200.00
01501             -25.00     8000.00
01502             -25.00     8000.00
01503              23.60     8000.00
01504               5.40     8000.00
01505             -25.00     8800.00
01506              25.00     9600.00
01507               8.80     9600.00
01508             -25.00    11200.00
01509              25.00    12000.00
01510             -25.00    12000.00
01511              -9.80    12800.00
01512              25.00    12800.00
01513             -25.00    12800.00
01514              25.00    14400.00
01515             -25.00    14400.00
01516             -24.20    15200.00
01517              25.00    16000.00
01518             -25.00    16000.00
01519               9.00    17600.00
01520              25.00    17600.00
01521             -24.20    18400.00
01522             -16.60    18400.00
01523              25.00    19200.00
01524             -14.60    20000.00
01525             -19.40    20800.00
01526              25.00    21600.00
01527             -25.00    21600.00
01528               6.80    22400.00
01529              10.60    22400.00
01530             -21.20    23200.00
01531               9.40    22400.00
01532               4.20    24000.00
01533             -10.00    24000.00
01534               6.40    24800.00
01535               8.40    24800.00
01536             -17.40    24800.00
01537              11.60    25600.00
01538              -2.00    25600.00
01539              -9.60    25600.00
01540               9.80    27200.00
01541              -3.80    27200.00
01542              -2.80    28000.00
01543               2.60    28000.00
01544              -0.40    28000.00
01545              -4.40    28800.00
01546               3.40    28800.00
01547              -0.60    28800.00
01548              -4.40    29600.00
01549               2.60    30400.00
01550              -2.20    29600.00
01551              -3.20    31200.00
01552               3.60    31200.00
01553              -3.40    31200.00
01554              -1.80    31200.00
01555               1.40    31200.00
01556              -4.60    32000.00
01557              -0.60    31200.00
01558              -1.20    32000.00
01559              -3.00    32000.00
01560              -0.20    32800.00
01561              -2.00    32000.00
01562              -3.00    33600.00
01563              -3.00    32000.00
01564              -2.80    32800.00
01565              -3.40    33600.00
01566              -3.60    33600.00
01567              -3.20    33600.00
01568              -5.60    33600.00
01569              -4.00    33600.00
01570              -5.40    33600.00
01571              -7.40    33600.00
01572              -5.40    33600.00
01573              -9.20    33600.00
01574              -7.60    33600.00
01575              -8.40    33600.00
01576             -12.60    33600.00
01577             -10.80    33600.00
01578             -12.40    33600.00
01579             -13.20    33600.00
01580             -13.80    33600.00
01581             -15.00    32800.00
01582             -15.60    33600.00
01583             -17.80    33600.00
01584             -21.80    32800.00
01585             -25.00    32000.00
01586             -14.20    32000.00
01587              -5.40    32800.00
01588             -12.60    32000.00
01589             -11.20    32000.00
01590              -6.80    32000.00
01591              -7.40    32000.00
01592              -7.80    31200.00
01593              -6.60    31200.00
01594              -4.20    31200.00
01595              -5.40    31200.00
01596              -6.00    30400.00
01597              -2.00    30400.00
01598              -3.00    30400.00
01599              -5.00    29600.00
01600              -2.00    28800.00
01601              -1.80    28800.00
01602              -3.40    28800.00
01603              -1.80    28000.00
01604              -1.20    28000.00
01605              -2.60    28000.00
01606              -1.20    27200.00
01607              -0.40    27200.00
01608              -2.00    26400.00
01609              -1.00    25600.00
01610              -0.20    25600.00
01611              -0.80    25600.00
01612              -0.60    24800.00
01613              -1.20    24000.00
01614              -0.60    24000.00
01615              -0.60    24000.00
01616              -0.80    24000.00
01617              -0.40    23200.00
01618              -0.80    22400.00
01619              -0.60    21600.00
01620              -0.60    21600.00
01621              -0.60    20800.00
01622              -0.40    20800.00
01623              -1.00    19200.00
01624               0.40    19200.00
01625              -0.40    19200.00
01626              -0.60    18400.00
01627              -0.20    17600.00
01628              -1.00    16000.00
01629              -0.40    16800.00
01630              -0.60    16000.00
01631              -1.00    15200.00
01632              -0.60    15200.00
01633              -0.60    15200.00
01634              -0.60    14400.00
01635              -0.60    13600.00
01636              -0.80    12800.00
01637               0.00    12000.00
01638              -0.20    12000.00
01639              -0.20    11200.00
01640              -1.20    10400.00
01641              -0.40     9600.00
01642              -0.40     9600.00
01643              -1.00     8800.00
01644               0.20     8000.00
01645              -0.20     8000.00
01646              -1.40     7200.00
01647              -0.40     6400.00
01648              -0.40     5600.00
01649              -1.00     4800.00
01650              -0.60     4800.00
01651              -0.60     3200.00
01652              -0.40     3200.00
01653              -0.40     2400.00
01654              -1.00     1600.00
01655              -0.20     2400.00
01656              -0.40        0.00
01657              -0.20        0.00
01658               0.60     -800.00
01659               1.00     -800.00
01660               3.00    -1600.00
01661              -1.00    -2400.00
01662              -0.60    -1600.00
01663               1.40    -3200.00
01664               1.20    -4000.00
01665              -1.20    -3200.00
01666               7.60    -4800.00
01667              25.00    -6400.00
01668              -2.00    -7200.00
01669             -25.00    -8000.00
01670               4.20    -8000.00
01671              24.20    -8000.00
01672             -25.00    -8800.00
01673             -16.40    -8000.00
01674              25.00    -9600.00
01675             -25.00   -10400.00
01676             -25.00   -10400.00
01677              25.00   -12000.00
01678             -25.00   -11200.00
01679              -6.60   -13600.00
01680              25.00   -13600.00
01681             -24.00   -12800.00
01682              25.00   -14400.00
01683             -25.00   -14400.00
01684               8.60   -15200.00
01685              25.00   -16000.00
01686             -25.00   -16000.00
01687              10.20   -16800.00
01688              23.80   -17600.00
01689             -24.40   -18400.00
01690              -7.60   -18400.00
01691              25.00   -19200.00
01692             -25.00   -20000.00
01693              -1.60   -20000.00
01694              25.00   -20000.00
01695             -22.60   -21600.00
01696               7.00   -22400.00
01697               6.80   -22400.00
01698             -15.40   -22400.00
01699               5.80   -22400.00
01700               6.20   -23200.00
01701             -10.60   -24000.00
01702               8.40   -24000.00
01703               3.40   -24800.00
01704             -13.00   -25600.00
01705              10.80   -25600.00
01706              -2.20   -25600.00
01707              -6.00   -26400.00
01708               8.60   -26400.00
01709              -3.00   -27200.00
01710              -3.60   -27200.00
01711               4.40   -27200.00
01712              -1.20   -28000.00
01713              -2.20   -28800.00
01714               5.00   -28800.00
01715              -1.80   -28800.00
01716              -1.80   -28800.00
01717               3.80   -29600.00
01718              -2.20   -29600.00
01719               0.40   -29600.00
01720               4.20   -30400.00
01721              -2.00   -30400.00
01722               1.40   -30400.00
01723               2.40   -31200.00
01724              -1.40   -32000.00
01725               2.00   -30400.00
01726               1.20   -32000.00
01727               1.40   -32000.00
01728               3.00   -32000.00
01729               1.00   -32000.00
01730               2.00   -32800.00
01731               2.80   -32000.00
01732               2.60   -32000.00
01733               3.40   -32800.00
01734               3.80   -32800.00
01735               4.20   -32800.00
01736               4.60   -32800.00
01737               6.00   -32800.00
01738               4.40   -32800.00
01739               6.60   -32800.00
01740               8.40   -32800.00
01741               7.00   -32800.00
01742              10.40   -32000.00
01743              10.60   -32800.00
01744              10.80   -32800.00
01745              13.00   -32800.00
01746              12.40   -32000.00
01747              13.80   -32000.00
01748              14.20   -32800.00
01749              15.60   -32800.00
01750              18.60   -32000.00
01751              23.00   -32000.00
01752              21.80   -32000.00
01753               8.20   -32000.00
01754               7.40   -32000.00
01755              12.60   -31200.00
01756               8.20   -31200.00
01757               5.20   -30400.00
01758               7.40   -30400.00
01759               7.60   -30400.00
01760               4.60   -30400.00
01761               3.60   -30400.00
01762               6.00   -29600.00
01763               3.00   -28800.00
01764               1.00   -29600.00
01765               3.80   -28800.00
01766               3.00   -29600.00
01767              -0.20   -28800.00
01768               2.20   -28800.00
01769               2.20   -28000.00
01770              -0.40   -27200.00
01771               0.60   -27200.00
01772               1.80   -27200.00
01773              -0.20   -26400.00
01774               0.40   -26400.00
01775               0.40   -25600.00
01776              -0.60   -25600.00
01777               0.40   -25600.00
01778               0.40   -24800.00
01779              -0.40   -24800.00
01780               0.00   -24000.00
01781              -0.20   -23200.00
01782              -0.40   -22400.00
01783              -0.20   -22400.00
01784              -0.60   -22400.00
01785              -0.40   -21600.00
01786               0.40   -20800.00
01787              -0.40   -20800.00
01788              -0.60   -20000.00
01789              -0.40   -19200.00
01790              -0.40   -18400.00
01791              -0.20   -19200.00
01792               0.20   -17600.00
01793              -1.00   -17600.00
01794               0.00   -16800.00
01795               0.20   -16000.00
01796              -0.80   -16000.00
01797               0.40   -15200.00
01798              -0.40   -14400.00
01799              -1.00   -14400.00
01800               0.20   -13600.00
01801              -0.60   -13600.00
01802              -1.00   -12800.00
01803              -0.40   -12800.00
01804              -0.40   -11200.00
01805              -0.40   -10400.00
01806              -0.40   -10400.00
01807              -0.40    -9600.00
01808              -0.60    -9600.00
01809              -0.40    -8800.00
01810              -0.40    -8000.00
01811              -0.40    -7200.00
01812              -0.20    -7200.00
01813              -0.20    -6400.00
01814              -0.60    -4800.00
01815              -0.40    -4800.00
01816              -0.60    -4800.00
01817              -0.60    -3200.00
01818              -0.40    -3200.00
01819              -0.60    -2400.00
01820              -0.60    -1600.00
01821              -0.60    -1600.00
01822              -0.60     -800.00
01823              -0.40        0.00
01824              -0.20      800.00
01825               0.20      800.00
01826               1.60     1600.00
01827               2.60     1600.00
01828              -2.80     2400.00
01829              -0.40     3200.00
01830               1.00     3200.00
01831              -1.00     4000.00
01832               3.00     4800.00
01833              24.60     6400.00
01834              16.40     7200.00
01835             -25.00     8000.00
01836              -6.40     8000.00
01837              25.00     8800.00
01838             -25.00     8000.00
01839               1.00     8800.00
01840              25.00    10400.00
01841             -25.00    10400.00
01842              25.00    12000.00
01843              25.00    12000.00
01844             -25.00    12000.00
01845              25.00    12800.00
01846             -25.00    13600.00
01847               6.40    14400.00
01848              25.00    14400.00
01849             -25.00    15200.00
01850              25.00    16000.00
01851               4.60    16000.00
01852             -25.00    17600.00
01853              25.00    16800.00
01854               1.40    17600.00
01855             -25.00    18400.00
01856              11.00    18400.00
01857              22.00    19200.00
01858             -25.00    20000.00
01859              23.00    20800.00
01860              10.60    21600.00
01861             -23.40    21600.00
01862              25.00    22400.00
01863             -15.60    22400.00
01864              -5.80    23200.00
01865              10.40    23200.00
01866              -5.00    24000.00
01867              -5.00    24800.00
01868              15.40    24800.00
01869             -10.00    24800.00
01870              -5.40    25600.00
01871              12.40    25600.00
01872             -14.20    27200.00
01873               4.60    26400.00
01874               4.60    27200.00
01875              -6.00    28000.00
01876               1.20    28000.00
01877               2.20    28000.00
01878              -4.40    28800.00
01879              -1.20    28800.00
01880               3.40    28800.00
01881              -4.40    29600.00
01882              -0.60    29600.00
01883               1.00    30400.00
01884              -4.40    30400.00
01885               1.40    31200.00
01886               0.20    31200.00
01887              -4.00    31200.00
01888               1.80    32000.00
01889              -3.00    32000.00
01890              -2.80    31200.00
01891               0.40    32000.00
01892              -3.80    32000.00
01893              -1.40    32800.00
01894              -0.20    32800.00
01895              -3.80    33600.00
01896              -3.60    33600.00
01897              -1.40    33600.00
01898              -3.00    32800.00
01899              -4.60    33600.00
01900              -2.20    33600.00
01901              -4.60    32800.00
01902              -5.80    33600.00
01903              -3.00    33600.00
01904              -7.40    33600.00
01905              -6.20    33600.00
01906              -6.60    33600.00
01907              -9.00    33600.00
01908              -7.00    33600.00
01909             -11.60    33600.00
01910             -11.60    33600.00
01911             -11.00    33600.00
01912             -14.00    33600.00
01913             -13.40    33600.00
01914             -14.00    33600.00
01915             -15.00    32800.00
01916             -16.40    33600.00
01917             -19.00    32800.00
01918             -23.80    33600.00
01919             -21.40    32800.00
01920              -6.80    32000.00
01921              -8.80    32800.00
01922             -13.40    32000.00
01923              -8.20    32000.00
01924              -6.80    32000.00
01925              -7.60    31200.00
01926              -7.00    31200.00
01927              -5.20    31200.00
01928              -4.40    31200.00
01929              -6.80    30400.00
01930              -3.80    30400.00
01931              -2.00    30400.00
01932              -4.60    30400.00
01933              -3.00    29600.00
01934              -1.00    29600.00
01935              -2.80    28800.00
01936              -2.80    28800.00
01937              -1.00    28800.00
01938              -1.60    28000.00
01939              -2.20    27200.00
01940              -0.40    27200.00
01941              -1.00    27200.00
01942              -2.00    26400.00
01943              -0.20    25600.00
01944              -0.40    25600.00
01945              -0.60    25600.00
01946              -0.60    24000.00
01947              -1.40    24800.00
01948              -0.60    24000.00
01949              -0.40    24000.00
01950              -1.40    23200.00
01951              -0.20    22400.00
01952              -0.40    22400.00
01953              -0.40    21600.00
01954              -0.20    21600.00
01955              -1.20    20800.00
01956              -1.00    20000.00
01957              -0.20    20000.00
01958              -1.20    19200.00
01959              -0.60    18400.00
01960              -0.20    17600.00
01961              -0.60    17600.00
01962               0.20    17600.00
01963               0.20    16000.00
01964              -1.60    15200.00
01965               0.20    15200.00
01966              -0.60    15200.00
01967              -1.20    14400.00
01968               0.20    14400.00
01969              -1.00    13600.00
01970              -0.60    12800.00
01971               0.20    12000.00
01972              -0.60    11200.00
01973              -0.20    10400.00
01974              -0.60    10400.00
01975              -0.60     9600.00
01976              -0.60     9600.00
01977              -0.60     8000.00
01978              -0.40     8000.00
01979              -0.40     7200.00
01980               0.00     7200.00
01981              -0.40     5600.00
01982              -0.20     4800.00
01983              -0.20     5600.00
01984              -1.40     4000.00
01985               0.20     3200.00
01986              -0.20     3200.00
01987              -1.20     1600.00
01988              -0.40     1600.00
01989               0.20     1600.00
01990              -0.60        0.00
01991               0.40        0.00
01992               0.40     -800.00
01993               3.40     -800.00
01994               0.60    -1600.00
01995              -1.20    -1600.00
01996               1.00    -3200.00
01997               1.20    -3200.00
01998              -0.60    -4000.00
01999               3.40    -4000.00
02000              15.40    -4800.00
02001              25.00    -6400.00
02002             -25.00    -7200.00
02003             -25.00    -8000.00
02004              25.00    -8000.00
02005              -1.80    -8800.00
02006             -25.00    -8000.00
02007              25.00    -9600.00
02008              25.00   -10400.00
02009             -25.00   -10400.00
02010              25.00   -11200.00
02011              25.00   -11200.00
02012             -25.00   -12000.00
02013              25.00   -12800.00
02014             -17.00   -13600.00
02015               8.40   -13600.00
02016               6.60   -14400.00
02017             -25.00   -15200.00
02018              25.00   -15200.00
02019             -12.60   -16000.00
02020             -23.00   -16800.00
02021              25.00   -17600.00
02022              -1.20   -17600.00
02023             -25.00   -18400.00
02024              19.60   -19200.00
02025               9.00   -20000.00
02026             -25.00   -20000.00
02027              25.00   -20800.00
02028              -0.40   -20800.00
02029             -15.40   -21600.00
02030              16.60   -22400.00
02031             -10.00   -22400.00
02032              -5.40   -22400.00
02033              10.00   -23200.00
02034              -4.40   -24000.00
02035              -3.80   -24000.00
02036              13.00   -24000.00
02037             -11.00   -24800.00
02038              -0.40   -25600.00
02039               9.00   -25600.00
02040             -11.60   -26400.00
02041               4.40   -27200.00
02042               4.20   -27200.00
02043              -5.00   -27200.00
02044               1.40   -27200.00
02045               3.00   -28000.00
02046              -4.20   -28800.00
02047               1.40   -28800.00
02048               2.60   -28800.00
02049              -3.40   -28800.00
02050               2.80   -29600.00
02051               0.60   -29600.00
02052              -2.00   -29600.00
02053               3.60   -29600.00
02054               0.40   -30400.00
02055              -1.40   -30400.00
02056               3.60   -31200.00
02057              -0.60   -32000.00
02058               0.20   -31200.00
02059               2.60   -31200.00
02060               0.40   -32000.00
02061               3.00   -32000.00
02062               2.60   -32000.00
02063               1.20   -32000.00
02064               2.20   -32000.00
02065               2.60   -32800.00
02066               2.20   -32800.00
02067               3.40   -32800.00
02068               4.60   -32800.00
02069               3.40   -32800.00
02070               5.20   -32800.00
02071               6.40   -32800.00
02072               4.60   -32800.00
02073               8.20   -33600.00
02074               8.40   -32800.00
02075               7.80   -32800.00
02076              11.40   -32800.00
02077              10.80   -32800.00
02078              11.40   -32000.00
02079              12.80   -32800.00
02080              13.20   -32000.00
02081              13.20   -32800.00
02082              14.60   -32000.00
02083              17.00   -32800.00
02084              20.20   -32800.00
02085              24.60   -32000.00
02086              15.00   -32000.00
02087               4.60   -32000.00
02088              11.60   -32000.00
02089              11.40   -32000.00
02090               5.20   -31200.00
02091               6.60   -31200.00
02092               8.20   -31200.00
02093               5.80   -29600.00
02094               2.80   -30400.00
02095               4.60   -30400.00
02096               5.20   -29600.00
02097               1.80   -29600.00
02098               2.20   -29600.00
02099               4.00   -28800.00
02100               1.00   -28800.00
02101               0.60   -28800.00
02102               3.40   -28000.00
02103               1.00   -28000.00
02104              -0.20   -27200.00
02105               2.00   -27200.00
02106               0.20   -26400.00
02107              -0.40   -25600.00
02108               1.20   -26400.00
02109               0.20   -26400.00
02110               0.20   -25600.00
02111               0.60   -24800.00
02112              -0.40   -24000.00
02113               0.20   -24000.00
02114              -0.40   -24000.00
02115              -0.40   -23200.00
02116               0.20   -23200.00
02117              -0.40   -22400.00
02118              -0.20   -22400.00
02119               0.20   -20800.00
02120              -0.40   -20800.00
02121              -0.40   -20800.00
02122               0.00   -20000.00
02123              -0.60   -18400.00
02124              -0.40   -19200.00
02125               0.20   -17600.00
02126              -0.40   -17600.00
02127              -0.80   -17600.00
02128               0.20   -16800.00
02129              -0.60   -16800.00
02130              -0.20   -16000.00
02131              -0.20   -14400.00
02132              -0.60   -15200.00
02133              -0.40   -14400.00
02134              -0.40   -13600.00
02135              -0.60   -12800.00
02136               0.20   -12800.00
02137              -1.00   -12000.00
02138              -0.60   -11200.00
02139               0.20   -10400.00
02140              -0.60   -10400.00
02141              -0.20    -9600.00
02142              -0.60    -8800.00
02143              -0.60    -8000.00
02144               0.00    -8000.00
02145              -0.40    -7200.00
02146              -0.20    -6400.00
02147              -0.20    -6400.00
02148              -1.00    -4800.00
02149              -0.60    -4800.00
02150              -0.40    -4000.00
02151              -0.60    -3200.00
02152              -0.20    -2400.00
02153              -0.20    -2400.00
02154              -1.00    -1600.00
02155              -0.60    -1600.00
02156              -0.40     -800.00
02157              -0.60        0.00
02158              -0.20        0.00
02159               0.20      800.00
02160               3.40     1600.00
02161              -0.60     2400.00
02162              -2.00     2400.00
02163               0.60     3200.00
02164               0.60     4800.00
02165              -1.20     4800.00
02166              11.60     5600.00
02167              25.00     7200.00
02168             -25.00     8000.00
02169             -25.00     8000.00
02170              24.60     8800.00
02171               3.60     8800.00
02172             -25.00     8800.00
02173              25.00     9600.00
02174               5.00    10400.00
02175             -25.00    11200.00
02176              25.00    11200.00
02177             -25.00    11200.00
02178              -6.00    12800.00
02179              25.00    12800.00
02180             -25.00    13600.00
02181              25.00    14400.00
02182             -25.00    14400.00
02183             -20.40    15200.00
02184              25.00    15200.00
02185             -25.00    16000.00
02186              11.00    16800.00
02187              25.00    17600.00
02188             -24.60    17600.00
02189             -16.40    18400.00
02190              25.00    19200.00
02191             -16.60    20000.00
02192             -18.00    20800.00
02193              25.00    20800.00
02194             -25.00    21600.00
02195               7.00    21600.00
02196              10.20    21600.00
02197             -20.40    23200.00
02198               8.40    23200.00
02199               4.60    24000.00
02200              -9.00    24800.00
02201               5.80    25600.00
02202               6.80    25600.00
02203             -16.60    24800.00
02204              11.60    25600.00
02205              -3.00    26400.00
02206              -7.60    27200.00
02207              10.00    27200.00
02208              -5.40    27200.00
02209              -2.00    27200.00
02210               3.40    28000.00
02211              -2.20    28800.00
02212              -3.60    28800.00
02213               5.00    28800.00
02214              -2.20    29600.00
02215              -4.40    28800.00
02216               3.20    30400.00
02217              -3.60    30400.00
02218              -3.40    30400.00
02219               4.40    31200.00
02220              -3.60    30400.00
02221              -1.40    31200.00
02222               1.80    32000.00
02223              -5.20    32000.00
02224              -0.60    32000.00
02225              -1.40    32800.00
02226              -2.80    32000.00
02227              -0.60    32800.00
02228              -2.20    32800.00
02229              -3.00    32800.00
02230              -2.80    32800.00
02231              -2.80    32800.00
02232              -3.00    32800.00
02233              -3.80    33600.00
02234              -3.40    33600.00
02235              -5.60    32800.00
02236              -3.80    33600.00
02237              -5.80    33600.00
02238              -7.20    33600.00
02239              -5.40    33600.00
02240              -9.20    33600.00
02241              -7.00    33600.00
02242              -8.60    33600.00
02243             -12.60    33600.00
02244             -10.20    33600.00
02245             -12.40    33600.00
02246             -13.40    32800.00
02247             -13.60    33600.00
02248             -15.40    32800.00
02249             -15.40    33600.00
02250             -17.20    32800.00
02251             -22.00    33600.00
02252             -24.60    32000.00
02253             -14.00    32800.00
02254              -6.20    32800.00
02255             -11.80    32000.00
02256             -11.00    32800.00
02257              -6.60    32800.00
02258              -6.60    31200.00
02259              -8.40    32000.00
02260              -5.60    31200.00
02261              -5.00    31200.00
02262              -6.00    31200.00
02263              -4.20    30400.00
02264              -2.80    30400.00
02265              -3.80    30400.00
02266              -2.80    29600.00
02267              -3.00    28800.00
02268              -3.80    28800.00
02269              -1.00    28800.00
02270              -2.80    28000.00
02271              -2.60    28000.00
02272               1.20    27200.00
02273              -2.60    27200.00
02274              -1.80    27200.00
02275               1.00    27200.00
02276              -2.60    25600.00
02277              -1.00    25600.00
02278               1.40    25600.00
02279              -2.20    24800.00
02280              -1.40    24800.00
02281               0.40    24000.00
02282              -2.20    24000.00
02283              -0.20    22400.00
02284               1.20    23200.00
02285              -2.20    22400.00
02286              -0.40    22400.00
02287              -0.20    21600.00
02288              -2.20    20800.00
02289               0.40    20800.00
02290               0.00    20000.00
02291              -0.60    19200.00
02292              -0.20    19200.00
02293              -0.60    18400.00
02294              -1.40    17600.00
02295              -0.60    17600.00
02296              -0.20    16800.00
02297              -0.60    16800.00
02298              -0.20    16000.00
02299              -0.20    15200.00
02300              -1.20    14400.00
02301              -0.20    14400.00
02302              -0.60    13600.00
02303              -0.60    12800.00
02304              -0.20    12800.00
02305              -0.20    12000.00
02306              -0.60    11200.00
02307              -1.00    11200.00
02308              -0.20     9600.00
02309               0.40     8800.00
02310              -1.00     8800.00
02311              -0.20     8000.00
02312              -1.00     8000.00
02313              -1.00     7200.00
02314              -0.40     6400.00
02315              -0.20     5600.00
02316               0.20     4800.00
02317              -0.20     4800.00
02318              -0.60     4000.00
02319               0.20     3200.00
02320              -0.60     2400.00
02321              -1.20     2400.00
02322               0.20     1600.00
02323              -0.20      800.00
02324              -0.60        0.00
02325               0.60        0.00
02326               1.80     -800.00
02327               3.40    -1600.00
02328              -2.00    -2400.00
02329              -0.40    -2400.00
02330               1.80    -2400.00
02331               0.40    -3200.00
02332              -0.40    -4000.00
02333               8.20    -4800.00
02334              25.00    -6400.00
02335              -2.20    -7200.00
02336             -25.00    -8000.00
02337               5.20    -8000.00
02338              23.80    -8000.00
02339             -25.00    -8800.00
02340             -15.00    -8800.00
02341              25.00   -10400.00
02342             -25.00   -10400.00
02343             -25.00   -10400.00
02344              25.00   -12000.00
02345             -25.00   -12000.00
02346              -3.60   -12800.00
02347              25.00   -12800.00
02348             -24.20   -13600.00
02349              25.00   -14400.00
02350             -25.00   -14400.00
02351               9.60   -16000.00
02352              25.00   -16000.00
02353             -25.00   -16800.00
02354              10.60   -17600.00
02355              23.60   -17600.00
02356             -24.60   -17600.00
02357              -7.80   -18400.00
02358              25.00   -19200.00
02359             -25.00   -19200.00
02360              -1.20   -20000.00
02361              25.00   -20800.00
02362             -22.60   -20800.00
02363               6.80   -21600.00
02364               6.20   -22400.00
02365             -14.60   -22400.00
02366               6.00   -22400.00
02367               5.80   -24000.00
02368             -10.20   -24000.00
02369               9.00   -24000.00
02370               2.20   -24000.00
02371             -12.60   -25600.00
02372              11.60   -25600.00
02373              -3.60   -26400.00
02374              -5.40   -27200.00
02375               9.00   -26400.00
02376              -3.20   -27200.00
02377              -3.40   -27200.00
02378               5.00   -27200.00
02379              -1.20   -28000.00
02380              -2.20   -28800.00
02381               5.00   -28800.00
02382              -1.40   -29600.00
02383              -1.80   -28800.00
02384               3.80   -29600.00
02385              -2.00   -29600.00
02386               1.00   -29600.00
02387               4.20   -30400.00
02388              -2.60   -30400.00
02389               1.80   -30400.00
02390               2.80   -30400.00
02391              -2.00   -30400.00
02392               2.00   -32000.00
02393               2.20   -32000.00
02394               1.00   -32000.00
02395               2.80   -32000.00
02396               1.20   -32000.00
02397               2.20   -32000.00
02398               2.20   -32800.00
02399               2.60   -32000.00
02400               3.80   -32000.00
02401               3.60   -32800.00
02402               3.60   -32800.00
02403               5.00   -32800.00
02404               6.20   -32800.00
02405               3.60   -32800.00
02406               6.80   -32000.00
02407               9.20   -33600.00
02408               6.40   -32800.00
02409              10.60   -32800.00
02410              11.60   -32800.00
02411              10.00   -32800.00
02412              13.20   -32800.00
02413              13.20   -32800.00
02414              13.00   -32800.00
02415              14.20   -32800.00
02416              15.40   -32000.00
02417              18.40   -32000.00
02418              23.20   -32000.00
02419              21.60   -32000.00
02420               7.60   -32000.00
02421               7.60   -32000.00
02422              13.20   -32000.00
02423               7.00   -31200.00
02424               5.00   -31200.00
02425               7.80   -31200.00
02426               7.40   -30400.00
02427               5.00   -30400.00
02428               3.60   -30400.00
02429               5.40   -29600.00
02430               3.20   -29600.00
02431               1.00   -29600.00
02432               3.80   -28800.00
02433               3.20   -28800.00
02434              -0.20   -28800.00
02435               2.40   -28000.00
02436               2.20   -27200.00
02437              -0.40   -27200.00
02438               1.00   -27200.00
02439               2.20   -27200.00
02440              -0.60   -26400.00
02441               0.40   -25600.00
02442               0.60   -25600.00
02443              -0.40   -25600.00
02444               1.20   -24800.00
02445               0.60   -24800.00
02446              -0.20   -24000.00
02447               0.20   -24000.00
02448              -0.40   -23200.00
02449              -0.20   -22400.00
02450               0.00   -22400.00
02451              -0.60   -22400.00
02452               0.20   -20800.00
02453              -0.20   -20800.00
02454              -0.20   -20000.00
02455              -0.40   -20000.00
02456              -0.20   -19200.00
02457              -0.60   -18400.00
02458              -0.40   -18400.00
02459               0.20   -17600.00
02460              -0.60   -16800.00
02461              -0.20   -16800.00
02462               0.00   -16800.00
02463              -0.60   -16000.00
02464              -0.40   -15200.00
02465               0.20   -14400.00
02466              -0.60   -14400.00
02467              -0.60   -13600.00
02468              -0.20   -12800.00
02469              -0.40   -12800.00
02470              -1.20   -11200.00
02471              -0.40   -11200.00
02472              -0.20   -11200.00
02473              -0.60   -10400.00
02474              -0.20   -10400.00
02475              -1.00    -9600.00
02476              -1.00    -8800.00
02477               0.20    -8000.00
02478              -1.00    -7200.00
02479              -0.40    -6400.00
02480              -0.20    -6400.00
02481              -1.00    -6400.00
02482              -0.60    -5600.00
02483              -0.80    -4000.00
02484              -1.20    -4000.00
02485               0.20    -3200.00
02486              -0.20    -3200.00
02487              -0.60    -2400.00
02488              -0.20    -1600.00
02489              -0.60     -800.00
02490              -0.60        0.00
02491               0.20        0.00
02492              -0.40      800.00
02493               1.80     1600.00
02494               2.80     1600.00
02495              -3.00     2400.00
02496              -0.20     3200.00
02497               1.80     3200.00
02498              -1.80     4000.00
02499               3.60     4800.00
02500              25.00     6400.00
02501              14.60     8000.00
02502             -25.00     8000.00
02503              -4.60     8800.00
02504              25.00     8800.00
02505             -25.00     8800.00
02506               3.40     9600.00
02507              25.00    10400.00
02508             -25.00     9600.00
02509              25.00    12000.00
02510              25.00    12000.00
02511             -25.00    12000.00
02512              25.00    12800.00
02513             -25.00    13600.00
02514              10.20    14400.00
02515              25.00    14400.00
02516             -25.00    15200.00
02517              25.00    16000.00
02518               1.40    16000.00
02519             -25.00    17600.00
02520              25.00    17600.00
02521               0.60    17600.00
02522             -25.00    18400.00
02523              12.60    19200.00
02524              21.20    20000.00
02525             -25.00    19200.00
02526              24.20    20800.00
02527               8.60    20800.00
02528             -23.00    21600.00
02529              25.00    21600.00
02530             -16.20    22400.00
02531              -5.20    22400.00
02532              10.20    23200.00
02533              -5.20    24000.00
02534              -5.00    24800.00
02535              15.80    25600.00
02536             -10.60    24800.00
02537              -4.60    25600.00
02538              12.40    25600.00
02539             -14.80    26400.00
02540               4.40    26400.00
02541               4.20    27200.00
02542              -6.00    28000.00
02543               1.20    28000.00
02544               1.80    28800.00
02545              -4.60    28800.00
02546              -0.40    28800.00
02547               2.60    28800.00
02548              -5.00    28800.00
02549               0.20    30400.00
02550               0.60    30400.00
02551              -4.80    30400.00
02552               2.00    30400.00
02553               0.20    31200.00
02554              -4.40    31200.00
02555               2.60    32000.00
02556              -3.40    32000.00
02557              -3.40    32000.00
02558               0.40    32800.00
02559              -4.40    32000.00
02560              -1.00    32800.00
02561              -0.60    32800.00
02562              -3.80    32800.00
02563              -2.80    32800.00
02564              -2.80    33600.00
02565              -3.40    33600.00
02566              -3.80    32800.00
02567              -2.40    33600.00
02568              -5.00    33600.00
02569              -4.60    33600.00
02570              -3.60    33600.00
02571              -7.60    32800.00
02572              -6.00    33600.00
02573              -7.40    33600.00
02574              -9.40    33600.00
02575              -7.00    33600.00
02576             -11.40    33600.00
02577             -11.60    33600.00
02578             -10.60    33600.00
02579             -13.40    33600.00
02580             -13.20    33600.00
02581             -14.20    33600.00
02582             -14.80    32800.00
02583             -16.60    33600.00
02584             -19.00    33600.00
02585             -23.80    32800.00
02586             -21.40    32000.00
02587              -6.80    32000.00
02588              -8.80    32800.00
02589             -13.80    32000.00
02590              -7.80    32000.00
02591              -6.60    32000.00
02592              -8.20    32000.00
02593              -7.40    31200.00
02594              -4.60    31200.00
02595              -4.40    31200.00
02596              -6.20    30400.00
02597              -3.00    30400.00
02598              -2.20    30400.00
02599              -5.00    30400.00
02600              -3.20    28800.00
02601              -1.20    28800.00
02602              -2.80    28800.00
02603              -2.80    28000.00
02604              -0.60    28800.00
02605              -2.20    28000.00
02606              -2.20    28000.00
02607              -0.20    27200.00
02608              -1.80    27200.00
02609              -2.20    26400.00
02610               0.40    26400.00
02611              -1.00    25600.00
02612              -1.20    25600.00
02613              -0.60    24800.00
02614              -1.20    24800.00
02615              -0.60    24000.00
02616              -0.60    24000.00
02617              -1.00    23200.00
02618              -1.00    22400.00
02619              -0.60    22400.00
02620              -0.60    21600.00
02621              -1.00    21600.00
02622              -0.60    20800.00
02623              -1.00    20800.00
02624               0.20    19200.00
02625              -0.40    19200.00
02626              -1.00    18400.00
02627              -0.40    18400.00
02628              -0.60    17600.00
02629              -0.60    16800.00
02630               0.40    16800.00
02631              -0.60    16000.00
02632              -0.60    15200.00
02633              -0.20    15200.00
02634              -0.40    14400.00
02635              -0.40    14400.00
02636              -0.60    13600.00
02637              -0.60    12800.00
02638              -0.40    12000.00
02639              -0.60    12000.00
02640               0.00    11200.00
02641              -0.60    11200.00
02642               0.20     9600.00
02643              -0.60     9600.00
02644              -0.20     8800.00
02645              -0.20     8000.00
02646              -0.60     8000.00
02647              -0.60     6400.00
02648              -0.20     6400.00
02649              -1.00     5600.00
02650              -0.40     4800.00
02651              -0.40     4800.00
02652               0.00     3200.00
02653              -0.60     3200.00
02654              -1.00     2400.00
02655              -0.60     1600.00
02656              -0.40     1600.00
02657              -0.20        0.00
02658               0.40        0.00
02659               0.80     -800.00
02660               3.80     -800.00
02661               0.20    -1600.00
02662              -2.00    -1600.00
02663               1.60    -2400.00
02664               1.20    -3200.00
02665              -1.00    -3200.00
02666               2.80    -4800.00
02667              16.00    -4800.00
02668              24.60    -7200.00
02669             -25.00    -8000.00
02670             -25.00    -8000.00
02671              25.00    -8000.00
02672              -3.00    -8800.00
02673             -25.00    -8800.00
02674              25.00    -9600.00
02675              25.00   -10400.00
02676             -25.00   -10400.00
02677              25.00   -11200.00
02678              25.00   -11200.00
02679             -25.00   -12000.00
02680              25.00   -12800.00
02681             -18.80   -13600.00
02682               9.20   -13600.00
02683               5.00   -14400.00
02684             -25.00   -15200.00
02685              25.00   -16000.00
02686             -14.20   -16000.00
02687             -21.20   -16800.00
02688              25.00   -16800.00
02689              -2.80   -17600.00
02690             -25.00   -18400.00
02691              20.60   -19200.00
02692               6.20   -19200.00
02693             -25.00   -20000.00
02694              25.00   -20000.00
02695              -2.80   -20800.00
02696             -14.80   -21600.00
02697              17.40   -22400.00
02698             -10.80   -22400.00
02699              -5.00   -23200.00
02700              10.60   -23200.00
02701              -5.00   -23200.00
02702              -3.40   -24000.00
02703              13.20   -24000.00
02704             -11.60   -24800.00
02705               0.60   -25600.00
02706               8.60   -25600.00
02707             -11.20   -25600.00
02708               5.20   -26400.00
02709               3.60   -27200.00
02710              -5.20   -27200.00
02711               2.00   -27200.00
02712               2.60   -28000.00
02713              -3.80   -28800.00
02714               2.00   -28800.00
02715               2.60   -28800.00
02716              -3.60   -28800.00
02717               2.80   -29600.00
02718               1.00   -29600.00
02719              -2.20   -29600.00
02720               3.60   -29600.00
02721               0.60   -30400.00
02722              -1.20   -30400.00
02723               3.60   -30400.00
02724              -0.40   -31200.00
02725               0.00   -31200.00
02726               3.00   -32000.00
02727               0.40   -32000.00
02728               2.60   -32000.00
02729               2.20   -32000.00
02730               1.00   -32000.00
02731               2.00   -32800.00
02732               2.80   -32800.00
02733               2.60   -32800.00
02734               3.00   -32800.00
02735               4.40   -32800.00
02736               3.60   -32800.00
02737               5.00   -33600.00
02738               5.60   -32800.00
02739               5.00   -32800.00
02740               8.00   -32800.00
02741               7.60   -32800.00
02742               8.20   -32800.00
02743              11.20   -32800.00
02744              10.00   -32800.00
02745              11.60   -32800.00
02746              12.80   -32800.00
02747              13.00   -32800.00
02748              14.00   -32800.00
02749              14.80   -32000.00
02750              16.60   -32000.00
02751              20.60   -32000.00
02752              24.80   -32000.00
02753              14.20   -32000.00
02754               5.00   -31200.00
02755              11.80   -31200.00
02756              10.80   -31200.00
02757               5.20   -31200.00
02758               6.80   -31200.00
02759               7.80   -30400.00
02760               6.00   -30400.00
02761               3.40   -30400.00
02762               4.60   -30400.00
02763               5.40   -29600.00
02764               2.00   -29600.00
02765               2.60   -29600.00
02766               4.40   -28800.00
02767               0.60   -28800.00
02768               1.00   -28800.00
02769               3.00   -28000.00
02770               1.20   -28000.00
02771               0.20   -27200.00
02772               2.20   -27200.00
02773               0.20   -26400.00
02774              -0.20   -26400.00
02775               1.80   -26400.00
02776               1.20   -25600.00
02777              -5.20   -25600.00
02778               6.00   -24800.00
02779              -2.60   -24000.00
02780              -5.80   -24000.00
02781               5.80   -23200.00
02782              -0.60   -23200.00
02783               5.80   -22400.00
02784              -4.60   -22400.00
02785               3.00   -22400.00
02786               1.80   -21600.00
02787              -7.40   -20800.00
02788              -0.60   -20800.00
02789              -0.80   -19200.00
02790              -0.60   -19200.00
02791               0.60   -19200.00
02792               1.40   -17600.00
02793               1.40   -17600.00
02794              -1.00   -17600.00
02795               2.80   -16800.00
02796              -2.80   -16800.00
02797              -5.00   -16000.00
02798               1.40   -15200.00
02799              -0.60   -14400.00
02800              -3.80   -14400.00
02801               1.00   -13600.00
02802               4.20   -13600.00
02803              -0.60   -12000.00
02804              -0.80   -12000.00
02805              -0.60   -11200.00
02806              -1.80   -11200.00
02807              -1.60   -10400.00
02808              -4.20    -9600.00
02809              -0.60    -8800.00
02810               1.20    -8000.00
02811               1.80    -8000.00
02812               0.20    -7200.00
02813               0.40    -7200.00
02814              -0.20    -5600.00
02815              -2.20    -4800.00
02816              -1.00    -4800.00
02817              -2.80    -4000.00
02818              -1.00    -3200.00
02819               0.40    -3200.00
02820              -0.40    -2400.00
02821               1.00    -1600.00
02822              -0.40    -1600.00
02823              -0.40     -800.00
02824              -0.40        0.00
02825              -1.20      800.00
02826              -1.40     1600.00
02827               3.60     1600.00
02828              -1.00     2400.00
02829              -1.60     3200.00
02830               2.60     3200.00
02831               1.40     4000.00
02832              -1.00     4800.00
02833              12.00     5600.00
02834              25.00     7200.00
02835             -25.00     8000.00
02836             -25.00     8000.00
02837              25.00     8000.00
02838               2.40     8800.00
02839             -25.00     8800.00
02840              25.00    10400.00
02841               1.40     9600.00
02842             -25.00    11200.00
02843              25.00    12000.00
02844             -25.00    12000.00
02845              -2.80    12800.00
02846              25.00    12800.00
02847             -25.00    12800.00
02848              25.00    14400.00
02849             -25.00    15200.00
02850             -15.80    15200.00
02851              25.00    16000.00
02852             -25.00    16000.00
02853              12.60    16000.00
02854              25.00    17600.00
02855             -25.00    18400.00
02856             -15.00    18400.00
02857              25.00    19200.00
02858             -17.20    20000.00
02859             -16.20    20800.00
02860              25.00    21600.00
02861             -25.00    21600.00
02862               8.20    21600.00
02863               8.60    22400.00
02864             -20.60    22400.00
02865               9.80    23200.00
02866               3.40    24000.00
02867             -10.20    24000.00
02868               7.40    24800.00
02869               7.00    24800.00
02870             -18.20    25600.00
02871              13.00    25600.00
02872              -2.80    26400.00
02873              -9.20    27200.00
02874              10.20    27200.00
02875              -4.40    27200.00
02876              -3.40    28000.00
02877               3.60    28000.00
02878              -0.60    28800.00
02879              -5.00    28800.00
02880               3.80    28800.00
02881              -1.80    29600.00
02882              -4.60    29600.00
02883               2.20    30400.00
02884              -3.00    30400.00
02885              -2.80    30400.00
02886               3.80    31200.00
02887              -4.40    31200.00
02888              -1.20    31200.00
02889               1.40    32000.00
02890              -5.80    31200.00
02891               0.20    32000.00
02892              -1.40    32800.00
02893              -3.80    32000.00
02894               0.20    32800.00
02895              -2.20    32800.00
02896              -4.20    32800.00
02897              -2.00    33600.00
02898              -2.60    32800.00
02899              -4.40    33600.00
02900              -3.00    33600.00
02901              -2.80    33600.00
02902              -6.60    33600.00
02903              -2.60    33600.00
02904              -5.40    33600.00
02905              -7.60    33600.00
02906              -4.60    33600.00
02907              -8.80    33600.00
02908              -7.40    33600.00
02909              -9.00    33600.00
02910             -12.20    33600.00
02911             -10.80    33600.00
02912             -12.60    33600.00
02913             -14.00    33600.00
02914             -12.40    32800.00
02915             -15.40    33600.00
02916             -16.40    33600.00
02917             -16.40    33600.00
02918             -22.00    32800.00
02919             -25.00    33600.00
02920             -12.60    32800.00
02921              -6.00    32800.00
02922             -13.40    32000.00
02923              -9.40    32000.00
02924              -6.60    32000.00
02925              -8.40    32000.00
02926              -7.40    31200.00
02927              -5.80    31200.00
02928              -4.60    31200.00
02929              -5.40    30400.00
02930              -5.60    30400.00
02931              -2.80    30400.00
02932              -3.80    29600.00
02933              -4.60    28800.00
02934              -1.80    29600.00
02935              -1.40    28800.00
02936              -3.00    28800.00
02937              -1.60    28800.00
02938              -1.00    28000.00
02939              -2.80    28000.00
02940              -0.60    27200.00
02941              -0.60    27200.00
02942              -3.40    26400.00
02943              -0.60    25600.00
02944               0.20    25600.00
02945              -1.80    25600.00
02946              -0.60    24800.00
02947              -0.60    24800.00
02948              -1.00    24800.00
02949              -0.60    24000.00
02950              -0.60    24000.00
02951              -0.80    23200.00
02952              -0.60    22400.00
02953              -0.40    21600.00
02954              -0.40    21600.00
02955              -0.60    21600.00
02956              -1.00    20800.00
02957              -1.20    20000.00
02958               0.20    19200.00
02959              -0.60    19200.00
02960              -0.80    18400.00
02961              -0.20    17600.00
02962              -0.60    17600.00
02963              -0.40    16800.00
02964               0.00    16000.00
02965              -0.60    16000.00
02966              -0.20    15200.00
02967               0.00    14400.00
02968              -0.60    14400.00
02969              -0.40    12800.00
02970              -0.60    12800.00
02971              -0.20    12000.00
02972               0.20    12000.00
02973               0.00    11200.00
02974              -1.00    10400.00
02975               0.00     9600.00
02976              -0.20     9600.00
02977              -0.60     8800.00
02978               0.20     8000.00
02979              -0.40     8000.00
02980              -0.60     6400.00
02981               0.40     6400.00
02982              -0.20     5600.00
02983              -0.60     4800.00
02984              -0.40     5600.00
02985              -0.20     4000.00
02986              -0.40     3200.00
02987              -0.60     2400.00
02988              -0.60     2400.00
02989              -0.40     1600.00
02990               0.20     1600.00
02991               0.20        0.00
02992               0.00        0.00
02993               2.00     -800.00
02994               3.40    -1600.00
02995              -2.20    -2400.00
02996               0.40    -3200.00
02997               1.20    -3200.00
02998               0.00    -3200.00
02999              -0.20    -4000.00
03000               7.60    -4000.00
03001              25.00    -6400.00
03002              -3.60    -7200.00
03003             -25.00    -8000.00
03004               6.20    -8000.00
03005              23.40    -8000.00
03006             -25.00    -8000.00
03007             -12.60    -8800.00
03008              25.00   -10400.00
03009             -25.00   -10400.00
03010             -25.00   -10400.00
03011              25.00   -11200.00
03012             -25.00   -11200.00
03013              -0.20   -13600.00
03014              24.60   -12800.00
03015             -23.20   -14400.00
03016              25.00   -14400.00
03017             -25.00   -14400.00
03018              11.00   -16000.00
03019              25.00   -16000.00
03020             -25.00   -16800.00
03021              11.60   -16800.00
03022              23.00   -17600.00
03023             -25.00   -17600.00
03024              -6.60   -18400.00
03025              25.00   -19200.00
03026             -25.00   -20000.00
03027               0.60   -20000.00
03028              25.00   -20000.00
03029             -22.80   -20800.00
03030               8.20   -22400.00
03031               5.80   -22400.00
03032             -14.80   -22400.00
03033               6.60   -23200.00
03034               5.80   -23200.00
03035             -10.20   -24000.00
03036               9.00   -24000.00
03037               1.80   -24800.00
03038             -12.20   -24800.00
03039              11.40   -26400.00
03040              -4.00   -25600.00
03041              -4.60   -26400.00
03042               9.00   -27200.00
03043              -3.00   -27200.00
03044              -2.80   -28000.00
03045               4.80   -27200.00
03046              -1.40   -28800.00
03047              -2.00   -28800.00
03048               5.00   -28800.00
03049              -2.00   -28800.00
03050              -2.00   -28800.00
03051               3.80   -29600.00
03052              -2.00   -29600.00
03053               0.20   -30400.00
03054               3.80   -30400.00
03055              -1.80   -30400.00
03056               1.80   -31200.00
03057               2.60   -31200.00
03058              -1.20   -30400.00
03059               2.20   -32000.00
03060               1.80   -32000.00
03061               1.20   -32000.00
03062               2.80   -32000.00
03063               1.20   -32800.00
03064               1.80   -32000.00
03065               2.00   -32800.00
03066               2.60   -32800.00
03067               2.60   -32800.00
03068               3.40   -32800.00
03069               4.40   -32000.00
03070               3.80   -32800.00
03071               5.80   -32800.00
03072               5.20   -32800.00
03073               6.20   -32800.00
03074               8.40   -32800.00
03075               7.00   -32800.00
03076              10.00   -32800.00
03077              10.60   -32800.00
03078              10.20   -32800.00
03079              12.80   -32800.00
03080              12.60   -32800.00
03081              13.20   -32000.00
03082              14.40   -32800.00
03083              15.40   -32800.00
03084              18.20   -32800.00
03085              23.80   -32000.00
03086              21.20   -32800.00
03087               7.00   -32000.00
03088               8.20   -32000.00
03089              13.20   -32000.00
03090               7.80   -32000.00
03091               5.40   -30400.00
03092               7.60   -31200.00
03093               7.40   -31200.00
03094               4.40   -30400.00
03095               3.40   -30400.00
03096               6.40   -29600.00
03097               3.40   -29600.00
03098               1.00   -28800.00
03099               4.20   -29600.00
03100               3.00   -29600.00
03101               0.20   -28800.00
03102               2.60   -28800.00
03103               2.00   -28000.00
03104              -0.20   -28000.00
03105               0.60   -27200.00
03106               2.00   -27200.00
03107               0.20   -26400.00
03108               0.40   -26400.00
03109               1.00   -25600.00
03110              -0.20   -25600.00
03111               0.20   -25600.00
03112               0.40   -24800.00
03113               0.40   -24800.00
03114               0.20   -24000.00
03115               0.00   -23200.00
03116              -0.80   -23200.00
03117               0.60   -22400.00
03118              -0.40   -22400.00
03119              -0.20   -21600.00
03120               0.40   -20800.00
03121              -0.40   -20800.00
03122              -0.60   -20000.00
03123              -0.20   -18400.00
03124              -0.20   -19200.00
03125              -0.20   -18400.00
03126              -0.40   -17600.00
03127              -0.40   -17600.00
03128              -0.40   -16800.00
03129              -0.60   -16800.00
03130              -0.60   -16800.00
03131               0.40   -16000.00
03132              -1.00   -15200.00
03133              -1.40   -14400.00
03134               0.20   -13600.00
03135              -0.40   -12800.00
03136              -1.00   -12800.00
03137              -0.20   -12800.00
03138              -0.60   -11200.00
03139              -0.80   -11200.00
03140              -0.60   -10400.00
03141              -0.60   -10400.00
03142              -0.60    -9600.00
03143               0.00    -9600.00
03144              -0.80    -8000.00
03145              -1.40    -8000.00
03146              -0.60    -6400.00
03147              -1.00    -6400.00
03148              -0.40    -4800.00
03149               1.00    -4800.00
03150              -0.40    -4000.00
03151              -0.60    -3200.00
03152              -0.20    -3200.00
03153              -1.00    -3200.00
03154              -0.80    -1600.00
03155               0.20    -1600.00
03156              -0.60     -800.00
03157              -1.00        0.00
03158              -0.60        0.00
03159              -0.20      800.00
03160               2.00     1600.00
03161               2.80     2400.00
03162              -2.40     2400.00
03163               0.20     3200.00
03164               1.00     3200.00
03165              -2.20     4000.00
03166               4.00     4800.00
03167              25.00     6400.00
03168              13.20     7200.00
03169             -25.00     8000.00
03170              -3.00     8000.00
03171              25.00     8800.00
03172             -25.00     8800.00
03173               5.80     9600.00
03174              25.00     9600.00
03175             -25.00    10400.00
03176              25.00    11200.00
03177              25.00    12000.00
03178             -25.00    12000.00
03179              25.00    12800.00
03180             -25.00    12800.00
03181              14.20    14400.00
03182              25.00    14400.00
03183             -25.00    15200.00
03184              25.00    16000.00
03185              -1.40    16000.00
03186             -25.00    16800.00
03187              25.00    17600.00
03188              -0.20    17600.00
03189             -25.00    18400.00
03190              13.00    19200.00
03191              19.80    19200.00
03192             -25.00    20000.00
03193              25.00    20800.00
03194               6.80    20800.00
03195             -21.20    21600.00
03196              25.00    22400.00
03197             -17.40    23200.00
03198              -4.40    22400.00
03199               9.80    24000.00
03200              -6.20    24000.00
03201              -4.00    24800.00
03202              15.80    24800.00
03203             -11.80    24800.00
03204              -3.60    25600.00
03205              11.60    25600.00
03206             -15.40    26400.00
03207               5.80    27200.00
03208               3.60    27200.00
03209              -6.20    28000.00
03210               1.20    27200.00
03211               1.60    28000.00
03212              -4.40    28800.00
03213              -0.20    28800.00
03214               2.80    29600.00
03215              -4.60    29600.00
03216              -0.60    30400.00
03217               0.80    30400.00
03218              -3.80    30400.00
03219               1.80    31200.00
03220              -0.20    31200.00
03221              -4.20    31200.00
03222               1.80    31200.00
03223              -3.00    32000.00
03224              -2.20    32800.00
03225               0.00    32000.00
03226              -4.20    32800.00
03227              -0.40    32800.00
03228              -1.00    32800.00
03229              -3.40    32800.00
03230              -2.20    32800.00
03231              -3.40    32800.00
03232              -3.00    33600.00
03233              -2.80    33600.00
03234              -3.00    33600.00
03235              -5.00    33600.00
03236              -4.60    33600.00
03237              -4.20    33600.00
03238              -7.40    33600.00
03239              -5.20    33600.00
03240              -7.40    33600.00
03241              -9.20    33600.00
03242              -6.60    33600.00
03243             -11.60    33600.00
03244             -11.40    33600.00
03245             -11.00    33600.00
03246             -13.40    33600.00
03247             -13.20    33600.00
03248             -14.80    33600.00
03249             -15.20    33600.00
03250             -16.40    32800.00
03251             -19.00    33600.00
03252             -24.40    32800.00
03253             -21.20    33600.00
03254              -6.80    32000.00
03255              -9.20    32800.00
03256             -13.20    32000.00
03257              -7.60    32000.00
03258              -6.80    32000.00
03259              -7.80    32800.00
03260              -7.60    31200.00
03261              -5.20    31200.00
03262              -4.40    31200.00
03263              -6.40    31200.00
03264              -3.60    30400.00
03265              -2.60    30400.00
03266              -5.40    30400.00
03267              -3.20    30400.00
03268              -1.20    28800.00
03269              -3.00    28800.00
03270              -2.60    28800.00
03271              -0.60    28000.00
03272              -2.60    28000.00
03273              -1.80    27200.00
03274               0.00    27200.00
03275              -2.00    27200.00
03276              -1.80    26400.00
03277              -0.20    25600.00
03278              -1.40    26400.00
03279              -1.00    25600.00
03280              -0.40    24800.00
03281              -1.20    24800.00
03282              -0.60    24000.00
03283              -0.60    24000.00
03284              -0.60    23200.00
03285              -0.40    22400.00
03286              -0.60    22400.00
03287              -0.60    21600.00
03288              -0.40    21600.00
03289              -0.60    20800.00
03290              -1.00    20800.00
03291               0.20    19200.00
03292              -0.40    19200.00
03293              -1.00    18400.00
03294               0.00    17600.00
03295              -0.60    17600.00
03296              -0.60    17600.00
03297               0.40    16000.00
03298              -0.60    16000.00
03299              -0.40    15200.00
03300              -0.40    14400.00
03301              -0.40    14400.00
03302              -0.40    13600.00
03303              -0.20    12800.00
03304              -0.40    12800.00
03305              -0.20    12000.00
03306               0.20    12000.00
03307              -0.40    11200.00
03308              -0.60     9600.00
03309               0.40     9600.00
03310              -0.60     8800.00
03311              -0.60     8000.00
03312               0.20     8000.00
03313              -0.80     7200.00
03314               0.20     6400.00
03315              -0.20     6400.00
03316              -0.60     5600.00
03317              -0.20     4800.00
03318              -0.20     4800.00
03319              -0.20     3200.00
03320              -0.20     3200.00
03321              -0.60     2400.00
03322              -1.00     1600.00
03323              -0.20     1600.00
03324              -0.20        0.00
03325              -0.20        0.00
03326               0.60        0.00
03327               3.60     -800.00
03328              -0.40    -1600.00
03329              -1.80    -2400.00
03330               1.40    -2400.00
03331               0.60    -3200.00
03332              -0.60    -3200.00
03333               3.40    -4800.00
03334              15.80    -4800.00
03335              24.20    -6400.00
03336             -25.00    -8000.00
03337             -25.00    -8000.00
03338              25.00    -8000.00
03339              -5.00    -8800.00
03340             -25.00    -8000.00
03341              25.00    -9600.00
03342              25.00   -10400.00
03343             -25.00   -10400.00
03344              25.00   -12000.00
03345              23.80   -11200.00
03346             -25.00   -12800.00
03347              25.00   -12800.00
03348             -19.60   -12800.00
03349              10.20   -14400.00
03350               3.60   -14400.00
03351             -25.00   -16000.00
03352              25.00   -16000.00
03353             -15.80   -16000.00
03354             -19.40   -16800.00
03355              25.00   -16800.00
03356              -4.20   -17600.00
03357             -25.00   -18400.00
03358              21.20   -18400.00
03359               5.20   -19200.00
03360             -25.00   -20000.00
03361              25.00   -20800.00
03362              -3.00   -20800.00
03363             -13.60   -22400.00
03364              17.20   -22400.00
03365             -10.60   -22400.00
03366              -4.40   -23200.00
03367              10.40   -23200.00
03368              -5.00   -24000.00
03369              -2.80   -24000.00
03370              12.20   -24800.00
03371             -11.60   -25600.00
03372               1.00   -25600.00
03373               7.80   -25600.00
03374             -11.00   -26400.00
03375               5.80   -26400.00
03376               3.20   -27200.00
03377              -4.60   -27200.00
03378               2.20   -27200.00
03379               3.00   -28000.00
03380              -4.20   -28000.00
03381               2.60   -28800.00
03382               2.60   -28800.00
03383              -3.80   -28800.00
03384               2.60   -29600.00
03385               1.00   -29600.00
03386              -2.20   -29600.00
03387               3.40   -30400.00
03388               0.40   -30400.00
03389              -1.60   -30400.00
03390               3.60   -31200.00
03391              -0.60   -32000.00
03392               0.20   -32000.00
03393               3.00   -32000.00
03394              -0.20   -32000.00
03395               2.60   -32000.00
03396               2.20   -32000.00
03397               0.60   -32800.00
03398               2.40   -32000.00
03399               2.60   -32800.00
03400               2.00   -32800.00
03401               3.40   -32800.00
03402               4.40   -32800.00
03403               3.40   -32800.00
03404               5.20   -32800.00
03405               5.80   -32000.00
03406               4.80   -32800.00
03407               7.80   -32800.00
03408               7.40   -32800.00
03409               8.40   -33600.00
03410              11.00   -33600.00
03411               9.80   -32800.00
03412              12.20   -32800.00
03413              13.20   -32800.00
03414              13.00   -32800.00
03415              14.20   -32800.00
03416              14.60   -32800.00
03417              16.80   -32800.00
03418              21.20   -32000.00
03419              24.40   -32000.00
03420              13.40   -32000.00
03421               5.00   -32000.00
03422              12.00   -32000.00
03423              10.80   -32000.00
03424               5.80   -32000.00
03425               6.60   -31200.00
03426               8.20   -31200.00
03427               6.20   -30400.00
03428               3.20   -30400.00
03429               5.00   -29600.00
03430               5.40   -29600.00
03431               1.40   -29600.00
03432               2.60   -29600.00
03433               4.80   -28800.00
03434               0.40   -28800.00
03435               1.00   -28800.00
03436               3.00   -28800.00
03437               0.60   -28000.00
03438              -0.20   -27200.00
03439               2.20   -26400.00
03440               0.60   -26400.00
03441               0.20   -26400.00
03442               1.20   -26400.00
03443               0.40   -25600.00
03444               0.20   -25600.00
03445               0.60   -24800.00
03446               0.20   -24000.00
03447               0.20   -24000.00
03448              -0.40   -24000.00
03449              -0.20   -23200.00
03450               0.20   -23200.00
03451              -0.60   -22400.00
03452               0.00   -22400.00
03453              -0.20   -20800.00
03454              -0.60   -20800.00
03455              -0.40   -20800.00
03456              -0.60   -20000.00
03457              -0.40   -19200.00
03458              -0.80   -18400.00
03459               0.40   -19200.00
03460               0.20   -17600.00
03461              -1.00   -17600.00
03462              -0.60   -16800.00
03463               0.20   -16800.00
03464              -1.60   -16000.00
03465              -0.60   -15200.00
03466               0.20   -14400.00
03467              -1.20   -14400.00
03468              -0.60   -13600.00
03469               0.40   -12800.00
03470              -1.20   -12800.00
03471              -0.60   -12000.00
03472               0.00   -11200.00
03473              -1.00   -11200.00
03474              -0.80    -9600.00
03475               0.00    -9600.00
03476              -1.00    -8800.00
03477              -0.40    -8000.00
03478              -0.20    -8000.00
03479              -1.00    -7200.00
03480              -0.20    -6400.00
03481              -0.60    -6400.00
03482              -0.60    -4800.00
03483              -0.40    -4800.00
03484              -0.60    -4000.00
03485              -0.40    -4000.00
03486              -0.20    -3200.00
03487              -0.60    -2400.00
03488              -0.40    -1600.00
03489              -0.20     -800.00
03490              -0.60     -800.00
03491              -0.20        0.00
03492               0.20        0.00
03493               0.20     1600.00
03494               3.60     2400.00
03495              -1.00     2400.00
03496              -1.40     3200.00
03497               1.20     3200.00
03498               0.20     3200.00
03499              -0.60     4800.00
03500              12.60     5600.00
03501              25.00     6400.00
03502             -25.00     8000.00
03503             -25.00     8000.00
03504              25.00     8000.00
03505               0.60     8800.00
03506             -25.00     8800.00
03507              25.00    10400.00
03508              -3.00     9600.00
03509             -25.00    11200.00
03510              25.00    12000.00
03511             -25.00    12000.00
03512               1.80    12800.00
03513              25.00    12800.00
03514             -25.00    13600.00
03515              25.00    14400.00
03516             -25.00    15200.00
03517             -12.60    15200.00
03518              25.00    16000.00
03519             -25.00    16800.00
03520              14.60    17600.00
03521              25.00    17600.00
03522             -24.40    18400.00
03523             -15.20    18400.00
03524              25.00    19200.00
03525             -18.80    19200.00
03526             -15.40    20800.00
03527              25.00    20800.00
03528             -25.00    21600.00
03529               9.00    22400.00
03530               7.20    22400.00
03531             -19.80    22400.00
03532              10.40    23200.00
03533               3.00    24000.00
03534             -10.20    24000.00
03535               8.60    24800.00
03536               6.60    24800.00
03537             -18.20    25600.00
03538              13.00    25600.00
03539              -2.80    25600.00
03540              -9.20    27200.00
03541               9.20    27200.00
03542              -3.00    27200.00
03543              -3.40    27200.00
03544               2.00    28800.00
03545               0.20    28000.00
03546              -4.60    28800.00
03547               3.20    29600.00
03548              -0.40    28800.00
03549              -4.00    29600.00
03550               1.40    29600.00
03551              -2.20    30400.00
03552              -2.20    30400.00
03553               2.60    31200.00
03554              -3.20    31200.00
03555              -0.60    31200.00
03556               0.40    32000.00
03557              -4.80    32000.00
03558               0.20    32000.00
03559              -2.60    32800.00
03560              -2.60    32000.00
03561               0.40    32800.00
03562              -2.80    32800.00
03563              -2.80    32800.00
03564              -2.40    33600.00
03565              -2.80    32800.00
03566              -3.00    32800.00
03567              -3.00    32800.00
03568              -3.60    33600.00
03569              -5.80    33600.00
03570              -3.60    33600.00
03571              -5.40    33600.00
03572              -7.00    33600.00
03573              -4.80    33600.00
03574              -9.40    33600.00
03575              -7.20    33600.00
03576              -8.60    33600.00
03577             -12.60    33600.00
03578             -10.20    33600.00
03579             -12.40    33600.00
03580             -13.40    33600.00
03581             -14.00    33600.00
03582             -15.00    33600.00
03583             -15.80    33600.00
03584             -17.80    32800.00
03585             -21.80    32800.00
03586             -25.00    32800.00
03587             -12.60    32000.00
03588              -6.00    32000.00
03589             -13.00    32000.00
03590             -10.80    32800.00
03591              -6.80    32000.00
03592              -7.00    32000.00
03593              -8.20    31200.00
03594              -6.20    31200.00
03595              -3.80    30400.00
03596              -5.80    30400.00
03597              -6.00    30400.00
03598              -2.00    30400.00
03599              -3.40    30400.00
03600              -5.20    29600.00
03601              -1.80    28800.00
03602              -1.40    28800.00
03603              -3.80    28800.00
03604              -1.80    28000.00
03605              -0.80    28000.00
03606              -3.00    27200.00
03607              -1.20    27200.00
03608              -0.40    27200.00
03609              -2.20    27200.00
03610              -0.40    26400.00
03611              -0.60    25600.00
03612              -1.20    25600.00
03613              -0.20    25600.00
03614              -1.20    24800.00
03615              -0.60    24800.00
03616              -0.40    24000.00
03617              -1.00    23200.00
03618              -0.60    23200.00
03619              -0.40    22400.00
03620              -1.00    21600.00
03621              -0.40    21600.00
03622              -0.40    20800.00
03623              -1.00    20800.00
03624              -0.60    20000.00
03625               0.40    19200.00
03626              -0.60    18400.00
03627              -0.40    18400.00
03628              -0.20    17600.00
03629              -0.60    16800.00
03630              -0.20    16800.00
03631              -0.40    16000.00
03632              -0.60    16000.00
03633              -0.20    15200.00
03634              -0.40    14400.00
03635               0.00    14400.00
03636              -0.60    14400.00
03637              -0.60    12800.00
03638              -0.20    12000.00
03639               0.20    12000.00
03640              -0.40    11200.00
03641              -0.60    11200.00
03642               0.20     9600.00
03643               0.40     9600.00
03644              -1.00     8000.00
03645               0.20     8800.00
03646              -0.60     8000.00
03647              -1.00     7200.00
03648              -0.40     6400.00
03649              -0.40     5600.00
03650              -0.60     5600.00
03651              -0.40     4000.00
03652              -0.60     3200.00
03653              -0.20     3200.00
03654              -0.60     2400.00
03655              -1.00     1600.00
03656              -0.20     1600.00
03657              -0.20        0.00
03658              -0.40        0.00
03659               0.40        0.00
03660               2.00     -800.00
03661               2.60    -1600.00
03662              -2.00    -1600.00
03663               0.40    -3200.00
03664               1.00    -3200.00
03665              -0.20    -3200.00
03666               0.20    -4000.00
03667               7.80    -4800.00
03668              25.00    -6400.00
03669              -5.40    -7200.00
03670             -25.00    -8000.00
03671               8.20    -8000.00
03672              22.60    -9600.00
03673             -25.00    -9600.00
03674             -10.60    -8800.00
03675              25.00    -9600.00
03676             -25.00   -10400.00
03677             -25.00   -11200.00
03678              25.00   -12000.00
03679             -25.00   -12000.00
03680               2.60   -12800.00
03681              22.80   -12800.00
03682             -22.20   -13600.00
03683              25.00   -14400.00
03684             -25.00   -14400.00
03685              13.80   -16000.00
03686              24.40   -16000.00
03687             -25.00   -16800.00
03688              13.80   -17600.00
03689              21.80   -17600.00
03690             -25.00   -17600.00
03691              -5.20   -19200.00
03692              25.00   -19200.00
03693             -25.00   -20000.00
03694               2.60   -20000.00
03695              23.60   -20800.00
03696             -22.80   -20800.00
03697               8.80   -22400.00
03698               4.60   -22400.00
03699             -14.20   -22400.00
03700               6.80   -23200.00
03701               5.20   -24000.00
03702              -9.80   -24000.00
03703               9.20   -24000.00
03704               1.40   -25600.00
03705             -11.40   -25600.00
03706              11.00   -25600.00
03707              -4.40   -26400.00
03708              -3.80   -26400.00
03709               8.00   -26400.00
03710              -3.00   -27200.00
03711              -2.80   -27200.00
03712               4.40   -28000.00
03713              -1.40   -28800.00
03714              -2.20   -28800.00
03715               5.00   -28800.00
03716              -2.20   -29600.00
03717              -1.80   -29600.00
03718               4.20   -29600.00
03719              -2.00   -29600.00
03720               0.20   -30400.00
03721               4.20   -30400.00
03722              -2.20   -30400.00
03723               1.20   -31200.00
03724               2.40   -31200.00
03725              -1.20   -31200.00
03726               2.00   -32000.00
03727               1.60   -32000.00
03728               1.20   -32000.00
03729               2.60   -32000.00
03730               1.20   -32000.00
03731               1.40   -32000.00
03732               2.60   -32800.00
03733               2.60   -32800.00
03734               2.80   -32800.00
03735               3.60   -32800.00
03736               4.60   -33600.00
03737               3.80   -32800.00
03738               5.80   -32800.00
03739               5.00   -32800.00
03740               6.00   -33600.00
03741               7.80   -32800.00
03742               7.40   -32800.00
03743              10.60   -32800.00
03744              10.60   -32800.00
03745              10.60   -33600.00
03746              13.20   -32800.00
03747              12.40   -32800.00
03748              13.40   -32800.00
03749              14.40   -32800.00
03750              15.80   -32800.00
03751              19.60   -32800.00
03752              23.60   -32000.00
03753              20.60   -32000.00
03754               7.00   -32000.00
03755               7.80   -32000.00
03756              13.00   -31200.00
03757               7.60   -32000.00
03758               5.00   -32000.00
03759               7.40   -32000.00
03760               7.60   -30400.00
03761               4.40   -30400.00
03762               4.20   -30400.00
03763               6.20   -30400.00
03764               3.40   -29600.00
03765               1.00   -29600.00
03766               3.80   -29600.00
03767               2.60   -28800.00
03768               0.40   -28800.00
03769               2.60   -28800.00
03770               2.20   -28000.00
03771               0.00   -28000.00
03772               1.00   -27200.00
03773               2.00   -27200.00
03774              -0.20   -27200.00
03775               0.20   -26400.00
03776               0.80   -25600.00
03777              -0.20   -25600.00
03778               0.20   -25600.00
03779               1.00   -24800.00
03780              -0.40   -24000.00
03781              -0.40   -24000.00
03782               0.20   -23200.00
03783              -0.40   -23200.00
03784              -0.60   -23200.00
03785              -0.40   -22400.00
03786              -0.20   -21600.00
03787              -0.40   -20800.00
03788              -0.60   -20000.00
03789              -0.20   -20000.00
03790              -0.20   -19200.00
03791              -1.20   -18400.00
03792              -0.20   -19200.00
03793               0.40   -18400.00
03794              -1.80   -17600.00
03795              -0.40   -16800.00
03796               0.20   -16800.00
03797              -1.20   -16000.00
03798              -0.40   -16000.00
03799               0.40   -14400.00
03800              -1.00   -14400.00
03801              -1.00   -13600.00
03802               0.20   -13600.00
03803              -0.60   -12800.00
03804              -1.00   -12800.00
03805               0.00   -11200.00
03806              -0.20   -11200.00
03807              -1.00   -10400.00
03808               0.00   -10400.00
03809              -0.40    -9600.00
03810              -1.20    -8000.00
03811              -0.20    -8000.00
03812              -0.40    -7200.00
03813              -0.60    -7200.00
03814              -0.60    -6400.00
03815              -0.20    -5600.00
03816              -0.20    -4800.00
03817              -0.60    -4800.00
03818              -0.60    -4000.00
03819              -0.40    -3200.00
03820              -0.80    -3200.00
03821              -0.60    -1600.00
03822              -0.60    -1600.00
03823              -0.60     -800.00
03824              -0.40        0.00
03825               0.40      800.00
03826               0.20     1600.00
03827               2.20     1600.00
03828               2.60     1600.00
03829              -2.80     2400.00
03830               0.20     3200.00
03831               1.60     4000.00
03832              -1.40     3200.00
03833               4.20     4800.00
03834              25.00     6400.00
03835              11.00     8000.00
03836             -25.00     8000.00
03837              -1.40     8000.00
03838              25.00     8000.00
03839             -25.00     8800.00
03840               9.20     9600.00
03841              25.00    10400.00
03842             -25.00    10400.00
03843              25.00    12000.00
03844              25.00    11200.00
03845             -25.00    12000.00
03846              25.00    12800.00
03847             -25.00    12800.00
03848              17.40    14400.00
03849              25.00    14400.00
03850             -25.00    15200.00
03851              25.00    16000.00
03852              -5.40    16000.00
03853             -25.00    16800.00
03854              25.00    16800.00
03855              -2.00    17600.00
03856             -25.00    18400.00
03857              14.20    19200.00
03858              18.80    19200.00
03859             -25.00    20800.00
03860              25.00    20800.00
03861               4.60    21600.00
03862             -20.60    21600.00
03863              25.00    22400.00
03864             -18.20    22400.00
03865              -3.40    23200.00
03866               9.40    24000.00
03867              -6.60    24800.00
03868              -3.40    24000.00
03869              15.40    24800.00
03870             -11.80    24800.00
03871              -2.80    25600.00
03872              11.40    25600.00
03873             -14.00    27200.00
03874               4.20    27200.00
03875               4.00    27200.00
03876              -4.60    27200.00
03877              -0.60    28000.00
03878               2.20    28800.00
03879              -4.20    28800.00
03880              -1.00    28800.00
03881               4.00    29600.00
03882              -4.40    30400.00
03883              -1.20    29600.00
03884               1.80    30400.00
03885              -4.60    30400.00
03886               0.60    30400.00
03887               1.20    31200.00
03888              -4.40    31200.00
03889               1.20    31200.00
03890              -1.20    32000.00
03891              -3.80    32800.00
03892               0.20    31200.00
03893              -2.20    32800.00
03894              -1.20    32800.00
03895              -1.40    32800.00
03896              -3.40    33600.00
03897              -2.80    32800.00
03898              -3.20    33600.00
03899              -2.60    33600.00
03900              -3.00    32800.00
03901              -2.80    33600.00
03902              -5.00    33600.00
03903              -5.00    33600.00
03904              -4.20    33600.00
03905              -7.00    33600.00
03906              -5.80    33600.00
03907              -7.40    33600.00
03908              -8.60    33600.00
03909              -7.80    33600.00
03910             -11.80    33600.00
03911             -10.80    33600.00
03912             -12.00    33600.00
03913             -13.80    33600.00
03914             -12.60    33600.00
03915             -15.60    33600.00
03916             -15.60    33600.00
03917             -15.60    33600.00
03918             -19.80    33600.00
03919             -24.60    32800.00
03920             -20.40    32800.00
03921              -6.80    32800.00
03922             -10.00    32000.00
03923             -13.00    32800.00
03924              -8.20    32000.00
03925              -6.60    32000.00
03926              -7.80    32000.00
03927              -8.20    31200.00
03928              -5.00    31200.00
03929              -4.60    31200.00
03930              -6.80    31200.00
03931              -3.40    30400.00
03932              -2.00    30400.00
03933              -5.40    30400.00
03934              -2.80    29600.00
03935              -0.60    29600.00
03936              -2.80    28800.00
03937              -2.60    28800.00
03938              -0.60    28000.00
03939              -2.20    27200.00
03940              -2.60    28000.00
03941              -0.20    27200.00
03942              -2.20    27200.00
03943              -1.80    26400.00
03944               0.20    25600.00
03945              -1.20    25600.00
03946              -0.60    24800.00
03947              -0.40    24800.00
03948              -1.00    24800.00
03949              -0.40    24000.00
03950              -0.60    24000.00
03951              -0.40    24000.00
03952              -0.40    22400.00
03953              -0.60    22400.00
03954              -0.20    21600.00
03955              -0.60    21600.00
03956              -0.60    20800.00
03957              -0.80    20000.00
03958              -0.20    19200.00
03959               0.00    19200.00
03960              -0.60    18400.00
03961              -0.40    17600.00
03962              -0.40    17600.00
03963              -0.20    16000.00
03964               0.20    16800.00
03965              -0.60    16000.00
03966              -0.60    15200.00
03967              -0.40    14400.00
03968              -0.20    14400.00
03969              -0.60    12800.00
03970              -0.60    12800.00
03971              -0.60    12800.00
03972               0.20    12000.00
03973              -0.20    11200.00
03974              -0.60    11200.00
03975              -1.00    10400.00
03976               0.00     9600.00
03977              -0.60     8800.00
03978              -0.40     8800.00
03979              -0.40     8000.00
03980              -0.60     7200.00
03981              -0.40     7200.00
03982              -0.60     6400.00
03983              -0.60     5600.00
03984              -0.20     4800.00
03985              -0.60     4000.00
03986               0.20     3200.00
03987              -0.60     2400.00
03988              -1.00     2400.00
03989              -0.80     1600.00
03990               0.20     1600.00
03991              -0.40        0.00
03992              -0.20        0.00
03993               0.60     -800.00
03994               3.80    -1600.00
03995              -0.60    -1600.00
03996              -1.40    -2400.00
03997               1.80    -3200.00
03998               1.00    -2400.00
03999              -1.00    -4000.00
04000               3.80    -4000.00
04001              17.00    -6400.00
04002              23.00    -7200.00
04003             -25.00    -8000.00
04004             -24.80    -8000.00
04005              25.00    -8000.00
04006              -6.80    -8800.00
04007             -25.00    -8000.00
04008              25.00    -9600.00
04009              25.00   -10400.00
04010             -25.00    -9600.00
04011              25.00   -11200.00
04012              20.20   -11200.00
04013             -25.00   -12800.00
04014              25.00   -13600.00
04015             -21.80   -12800.00
04016              12.40   -14400.00
04017               1.20   -14400.00
04018             -25.00   -16000.00
04019              25.00   -16000.00
04020             -17.80   -16000.00
04021             -18.40   -16800.00
04022              25.00   -16800.00
04023              -5.00   -17600.00
04024             -25.00   -19200.00
04025              22.80   -18400.00
04026               4.20   -20000.00
04027             -25.00   -20000.00
04028              25.00   -20000.00
04029              -4.80   -20800.00
04030             -12.60   -20800.00
04031              17.40   -22400.00
04032             -11.60   -22400.00
04033              -4.20   -22400.00
04034              10.60   -23200.00
04035              -5.40   -24000.00
04036              -2.80   -24000.00
04037              12.20   -24000.00
04038             -11.80   -24800.00
04039               1.80   -25600.00
04040               7.60   -25600.00
04041             -11.40   -26400.00
04042               5.80   -26400.00
04043               3.40   -27200.00
04044              -5.40   -27200.00
04045               2.40   -27200.00
04046               2.80   -28800.00
04047              -4.60   -28800.00
04048               2.40   -28800.00
04049               2.40   -28800.00
04050              -4.40   -28800.00
04051               3.00   -29600.00
04052               0.60   -29600.00
04053              -2.60   -30400.00
04054               3.80   -30400.00
04055               0.60   -30400.00
04056              -1.80   -30400.00
04057               3.80   -31200.00
04058              -0.60   -32000.00
04059              -0.20   -32000.00
04060               3.00   -31200.00
04061               0.20   -32000.00
04062               2.60   -32000.00
04063               2.20   -32000.00
04064               1.20   -32800.00
04065               2.20   -32000.00
04066               2.60   -32800.00
04067               2.80   -32800.00
04068               3.60   -32800.00
04069               4.20   -32800.00
04070               3.40   -32800.00
04071               5.40   -32800.00
04072               5.80   -32800.00
04073               5.00   -32800.00
04074               8.40   -32800.00
04075               7.20   -32800.00
04076               8.60   -32800.00
04077              11.40   -32800.00
04078               9.80   -32800.00
04079              12.20   -32800.00
04080              13.40   -32800.00
04081              12.60   -32800.00
04082              14.20   -32800.00
04083              14.80   -32800.00
04084              17.20   -32800.00
04085              21.20   -32000.00
04086              24.20   -32000.00
04087              13.40   -32000.00
04088               5.80   -32000.00
04089              11.60   -32000.00
04090              10.80   -32000.00
04091               5.40   -32000.00
04092               6.20   -31200.00
04093               8.60   -31200.00
04094               6.40   -30400.00
04095               2.60   -30400.00
04096               5.00   -29600.00
04097               6.00   -29600.00
04098               0.60   -29600.00
04099               2.00   -28800.00
04100               5.80   -28800.00
04101               1.00   -28800.00
04102              -0.20   -28800.00
04103               3.40   -28000.00
04104               1.80   -27200.00
04105              -1.20   -27200.00
04106               2.60   -27200.00
04107               1.80   -26400.00
04108              -1.80   -26400.00
04109               0.40   -26400.00
04110               1.40   -25600.00
04111              -1.20   -25600.00
04112              -0.20   -24800.00
04113               1.40   -24000.00
04114              -0.20   -24000.00
04115              -1.20   -24000.00
04116               0.40   -23200.00
04117              -0.20   -23200.00
04118              -1.40   -22400.00
04119              -0.20   -22400.00
04120               0.40   -21600.00
04121               0.20   -20800.00
04122              -0.40   -20000.00
04123              -0.20   -19200.00
04124              -0.60   -20000.00
04125              -0.80   -18400.00
04126              -0.20   -18400.00
04127              -0.60   -17600.00
04128              -1.20   -17600.00
04129              -0.20   -16800.00
04130              -0.20   -16000.00
04131              -0.60   -16000.00
04132               0.00   -16000.00
04133              -0.20   -14400.00
04134              -0.60   -14400.00
04135              -0.20   -13600.00
04136              -0.40   -12800.00
04137              -1.20   -12800.00
04138              -0.20   -12000.00
04139               0.20   -11200.00
04140              -0.80   -10400.00
04141              -0.60   -10400.00
04142               0.20    -9600.00
04143              -0.60    -8800.00
04144              -0.60    -8000.00
04145              -0.40    -8000.00
04146              -0.40    -7200.00
04147              -0.20    -6400.00
04148              -0.40    -6400.00
04149              -0.40    -4800.00
04150              -0.40    -4800.00
04151              -0.20    -4000.00
04152              -0.60    -4000.00
04153              -0.40    -3200.00
04154              -0.60    -1600.00
04155              -0.60    -1600.00
04156              -0.60     -800.00
04157              -0.60     -800.00
04158              -0.20      800.00
04159               0.40        0.00
04160               0.60     1600.00
04161               3.60     2400.00
04162              -1.60     2400.00
04163              -1.20     2400.00
04164               1.20     3200.00
04165               0.40     4000.00
04166              -1.00     4800.00
04167              12.60     5600.00
04168              25.00     7200.00
04169             -25.00     8000.00
04170             -25.00     8000.00
04171              25.00     8800.00
04172              -1.80     8800.00
04173             -25.00     8800.00
04174              25.00     9600.00
04175              -8.20    11200.00
04176             -25.00    11200.00
04177              25.00    12000.00
04178             -25.00    11200.00
04179               6.60    12800.00
04180              25.00    12800.00
04181             -25.00    13600.00
04182              25.00    14400.00
04183             -25.00    15200.00
04184              -8.20    16000.00
04185              25.00    16000.00
04186             -25.00    16000.00
04187              15.80    16800.00
04188              25.00    17600.00
04189             -25.00    18400.00
04190             -15.00    18400.00
04191              25.00    19200.00
04192             -23.40    20000.00
04193             -13.40    20800.00
04194              25.00    20800.00
04195             -25.00    21600.00
04196              11.00    22400.00
04197               8.40    22400.00
04198             -21.40    22400.00
04199              10.20    23200.00
04200               4.20    24000.00
04201             -11.40    24000.00
04202               9.00    24800.00
04203               6.60    24800.00
04204             -18.80    25600.00
04205              13.80    25600.00
04206              -4.60    26400.00
04207              -8.60    27200.00
04208              10.80    27200.00
04209              -4.20    27200.00
04210              -2.60    28000.00
04211               3.40    28000.00
04212              -1.40    28000.00
04213              -5.00    28800.00
04214               4.40    28800.00
04215              -1.80    29600.00
04216              -3.80    29600.00
04217               2.80    30400.00
04218              -2.80    30400.00
04219              -2.20    30400.00
04220               3.00    31200.00
04221              -4.20    31200.00
04222              -1.20    31200.00
04223               1.00    31200.00
04224              -4.40    32000.00
04225               0.20    32800.00
04226              -2.20    32800.00
04227              -2.80    32800.00
04228               0.60    32000.00
04229              -2.20    32800.00
04230              -3.00    32800.00
04231              -3.20    33600.00
04232              -3.40    33600.00
04233              -3.00    32800.00
04234              -3.00    33600.00
04235              -3.60    33600.00
04236              -5.20    33600.00
04237              -3.40    33600.00
04238              -6.40    33600.00
04239              -6.80    33600.00
04240              -5.40    33600.00
04241              -9.80    33600.00
04242              -7.00    33600.00
04243              -8.60    33600.00
04244             -12.60    33600.00
04245             -10.60    32800.00
04246             -12.60    33600.00
04247             -13.80    33600.00
04248             -14.00    33600.00
04249             -15.00    32800.00
04250             -15.80    32800.00
04251             -17.80    32800.00
04252             -22.00    33600.00
04253             -25.00    32800.00
04254             -12.40    32800.00
04255              -6.00    32800.00
04256             -13.20    32800.00
04257             -10.40    32000.00
04258              -7.00    32000.00
04259              -7.60    32000.00
04260              -7.40    31200.00
04261              -6.60    32000.00
04262              -3.80    31200.00
04263              -5.40    31200.00
04264              -5.80    30400.00
04265              -2.00    30400.00
04266              -3.80    30400.00
04267              -5.00    29600.00
04268              -1.40    29600.00
04269              -2.20    28800.00
04270              -2.80    28800.00
04271              -1.20    28800.00
04272              -1.40    28000.00
04273              -2.00    27200.00
04274              -0.60    27200.00
04275              -1.80    27200.00
04276              -2.00    27200.00
04277               0.20    26400.00
04278              -1.20    25600.00
04279              -1.00    25600.00
04280               0.20    24800.00
04281              -1.80    24800.00
04282              -0.60    24800.00
04283              -0.40    24000.00
04284              -1.00    24000.00
04285              -0.40    23200.00
04286              -1.20    22400.00
04287              -0.40    21600.00
04288               0.00    21600.00
04289              -0.40    21600.00
04290              -0.40    20800.00
04291              -0.20    20000.00
04292              -0.20    19200.00
04293              -0.60    18400.00
04294              -0.60    18400.00
04295              -0.40    17600.00
04296              -0.60    17600.00
04297               0.20    16800.00
04298              -0.60    16000.00
04299              -1.20    15200.00
04300              -0.60    15200.00
04301              -0.40    14400.00
04302              -0.60    14400.00
04303              -0.40    13600.00
04304              -1.00    12800.00
04305               0.20    12000.00
04306               0.20    12000.00
04307              -0.40    11200.00
04308              -1.20    10400.00
04309              -0.20     9600.00
04310              -0.60     9600.00
04311              -1.20     8800.00
04312              -0.40     8000.00
04313              -0.60     8000.00
04314              -0.40     6400.00
04315               0.00     6400.00
04316              -0.60     5600.00
04317              -0.60     4800.00
04318              -0.40     4800.00
04319              -0.60     3200.00
04320              -0.40     3200.00
04321              -0.20     2400.00
04322              -1.00     1600.00
04323              -0.40     1600.00
04324               0.20      800.00
04325              -0.20        0.00
04326              -0.20     -800.00
04327               2.00    -1600.00
04328               2.60    -1600.00
04329              -2.20    -1600.00
04330               0.20    -2400.00
04331               1.80    -3200.00
04332              -0.60    -3200.00
04333               0.40    -4000.00
04334               9.20    -4800.00
04335              25.00    -6400.00
04336              -7.80    -7200.00
04337             -25.00    -7200.00
04338               9.40    -8000.00
04339              21.60    -8800.00
04340             -25.00    -8800.00
04341              -8.20    -8800.00
04342              25.00   -10400.00
04343             -25.00   -10400.00
04344             -21.40   -11200.00
04345              25.00   -12000.00
04346             -25.00   -12800.00
04347               6.00   -12800.00
04348              21.00   -12800.00
04349             -20.60   -14400.00
04350              25.00   -14400.00
04351             -25.00   -14400.00
04352              15.40   -16000.00
04353              22.60   -16000.00
04354             -25.00   -16800.00
04355              14.80   -17600.00
04356              21.20   -17600.00
04357             -25.00   -17600.00
04358              -3.80   -18400.00
04359              25.00   -19200.00
04360             -25.00   -20000.00
04361               3.80   -20000.00
04362              22.80   -20800.00
04363             -23.00   -20800.00
04364              10.00   -22400.00
04365               3.60   -22400.00
04366             -13.80   -22400.00
04367               7.40   -23200.00
04368               4.40   -24000.00
04369              -9.40   -24000.00
04370              10.20   -24800.00
04371               0.20   -24800.00
04372             -11.40   -25600.00
04373              11.40   -25600.00
04374              -5.20   -26400.00
04375              -3.60   -26400.00
04376               8.40   -26400.00
04377              -3.80   -27200.00
04378              -2.80   -27200.00
04379               4.20   -28000.00
04380              -1.80   -28000.00
04381              -1.20   -28800.00
04382               4.20   -28800.00
04383              -2.20   -28800.00
04384              -0.60   -28800.00
04385               3.40   -29600.00
04386              -2.20   -29600.00
04387               0.60   -30400.00
04388               3.40   -31200.00
04389              -2.60   -30400.00
04390               2.00   -30400.00
04391               2.60   -32000.00
04392              -1.80   -32000.00
04393               2.00   -32000.00
04394               1.00   -32000.00
04395               1.60   -32000.00
04396               3.60   -32000.00
04397               1.20   -32800.00
04398               1.20   -32800.00
04399               2.60   -32800.00
04400               2.60   -32800.00
04401               3.00   -32000.00
04402               3.80   -32800.00
04403               4.20   -32800.00
04404               4.20   -32800.00
04405               5.80   -32800.00
04406               5.20   -33600.00
04407               6.20   -32800.00
04408               7.40   -32800.00
04409               7.60   -32800.00
04410              11.60   -33600.00
04411              10.60   -32800.00
04412              10.60   -32800.00
04413              13.20   -32800.00
04414              13.00   -32800.00
04415              14.00   -32800.00
04416              14.40   -32800.00
04417              15.80   -32800.00
04418              19.00   -32000.00
04419              23.40   -32800.00
04420              20.40   -32000.00
04421               7.00   -32000.00
04422               8.40   -32000.00
04423              12.60   -32000.00
04424               7.80   -32000.00
04425               5.20   -31200.00
04426               7.60   -31200.00
04427               7.60   -30400.00
04428               4.20   -30400.00
04429               3.80   -30400.00
04430               6.20   -29600.00
04431               3.00   -30400.00
04432               1.00   -29600.00
04433               3.80   -29600.00
04434               2.60   -28800.00
04435              -0.40   -28800.00
04436               2.60   -28800.00
04437               1.80   -28000.00
04438              -0.40   -28000.00
04439               1.00   -27200.00
04440               1.60   -27200.00
04441               0.20   -26400.00
04442               0.40   -25600.00
04443               0.40   -25600.00
04444              -0.40   -25600.00
04445               0.20   -25600.00
04446               0.20   -24800.00
04447              -0.20   -24000.00
04448               0.20   -24000.00
04449              -0.40   -23200.00
04450              -0.20   -23200.00
04451              -0.20   -22400.00
04452              -0.60   -22400.00
04453              -0.20   -21600.00
04454              -0.40   -21600.00
04455              -0.20   -20800.00
04456              -0.40   -20000.00
04457              -0.60   -18400.00
04458              -0.20   -19200.00
04459              -0.20   -18400.00
04460              -0.40   -18400.00
04461              -0.60   -17600.00
04462              -0.20   -17600.00
04463              -0.40   -16800.00
04464              -1.00   -16000.00
04465              -0.40   -15200.00
04466               0.20   -14400.00
04467              -1.00   -14400.00
04468              -0.60   -13600.00
04469               0.20   -12800.00
04470              -1.00   -12800.00
04471              -1.00   -12000.00
04472               0.40   -11200.00
04473              -0.40   -10400.00
04474              -0.80   -10400.00
04475               0.40    -9600.00
04476              -0.60    -8800.00
04477              -0.60    -8000.00
04478               0.20    -8000.00
04479              -0.40    -7200.00
04480              -0.60    -7200.00
04481              -0.60    -6400.00
04482              -0.60    -5600.00
04483               0.20    -4800.00
04484              -1.00    -4000.00
04485              -1.00    -4000.00
04486               0.40    -3200.00
04487              -1.20    -2400.00
04488              -0.40    -1600.00
04489               0.20    -1600.00
04490              -1.00     -800.00
04491               0.20        0.00
04492               0.20        0.00
04493              -0.20     1600.00
04494               2.20     1600.00
04495               2.20     1600.00
04496              -3.00     2400.00
04497              -0.20     3200.00
04498               1.20     3200.00
04499              -1.00     4800.00
04500               4.80     4800.00
04501              25.00     6400.00
04502               8.60     7200.00
04503             -25.00     8000.00
04504               0.60     8000.00
04505              25.00     8000.00
04506             -25.00     8000.00
04507              12.40     9600.00
04508              25.00    10400.00
04509             -25.00    11200.00
04510              25.00    12000.00
04511              25.00    12000.00
04512             -25.00    12000.00
04513              25.00    12800.00
04514             -25.00    13600.00
04515              22.80    14400.00
04516              25.00    14400.00
04517             -25.00    15200.00
04518              25.00    16000.00
04519             -10.20    16000.00
04520             -25.00    16000.00
04521              25.00    17600.00
04522              -4.40    17600.00
04523             -25.00    18400.00
04524              16.80    19200.00
04525              17.20    19200.00
04526             -25.00    20000.00
04527              25.00    20800.00
04528               2.60    20800.00
04529             -19.80    21600.00
04530              25.00    22400.00
04531             -18.20    22400.00
04532              -3.00    23200.00
04533               9.80    23200.00
04534              -6.00    24000.00
04535              -3.80    24000.00
04536              15.60    24800.00
04537             -12.40    25600.00
04538              -1.80    25600.00
04539              10.40    26400.00
04540             -15.00    26400.00
04541               6.80    27200.00
04542               3.00    27200.00
04543              -5.80    27200.00
04544               1.80    28000.00
04545               2.00    28800.00
04546              -5.20    28800.00
04547               0.20    28800.00
04548               2.60    28800.00
04549              -4.60    29600.00
04550               0.40    30400.00
04551               0.40    30400.00
04552              -4.60    30400.00
04553               2.60    31200.00
04554              -0.60    31200.00
04555              -4.20    31200.00
04556               2.60    31200.00
04557              -3.80    32000.00
04558              -2.80    32000.00
04559               0.60    32800.00
04560              -4.40    32800.00
04561              -0.80    32000.00
04562              -0.80    32800.00
04563              -3.60    32800.00
04564              -2.80    32800.00
04565              -3.00    33600.00
04566              -3.00    33600.00
04567              -3.80    32800.00
04568              -2.80    33600.00
04569              -4.80    33600.00
04570              -4.60    33600.00
04571              -4.20    33600.00
04572              -7.60    33600.00
04573              -5.60    33600.00
04574              -7.60    33600.00
04575              -9.00    33600.00
04576              -7.00    33600.00
04577             -12.20    33600.00
04578             -11.60    33600.00
04579             -11.20    33600.00
04580             -13.60    33600.00
04581             -13.20    33600.00
04582             -14.80    33600.00
04583             -15.40    33600.00
04584             -16.60    32800.00
04585             -19.60    32800.00
04586             -24.60    32800.00
04587             -20.40    32000.00
04588              -6.00    32800.00
04589             -10.00    32000.00
04590             -14.80    32000.00
04591              -7.40    32000.00
04592              -5.60    32800.00
04593              -8.60    32000.00
04594              -7.60    31200.00
04595              -3.80    31200.00
04596              -5.40    31200.00
04597              -6.40    30400.00
04598              -2.00    30400.00
04599              -2.80    30400.00
04600              -5.20    30400.00
04601              -2.20    29600.00
04602              -1.20    28800.00
04603              -3.40    28800.00
04604              -2.60    28800.00
04605              -1.00    28800.00
04606              -1.80    28000.00
04607              -1.00    28000.00
04608              -0.60    27200.00
04609              -2.80    27200.00
04610              -0.80    26400.00
04611              -0.20    25600.00
04612              -1.20    25600.00
04613               0.40    25600.00
04614              -1.20    24800.00
04615              -1.80    24000.00
04616               0.20    24000.00
04617              -1.00    24000.00
04618              -1.00    23200.00
04619               0.20    22400.00
04620              -0.60    22400.00
04621              -0.80    21600.00
04622              -0.20    21600.00
04623              -0.80    20800.00
04624              -1.00    19200.00
04625              -0.20    20000.00
04626              -0.40    18400.00
04627              -0.60    18400.00
04628              -0.40    18400.00
04629              -1.00    17600.00
04630               0.20    16800.00
04631              -0.20    16000.00
04632              -1.20    16000.00
04633              -0.20    15200.00
04634              -0.60    15200.00
04635              -0.80    14400.00
04636              -0.20    13600.00
04637              -1.00    12800.00
04638              -0.60    12800.00
04639              -0.20    12000.00
04640              -0.60    12000.00
04641              -0.40    11200.00
04642              -1.00     9600.00
04643              -0.20     9600.00
04644              -0.80     8800.00
04645              -0.40     8000.00
04646              -0.20     8000.00
04647              -0.80     8000.00
04648              -0.40     6400.00
04649              -0.40     5600.00
04650              -0.60     5600.00
04651               0.00     4800.00
04652              -0.60     4000.00
04653              -0.20     3200.00
04654              -0.20     3200.00
04655              -0.60     2400.00
04656              -0.60     1600.00
04657               0.00     1600.00
04658              -0.40        0.00
04659               0.00        0.00
04660               1.00     -800.00
04661               3.80     -800.00
04662              -0.40    -1600.00
04663              -1.20    -2400.00
04664               1.40    -3200.00
04665               1.20    -3200.00
04666              -0.60    -4000.00
04667               3.40    -4000.00
04668              17.40    -4800.00
04669              22.20    -6400.00
04670             -25.00    -8000.00
04671             -22.80    -8000.00
04672              25.00    -8000.00
04673              -8.40    -8800.00
04674             -25.00    -8000.00
04675              25.00    -9600.00
04676              25.00   -10400.00
04677             -25.00   -10400.00
04678              25.00   -11200.00
04679              15.40   -12000.00
04680             -25.00   -12000.00
04681              25.00   -12800.00
04682             -23.40   -13600.00
04683              14.00   -14400.00
04684              -0.60   -14400.00
04685             -25.00   -14400.00
04686              25.00   -16000.00
04687             -19.80   -16000.00
04688             -16.20   -16800.00
04689              25.00   -16800.00
04690              -6.80   -17600.00
04691             -24.60   -17600.00
04692              23.40   -19200.00
04693               1.20   -20000.00
04694             -25.00   -20000.00
04695              25.00   -20800.00
04696              -7.00   -20800.00
04697             -11.60   -21600.00
04698              17.00   -22400.00
04699             -12.60   -22400.00
04700              -3.00   -23200.00
04701              10.20   -23200.00
04702              -6.20   -24000.00
04703              -1.60   -24000.00
04704              11.80   -24000.00
04705             -12.40   -24800.00
04706               2.60   -25600.00
04707               6.60   -25600.00
04708             -11.00   -26400.00
04709               5.80   -26400.00
04710               2.60   -27200.00
04711              -4.80   -27200.00
04712               2.20   -28000.00
04713               2.60   -28800.00
04714              -3.80   -28800.00
04715               2.00   -28800.00
04716               2.00   -28800.00
04717              -3.40   -28800.00
04718               3.40   -29600.00
04719               0.40   -29600.00
04720              -1.80   -29600.00
04721               3.80   -30400.00
04722               0.20   -30400.00
04723              -1.40   -30400.00
04724               3.60   -31200.00
04725              -1.00   -30400.00
04726               0.20   -32000.00
04727               2.80   -32000.00
04728               0.60   -32000.00
04729               2.60   -32000.00
04730               2.00   -32800.00
04731               1.40   -32000.00
04732               2.00   -32800.00
04733               2.00   -32800.00
04734               2.80   -32000.00
04735               3.40   -32800.00
04736               4.60   -32000.00
04737               3.80   -32800.00
04738               5.40   -32800.00
04739               5.80   -32800.00
04740               4.60   -32800.00
04741               8.20   -32800.00
04742               7.40   -32800.00
04743               8.60   -32800.00
04744              11.00   -32800.00
04745              10.20   -32800.00
04746              12.40   -32800.00
04747              13.20   -32800.00
04748              13.00   -32800.00
04749              14.00   -32800.00
04750              14.80   -32800.00
04751              17.00   -32000.00
04752              21.40   -32800.00
04753              24.40   -32800.00
04754              13.00   -32000.00
04755               5.60   -32000.00
04756              12.20   -32000.00
04757              10.40   -32000.00
04758               5.40   -31200.00
04759               6.20   -30400.00
04760               7.60   -31200.00
04761               5.60   -30400.00
04762               3.00   -30400.00
04763               5.20   -29600.00
04764               5.00   -29600.00
04765               1.80   -29600.00
04766               2.80   -29600.00
04767               4.20   -28800.00
04768               0.40   -28800.00
04769               1.00   -28800.00
04770               2.60   -28800.00
04771               0.60   -28000.00
04772               0.20   -27200.00
04773               2.00   -27200.00
04774               0.40   -27200.00
04775              -0.20   -26400.00
04776               0.80   -26400.00
04777               0.20   -25600.00
04778              -0.60   -25600.00
04779               0.40   -25600.00
04780               0.20   -24000.00
04781              -0.60   -24000.00
04782               0.40   -24000.00
04783               0.40   -23200.00
04784              -0.60   -22400.00
04785              -0.20   -22400.00
04786               0.40   -22400.00
04787              -1.40   -21600.00
04788               0.20   -20800.00
04789              -0.40   -20800.00
04790              -1.20   -20000.00
04791              -0.20   -18400.00
04792              -0.40   -19200.00
04793              -0.20   -18400.00
04794               0.00   -17600.00
04795              -0.60   -17600.00
04796              -0.20   -16800.00
04797              -0.60   -16000.00
04798              -1.20   -16000.00
04799               1.20   -15200.00
04800              -0.60   -14400.00
04801              -1.20   -13600.00
04802               0.60   -13600.00
04803              -1.20   -12800.00
04804              -1.20   -12800.00
04805               0.60   -11200.00
04806              -0.60   -11200.00
04807              -1.20   -10400.00
04808               0.60   -10400.00
04809              -1.00    -9600.00
04810              -1.20    -9600.00
04811               0.60    -8800.00
04812              -1.00    -7200.00
04813              -0.40    -7200.00
04814               0.60    -6400.00
04815              -1.20    -6400.00
04816              -0.40    -4800.00
04817              -0.40    -4800.00
04818              -1.80    -4000.00
04819               0.20    -3200.00
04820              -0.20    -3200.00
04821              -1.40    -2400.00
04822              -0.40    -1600.00
04823              -0.40     -800.00
04824              -1.00        0.00
04825               0.40        0.00
04826               0.40      800.00
04827              -0.20     1600.00
04828               3.60     1600.00
04829              -1.40     2400.00
04830              -2.00     2400.00
04831               1.80     3200.00
04832               0.20     4000.00
04833              -1.00     4000.00
04834              14.00     5600.00
04835              25.00     7200.00
04836             -25.00     8000.00
04837             -25.00     8000.00
04838              25.00     8800.00
04839              -3.80     8800.00
04840             -25.00     8800.00
04841              25.00    10400.00
04842             -13.80     9600.00
04843             -25.00    11200.00
04844              25.00    11200.00
04845             -25.00    12000.00
04846              11.00    13600.00
04847              25.00    12800.00
04848             -25.00    13600.00
04849              25.00    14400.00
04850             -25.00    14400.00
04851              -1.80    15200.00
04852              25.00    16000.00
04853             -25.00    16000.00
04854              20.40    17600.00
04855              25.00    18400.00
04856             -25.00    17600.00
04857             -11.80    19200.00
04858              25.00    19200.00
04859             -23.40    20000.00
04860              -9.40    20800.00
04861              25.00    21600.00
04862             -25.00    21600.00
04863              13.20    22400.00
04864               4.20    22400.00
04865             -18.80    22400.00
04866              11.20    24000.00
04867               2.00    24000.00
04868             -10.20    24800.00
04869               9.80    24800.00
04870               3.60    25600.00
04871             -16.80    25600.00
04872              14.60    25600.00
04873              -5.80    26400.00
04874              -6.60    27200.00
04875              10.00    26400.00
04876              -5.00    28000.00
04877              -2.00    28000.00
04878               3.00    28000.00
04879              -1.80    28800.00
04880              -3.80    28800.00
04881               4.20    29600.00
04882              -2.60    28800.00
04883              -3.40    30400.00
04884               2.20    30400.00
04885              -3.60    30400.00
04886              -1.40    30400.00
04887               3.40    30400.00
04888              -4.40    30400.00
04889              -0.40    31200.00
04890               0.40    32000.00
04891              -5.00    32000.00
04892               0.40    32800.00
04893              -2.20    32000.00
04894              -2.80    32000.00
04895               0.00    32800.00
04896              -2.80    33600.00
04897              -3.40    32800.00
04898              -3.00    33600.00
04899              -3.20    32800.00
04900              -3.40    33600.00
04901              -3.00    33600.00
04902              -3.40    33600.00
04903              -6.00    33600.00
04904              -3.40    33600.00
04905              -6.00    33600.00
04906              -7.40    33600.00
04907              -5.40    33600.00
04908              -9.20    33600.00
04909              -7.60    33600.00
04910              -9.40    33600.00
04911             -12.40    33600.00
04912             -10.60    33600.00
04913             -12.60    33600.00
04914             -13.40    33600.00
04915             -14.00    32800.00
04916             -15.00    33600.00
04917             -16.20    32800.00
04918             -18.00    33600.00
04919             -21.40    32800.00
04920             -25.00    32000.00
04921             -12.40    32800.00
04922              -5.40    33600.00
04923             -13.20    32000.00
04924             -10.20    32000.00
04925              -6.60    32000.00
04926              -7.80    32000.00
04927              -7.80    31200.00
04928              -6.00    31200.00
04929              -4.40    31200.00
04930              -5.80    30400.00
04931              -5.20    31200.00
04932              -2.20    30400.00
04933              -3.40    29600.00
04934              -4.60    30400.00
04935              -1.80    28800.00
04936              -1.80    29600.00
04937              -3.20    28800.00
04938              -1.20    28000.00
04939              -1.00    28000.00
04940              -2.60    27200.00
04941              -0.60    27200.00
04942              -0.40    27200.00
04943              -2.20    26400.00
04944              -0.60    26400.00
04945              -0.40    25600.00
04946              -1.20    24800.00
04947              -1.00    24800.00
04948              -1.00    24800.00
04949              -1.00    24000.00
04950              -0.60    23200.00
04951              -0.60    23200.00
04952              -0.40    23200.00
04953              -1.00    22400.00
04954              -0.40    21600.00
04955              -0.40    21600.00
04956              -1.00    21600.00
04957              -1.00    20800.00
04958              -0.60    20000.00
04959              -0.20    19200.00
04960              -1.00    18400.00
04961              -0.60    18400.00
04962              -0.60    18400.00
04963              -1.00    16800.00
04964               0.00    16800.00
04965              -0.60    16000.00
04966              -0.60    15200.00
04967              -0.20    15200.00
04968              -0.40    14400.00
04969              -0.40    14400.00
04970              -0.60    13600.00
04971              -0.60    12800.00
04972              -0.40    12000.00
04973              -0.40    12000.00
04974              -0.60    11200.00
04975              -1.00    10400.00
04976              -0.60     9600.00
04977               0.20     9600.00
04978              -0.60     8800.00
04979              -0.20     8000.00
04980              -0.40     7200.00
04981              -0.60     7200.00
04982               0.00     6400.00
04983              -0.40     5600.00
04984              -0.40     5600.00
04985              -0.20     4800.00
04986              -0.20     3200.00
04987              -0.20     3200.00
04988              -0.40     2400.00
04989              -1.00     2400.00
04990              -0.40     1600.00
04991               0.20      800.00
04992              -0.20      800.00
04993               0.20        0.00
04994               2.60     -800.00
04995               2.60    -1600.00
04996              -2.00    -1600.00
04997               1.00    -2400.00
04998               1.40    -3200.00
04999              -0.20    -4000.00
05000               0.60    -4000.00
