Unit:(mV)
                     CH1         CH2
Frequency              ? 299.811 kHz
00001             -25.00    -8000.00
00002               8.20    -8000.00
00003              21.80    -8000.00
00004             -25.00    -8800.00
00005              -3.40    -9600.00
00006              25.00   -10400.00
00007             -25.00    -9600.00
00008              -7.00   -10400.00
00009              25.00   -12000.00
00010             -25.00   -12000.00
00011              16.40   -12800.00
00012              16.40   -13600.00
00013             -19.80   -13600.00
00014              25.00   -14400.00
00015             -25.00   -14400.00
00016              18.20   -16000.00
00017              19.20   -16000.00
00018             -25.00   -16000.00
00019              19.60   -16800.00
00020              16.20   -17600.00
00021             -25.00   -17600.00
00022               2.40   -18400.00
00023              24.20   -19200.00
00024             -25.00   -19200.00
00025              10.20   -20000.00
00026              18.80   -20000.00
00027             -22.00   -20800.00
00028              13.20   -21600.00
00029               0.60   -22400.00
00030             -11.80   -22400.00
00031               8.60   -23200.00
00032               3.60   -23200.00
00033              -7.60   -24000.00
00034              10.60   -24000.00
00035              -0.40   -24800.00
00036              -8.60   -24800.00
00037              11.00   -25600.00
00038              -5.40   -25600.00
00039              -0.60   -26400.00
00040               7.00   -26400.00
00041              -3.00   -27200.00
00042               0.20   -27200.00
00043               3.60   -27200.00
00044              -0.60   -28000.00
00045               0.40   -28800.00
00046               4.40   -28800.00
00047              -1.20   -28800.00
00048               0.40   -29600.00
00049               3.00   -29600.00
00050              -1.40   -29600.00
00051               2.00   -30400.00
00052               3.60   -29600.00
00053              -0.80   -30400.00
00054               2.80   -31200.00
00055               2.00   -31200.00
00056               0.00   -30400.00
00057               2.80   -31200.00
00058               1.80   -32000.00
00059               2.20   -32000.00
00060               3.00   -32000.00
00061               1.80   -32000.00
00062               2.60   -32000.00
00063               2.80   -32000.00
00064               3.40   -32800.00
00065               3.60   -32000.00
00066               4.80   -32800.00
00067               4.60   -33600.00
00068               5.00   -32800.00
00069               7.00   -32800.00
00070               5.40   -32800.00
00071               7.20   -32800.00
00072               9.00   -32800.00
00073               8.20   -32800.00
00074              10.80   -33600.00
00075              10.80   -32800.00
00076              11.40   -32000.00
00077              13.80   -32800.00
00078              13.40   -32800.00
00079              14.20   -32800.00
00080              15.40   -32000.00
00081              16.20   -32000.00
00082              18.00   -32000.00
00083              22.20   -32000.00
00084              21.80   -32000.00
00085              10.00   -32000.00
00086               8.40   -32000.00
00087              12.80   -31200.00
00088               9.40   -31200.00
00089               6.60   -31200.00
00090               7.40   -30400.00
00091               8.40   -30400.00
00092               6.00   -30400.00
00093               4.00   -30400.00
00094               6.20   -29600.00
00095               5.20   -29600.00
00096               2.40   -29600.00
00097               4.00   -28800.00
00098               4.20   -28800.00
00099               1.40   -28800.00
00100               2.20   -28000.00
00101               3.60   -28000.00
00102               0.40   -27200.00
00103               1.20   -27200.00
00104               2.40   -26400.00
00105               0.60   -26400.00
00106               1.00   -26400.00
00107               1.80   -25600.00
00108               0.40   -25600.00
00109               1.20   -24800.00
00110               1.00   -24000.00
00111               0.40   -24000.00
00112               1.00   -24000.00
00113               0.40   -23200.00
00114               0.40   -23200.00
00115               0.40   -22400.00
00116               0.00   -21600.00
00117               0.20   -22400.00
00118               0.20   -20800.00
00119               0.40   -20800.00
00120               0.20   -20800.00
00121              -0.20   -20000.00
00122               0.20   -18400.00
00123              -0.40   -19200.00
00124               0.40   -17600.00
00125              -0.20   -17600.00
00126               0.20   -16800.00
00127              -0.20   -16000.00
00128              -0.20   -16000.00
00129               0.20   -16000.00
00130              -0.20   -15200.00
00131              -0.40   -14400.00
00132               0.00   -13600.00
00133              -0.40   -12800.00
00134              -0.20   -12800.00
00135              -0.40   -12800.00
00136              -0.20   -11200.00
00137               0.20   -11200.00
00138              -0.40   -10400.00
00139              -0.40   -10400.00
00140              -0.40    -9600.00
00141              -0.20    -8800.00
00142               0.20    -8000.00
00143              -0.20    -8000.00
00144               0.20    -7200.00
00145              -0.40    -6400.00
00146              -0.40    -5600.00
00147              -0.40    -5600.00
00148              -0.20    -4800.00
00149              -0.60    -4000.00
00150              -0.20    -3200.00
00151              -0.40    -3200.00
00152              -0.60    -1600.00
00153              -0.20    -1600.00
00154              -0.40     -800.00
00155              -0.40     -800.00
00156               0.20        0.00
00157               0.20      800.00
00158               2.00     1600.00
00159               2.60     2400.00
00160              -2.60     1600.00
00161               0.20     3200.00
00162               1.20     3200.00
00163              -1.20     4000.00
00164               3.80     4800.00
00165              25.00     5600.00
00166              12.60     6400.00
00167             -25.00     8000.00
00168              -3.80     8000.00
00169              25.00     8000.00
00170             -25.00     8000.00
00171              13.40     9600.00
00172              25.00     9600.00
00173             -25.00    10400.00
00174              25.00    11200.00
00175              25.00    11200.00
00176             -25.00    12000.00
00177              25.00    12800.00
00178             -25.00    12800.00
00179              18.80    14400.00
00180              25.00    14400.00
00181             -25.00    14400.00
00182              25.00    15200.00
00183             -12.20    16000.00
00184             -25.00    16000.00
00185              25.00    16000.00
00186             -10.20    17600.00
00187             -23.60    18400.00
00188              17.40    18400.00
00189              12.40    19200.00
00190             -25.00    19200.00
00191              25.00    20800.00
00192               0.20    20800.00
00193             -18.80    21600.00
00194              25.00    21600.00
00195             -21.60    22400.00
00196              -1.20    22400.00
00197               8.00    23200.00
00198              -8.20    24000.00
00199              -1.80    24000.00
00200              13.00    24800.00
00201             -12.40    24800.00
00202              -1.40    24800.00
00203               8.60    25600.00
00204             -15.40    27200.00
00205               7.60    26400.00
00206               0.20    27200.00
00207              -5.40    28000.00
00208               2.60    27200.00
00209              -1.80    28800.00
00210              -4.20    28000.00
00211               0.20    28800.00
00212               0.60    28800.00
00213              -5.00    29600.00
00214               0.40    28800.00
00215              -1.20    29600.00
00216              -5.20    30400.00
00217               2.20    30400.00
00218              -1.80    30400.00
00219              -4.00    31200.00
00220               1.40    31200.00
00221              -4.40    31200.00
00222              -2.60    31200.00
00223              -1.00    32000.00
00224              -4.60    32800.00
00225              -0.60    32000.00
00226              -2.00    32000.00
00227              -3.80    32800.00
00228              -2.80    32800.00
00229              -4.20    32800.00
00230              -3.80    32800.00
00231              -3.80    33600.00
00232              -3.60    32800.00
00233              -5.60    32800.00
00234              -5.20    33600.00
00235              -4.40    33600.00
00236              -8.20    32800.00
00237              -6.20    32800.00
00238              -8.40    33600.00
00239              -9.40    33600.00
00240              -7.60    33600.00
00241             -12.40    33600.00
00242             -12.20    33600.00
00243             -12.40    32800.00
00244             -14.20    33600.00
00245             -14.00    32800.00
00246             -15.60    32800.00
00247             -16.20    33600.00
00248             -16.80    32800.00
00249             -18.80    32800.00
00250             -23.00    32000.00
00251             -22.00    32800.00
00252              -9.40    32000.00
00253              -9.20    32000.00
00254             -13.20    32000.00
00255              -9.80    32000.00
00256              -7.60    32000.00
00257              -8.20    31200.00
00258              -8.60    31200.00
00259              -6.20    31200.00
00260              -5.20    30400.00
00261              -7.20    30400.00
00262              -5.00    30400.00
00263              -3.00    29600.00
00264              -5.20    29600.00
00265              -4.40    28800.00
00266              -2.20    28800.00
00267              -3.00    28800.00
00268              -3.60    28000.00
00269              -1.80    28000.00
00270              -1.80    28000.00
00271              -3.00    27200.00
00272              -1.20    27200.00
00273              -2.00    26400.00
00274              -2.80    25600.00
00275              -1.00    25600.00
00276              -1.80    25600.00
00277              -1.40    25600.00
00278              -1.20    24800.00
00279              -1.80    24000.00
00280              -1.00    24000.00
00281              -0.80    24000.00
00282              -1.40    23200.00
00283              -1.00    22400.00
00284              -0.60    22400.00
00285              -1.00    21600.00
00286              -1.00    20800.00
00287              -0.60    20000.00
00288              -1.20    20000.00
00289              -0.80    20000.00
00290              -0.60    19200.00
00291              -1.20    18400.00
00292              -0.60    17600.00
00293              -1.00    17600.00
00294              -1.00    16800.00
00295              -0.40    16000.00
00296              -1.20    16000.00
00297              -0.80    15200.00
00298              -0.60    14400.00
00299              -0.60    13600.00
00300              -0.60    14400.00
00301              -0.60    12800.00
00302              -1.00    12800.00
00303              -0.40    12000.00
00304              -0.60    11200.00
00305              -0.60    11200.00
00306              -1.20    10400.00
00307              -0.20     9600.00
00308              -0.60     8800.00
00309              -0.60     8000.00
00310              -0.60     8000.00
00311              -0.60     7200.00
00312              -0.20     6400.00
00313              -0.80     5600.00
00314              -0.60     5600.00
00315               0.20     4800.00
00316              -1.20     4000.00
00317              -0.60     3200.00
00318               0.60     3200.00
00319              -1.40     1600.00
00320              -1.40     1600.00
00321               0.60     1600.00
00322              -0.80      800.00
00323              -0.40     -800.00
00324               1.20     -800.00
00325               2.80    -1600.00
00326               0.40    -1600.00
00327              -1.20    -1600.00
00328               0.60    -3200.00
00329               1.20    -3200.00
00330              -0.20    -3200.00
00331               2.60    -4800.00
00332              16.60    -4800.00
00333              24.60    -7200.00
00334             -25.00    -8000.00
00335             -25.00    -8000.00
00336              25.00    -8000.00
00337              -5.80    -8000.00
00338             -25.00    -8000.00
00339              25.00    -9600.00
00340              25.00   -10400.00
00341             -25.00   -10400.00
00342              25.00   -11200.00
00343              10.80   -11200.00
00344             -25.00   -12800.00
00345              25.00   -12800.00
00346             -25.00   -13600.00
00347              15.00   -14400.00
00348               1.80   -14400.00
00349             -25.00   -14400.00
00350              25.00   -16000.00
00351             -20.20   -16800.00
00352             -14.00   -16800.00
00353              25.00   -16800.00
00354              -8.60   -17600.00
00355             -21.20   -19200.00
00356              24.20   -18400.00
00357              -1.20   -19200.00
00358             -23.80   -20000.00
00359              25.00   -20000.00
00360              -7.80   -20800.00
00361              -9.20   -21600.00
00362              17.40   -22400.00
00363             -12.40   -22400.00
00364              -1.20   -22400.00
00365              10.20   -23200.00
00366              -5.00   -24000.00
00367              -0.60   -24000.00
00368              11.60   -24000.00
00369             -10.80   -24800.00
00370               3.00   -25600.00
00371               6.20   -25600.00
00372              -9.00   -25600.00
00373               6.80   -26400.00
00374               2.00   -27200.00
00375              -2.60   -27200.00
00376               2.60   -27200.00
00377               1.80   -27200.00
00378              -1.80   -28000.00
00379               2.80   -28800.00
00380               2.00   -28800.00
00381              -2.00   -28800.00
00382               3.40   -28800.00
00383               0.60   -29600.00
00384              -0.60   -29600.00
00385               4.00   -29600.00
00386               0.60   -30400.00
00387               0.20   -30400.00
00388               3.80   -29600.00
00389               0.40   -31200.00
00390               1.20   -31200.00
00391               3.40   -32000.00
00392               1.40   -32000.00
00393               3.40   -32000.00
00394               2.40   -32000.00
00395               2.60   -32000.00
00396               2.60   -32000.00
00397               3.60   -32000.00
00398               4.20   -32000.00
00399               2.80   -32800.00
00400               5.40   -32000.00
00401               5.40   -32800.00
00402               6.00   -32800.00
00403               6.40   -32800.00
00404               5.80   -32800.00
00405               8.80   -32800.00
00406               8.40   -32800.00
00407               9.00   -32800.00
00408              11.80   -32800.00
00409              11.00   -32800.00
00410              12.40   -32800.00
00411              14.00   -32000.00
00412              14.20   -32800.00
00413              14.20   -32000.00
00414              15.40   -32000.00
00415              17.20   -32800.00
00416              19.80   -32000.00
00417              23.40   -32000.00
00418              17.00   -32000.00
00419               7.20   -32000.00
00420              11.40   -32000.00
00421              12.20   -31200.00
00422               7.40   -32000.00
00423               6.60   -30400.00
00424               8.60   -31200.00
00425               7.80   -30400.00
00426               4.60   -30400.00
00427               5.00   -29600.00
00428               6.60   -29600.00
00429               2.80   -29600.00
00430               2.60   -28800.00
00431               5.00   -28800.00
00432               2.60   -28800.00
00433               1.20   -28800.00
00434               3.40   -28000.00
00435               2.20   -27200.00
00436               0.60   -27200.00
00437               2.60   -26400.00
00438               2.00   -26400.00
00439               0.40   -26400.00
00440               1.80   -26400.00
00441               0.40   -25600.00
00442               0.60   -25600.00
00443               1.40   -25600.00
00444               0.20   -24000.00
00445               0.60   -24000.00
00446               0.60   -23200.00
00447              -0.20   -23200.00
00448               0.60   -23200.00
00449               0.40   -22400.00
00450               0.20   -22400.00
00451               0.40   -20800.00
00452               0.20   -21600.00
00453               0.40   -20000.00
00454              -0.20   -20000.00
00455               0.00   -19200.00
00456               0.40   -18400.00
00457              -0.60   -18400.00
00458               0.60   -17600.00
00459              -0.20   -17600.00
00460              -0.80   -16800.00
00461               0.80   -16800.00
00462              -0.80   -16000.00
00463              -0.20   -15200.00
00464               0.60   -14400.00
00465              -1.20   -14400.00
00466               0.80   -13600.00
00467               0.60   -12800.00
00468              -1.40   -12800.00
00469               0.40   -11200.00
00470               0.40   -11200.00
00471              -1.00   -10400.00
00472               0.40   -10400.00
00473              -0.60    -9600.00
00474              -1.00    -8800.00
00475               0.20    -8000.00
00476              -0.60    -8000.00
00477              -0.20    -7200.00
00478              -0.20    -6400.00
00479              -0.20    -6400.00
00480              -0.40    -4800.00
00481              -0.20    -4800.00
00482              -0.40    -4800.00
00483              -0.40    -4000.00
00484              -0.20    -3200.00
00485              -0.20    -2400.00
00486              -0.60    -1600.00
00487              -0.40     -800.00
00488              -0.40        0.00
00489              -0.40        0.00
00490               0.00      800.00
00491               0.40     1600.00
00492               3.40     1600.00
00493              -0.40     2400.00
00494              -1.20     3200.00
00495               0.80     3200.00
00496               0.60     3200.00
00497              -1.00     4800.00
00498              10.80     4800.00
00499              25.00     7200.00
00500             -25.00     7200.00
00501             -25.00     8000.00
00502              23.80     8000.00
00503               2.80     8000.00
00504             -25.00     8800.00
00505              25.00     9600.00
00506              -6.60     9600.00
00507             -25.00    11200.00
00508              25.00    11200.00
00509             -25.00    12000.00
00510               2.20    12800.00
00511              25.00    12800.00
00512             -25.00    13600.00
00513              25.00    14400.00
00514             -25.00    14400.00
00515             -13.20    15200.00
00516              25.00    15200.00
00517             -25.00    16000.00
00518              19.40    16800.00
00519              25.00    17600.00
00520             -25.00    17600.00
00521              -9.20    18400.00
00522              25.00    19200.00
00523             -21.20    19200.00
00524             -12.40    20800.00
00525              25.00    20800.00
00526             -25.00    21600.00
00527              11.80    21600.00
00528               5.60    22400.00
00529             -20.80    23200.00
00530              11.80    22400.00
00531              -0.40    24000.00
00532              -8.40    24000.00
00533               7.40    24000.00
00534               3.60    25600.00
00535             -15.60    25600.00
00536              11.80    25600.00
00537              -6.00    26400.00
00538              -6.80    26400.00
00539               9.00    26400.00
00540              -7.00    27200.00
00541              -0.40    27200.00
00542               1.20    28000.00
00543              -2.80    28000.00
00544              -2.60    28800.00
00545               2.00    28800.00
00546              -2.80    28800.00
00547              -3.00    30400.00
00548               1.00    29600.00
00549              -4.20    30400.00
00550              -1.60    30400.00
00551               1.80    30400.00
00552              -4.60    30400.00
00553              -0.80    31200.00
00554              -0.60    31200.00
00555              -5.20    31200.00
00556              -0.40    32000.00
00557              -3.00    32000.00
00558              -2.80    32000.00
00559              -0.20    32000.00
00560              -3.40    32800.00
00561              -2.80    32800.00
00562              -3.80    32000.00
00563              -3.80    32800.00
00564              -3.40    32800.00
00565              -4.20    33600.00
00566              -4.20    32800.00
00567              -6.00    32800.00
00568              -4.40    32800.00
00569              -6.40    33600.00
00570              -7.60    33600.00
00571              -7.00    33600.00
00572              -9.80    33600.00
00573              -7.20    33600.00
00574              -9.80    32800.00
00575             -13.00    32800.00
00576             -11.00    32800.00
00577             -14.00    33600.00
00578             -13.80    33600.00
00579             -14.00    32800.00
00580             -16.60    33600.00
00581             -15.80    32800.00
00582             -17.40    32800.00
00583             -21.20    32800.00
00584             -23.60    32000.00
00585             -16.40    32000.00
00586              -7.60    32800.00
00587             -12.00    32000.00
00588             -12.40    32000.00
00589              -8.20    32000.00
00590              -7.80    32000.00
00591              -9.00    31200.00
00592              -7.60    31200.00
00593              -5.00    30400.00
00594              -6.60    31200.00
00595              -6.20    30400.00
00596              -3.60    30400.00
00597              -4.40    29600.00
00598              -5.20    28800.00
00599              -3.00    28800.00
00600              -2.80    28800.00
00601              -3.40    28800.00
00602              -2.20    28000.00
00603              -2.00    28000.00
00604              -3.00    27200.00
00605              -2.00    27200.00
00606              -1.20    27200.00
00607              -2.60    26400.00
00608              -1.40    25600.00
00609              -1.40    25600.00
00610              -1.40    24800.00
00611              -1.00    24800.00
00612              -2.20    24800.00
00613              -0.60    24000.00
00614              -1.00    24000.00
00615              -1.80    24000.00
00616              -0.60    22400.00
00617              -1.00    22400.00
00618              -1.40    21600.00
00619              -0.40    21600.00
00620              -0.60    20800.00
00621              -1.80    20800.00
00622              -0.60    19200.00
00623              -0.20    19200.00
00624              -1.20    18400.00
00625              -0.60    18400.00
00626              -0.60    17600.00
00627              -1.40    16800.00
00628               0.00    16800.00
00629              -0.60    16000.00
00630              -1.20    15200.00
00631              -0.60    15200.00
00632              -0.60    14400.00
00633              -1.00    14400.00
00634              -0.60    13600.00
00635              -1.20    12800.00
00636              -0.40    12800.00
00637              -0.20    12000.00
00638              -0.60    11200.00
00639              -1.20    11200.00
00640              -0.60    10400.00
00641              -0.60     9600.00
00642              -0.80     8800.00
00643              -0.40     8000.00
00644              -0.60     8000.00
00645              -1.20     7200.00
00646              -0.40     6400.00
00647              -1.00     5600.00
00648              -0.80     4800.00
00649              -0.60     4800.00
00650              -0.20     4000.00
00651              -0.40     3200.00
00652              -0.20     2400.00
00653              -1.00     2400.00
00654              -0.40     1600.00
00655              -0.20      800.00
00656              -0.40        0.00
00657               0.20     -800.00
00658               1.40     -800.00
00659               2.60    -1600.00
00660              -1.20    -1600.00
00661               0.20    -3200.00
00662               1.00    -3200.00
00663               1.20    -3200.00
00664               0.00    -4000.00
00665               6.80    -4800.00
00666              25.00    -6400.00
00667              -0.40    -7200.00
00668             -25.00    -8000.00
00669               4.60    -8000.00
00670              24.40    -8000.00
00671             -25.00    -8000.00
00672             -10.60    -8800.00
00673              25.00   -10400.00
00674             -25.00    -9600.00
00675             -20.20   -10400.00
00676              25.00   -12000.00
00677             -25.00   -12000.00
00678               7.40   -12800.00
00679              23.20   -12800.00
00680             -24.40   -13600.00
00681              25.00   -14400.00
00682             -25.00   -14400.00
00683              12.80   -16000.00
00684              24.60   -16000.00
00685             -25.00   -16000.00
00686              15.80   -16800.00
00687              19.40   -17600.00
00688             -25.00   -18400.00
00689              -1.60   -17600.00
00690              25.00   -19200.00
00691             -25.00   -20000.00
00692               5.20   -20000.00
00693              23.00   -20800.00
00694             -22.20   -21600.00
00695              11.80   -21600.00
00696               4.20   -22400.00
00697             -13.20   -23200.00
00698               8.20   -23200.00
00699               4.40   -23200.00
00700              -8.60   -24000.00
00701               9.00   -24000.00
00702               1.40   -24800.00
00703              -9.40   -25600.00
00704              11.00   -25600.00
00705              -4.20   -26400.00
00706              -2.00   -26400.00
00707               7.40   -26400.00
00708              -3.40   -27200.00
00709              -0.40   -27200.00
00710               3.40   -27200.00
00711              -0.60   -28000.00
00712               0.20   -28800.00
00713               4.40   -28800.00
00714              -1.00   -28800.00
00715              -0.20   -29600.00
00716               3.60   -29600.00
00717              -1.40   -29600.00
00718               1.80   -30400.00
00719               3.80   -29600.00
00720              -1.00   -30400.00
00721               2.60   -30400.00
00722               2.20   -30400.00
00723              -0.40   -32000.00
00724               2.60   -31200.00
00725               2.00   -32000.00
00726               2.20   -31200.00
00727               3.40   -32000.00
00728               2.00   -32000.00
00729               2.60   -32000.00
00730               3.00   -32000.00
00731               3.60   -32000.00
00732               3.80   -32800.00
00733               4.80   -32000.00
00734               4.60   -32000.00
00735               5.00   -32800.00
00736               6.60   -32800.00
00737               5.40   -32800.00
00738               7.40   -32800.00
00739               9.00   -32800.00
00740               8.20   -32800.00
00741              11.00   -32800.00
00742              11.20   -32000.00
00743              11.40   -32800.00
00744              14.20   -32800.00
00745              13.80   -32800.00
00746              14.20   -32800.00
00747              15.40   -32800.00
00748              16.40   -32800.00
00749              18.00   -32000.00
00750              22.20   -32000.00
00751              22.20   -32800.00
00752              10.80   -32000.00
00753               8.40   -31200.00
00754              12.60   -32000.00
00755               9.80   -31200.00
00756               6.80   -30400.00
00757               7.40   -30400.00
00758               9.00   -30400.00
00759               6.20   -29600.00
00760               3.80   -30400.00
00761               6.60   -29600.00
00762               5.20   -29600.00
00763               2.00   -29600.00
00764               3.80   -29600.00
00765               4.20   -28800.00
00766               1.20   -28800.00
00767               2.00   -28800.00
00768               3.60   -28000.00
00769               0.20   -28000.00
00770               1.20   -27200.00
00771               2.60   -27200.00
00772               0.40   -26400.00
00773               1.20   -25600.00
00774               1.40   -26400.00
00775               0.60   -25600.00
00776               1.00   -24800.00
00777               0.60   -24800.00
00778               0.20   -24000.00
00779               0.40   -24000.00
00780               0.20   -24000.00
00781               0.40   -23200.00
00782               0.60   -22400.00
00783               0.00   -22400.00
00784               0.20   -21600.00
00785               0.40   -21600.00
00786               0.40   -20800.00
00787              -0.20   -20800.00
00788               0.40   -20000.00
00789               0.20   -18400.00
00790              -0.20   -18400.00
00791               0.40   -18400.00
00792               0.20   -17600.00
00793               0.20   -17600.00
00794               0.40   -16800.00
00795              -0.20   -16000.00
00796              -0.20   -16000.00
00797              -0.20   -15200.00
00798              -0.20   -14400.00
00799              -0.20   -14400.00
00800              -0.20   -13600.00
00801               0.00   -12800.00
00802              -0.40   -12800.00
00803              -0.20   -11200.00
00804               0.20   -11200.00
00805              -0.40   -10400.00
00806               0.00    -9600.00
00807              -0.40    -9600.00
00808              -0.20    -8800.00
00809              -0.20    -8000.00
00810              -0.40    -8000.00
00811              -0.20    -7200.00
00812              -0.20    -6400.00
00813              -0.40    -6400.00
00814              -0.20    -4800.00
00815              -0.60    -4800.00
00816              -0.60    -4000.00
00817              -0.60    -3200.00
00818               0.20    -2400.00
00819              -0.40    -1600.00
00820               0.20    -1600.00
00821              -0.40     -800.00
00822              -0.40        0.00
00823              -0.40        0.00
00824               0.20     1600.00
00825               1.20     1600.00
00826               3.00     2400.00
00827              -2.80     2400.00
00828              -0.20     2400.00
00829               1.40     3200.00
00830              -1.00     4000.00
00831               2.20     4800.00
00832              23.60     5600.00
00833              18.80     7200.00
00834             -25.00     8000.00
00835             -10.00     8000.00
00836              25.00     8000.00
00837             -25.00     8000.00
00838               3.40     8800.00
00839              25.00     9600.00
00840             -25.00     9600.00
00841              25.00    12000.00
00842              25.00    11200.00
00843             -25.00    12000.00
00844              25.00    12800.00
00845             -25.00    12800.00
00846               6.20    13600.00
00847              25.00    14400.00
00848             -25.00    15200.00
00849              25.00    15200.00
00850               0.60    16000.00
00851             -25.00    16000.00
00852              25.00    16000.00
00853              -4.40    17600.00
00854             -25.00    18400.00
00855              14.00    18400.00
00856              17.20    18400.00
00857             -25.00    19200.00
00858              24.40    20000.00
00859               6.60    20800.00
00860             -22.80    21600.00
00861              25.00    22400.00
00862             -19.00    22400.00
00863              -4.20    22400.00
00864               9.60    22400.00
00865              -7.40    24000.00
00866              -3.00    24000.00
00867              13.40    24800.00
00868             -10.40    24800.00
00869              -4.20    25600.00
00870              10.80    25600.00
00871             -15.20    25600.00
00872               5.80    26400.00
00873               1.80    27200.00
00874              -6.20    27200.00
00875               2.20    28000.00
00876              -1.20    28000.00
00877              -4.20    28000.00
00878               0.20    28000.00
00879               1.40    28800.00
00880              -4.40    29600.00
00881               0.20    28800.00
00882              -0.80    30400.00
00883              -5.00    29600.00
00884               1.60    30400.00
00885              -1.20    30400.00
00886              -4.40    30400.00
00887               1.60    31200.00
00888              -3.80    32000.00
00889              -3.00    31200.00
00890              -0.40    32000.00
00891              -4.60    32800.00
00892              -1.20    32000.00
00893              -2.00    32000.00
00894              -3.80    32800.00
00895              -3.00    32800.00
00896              -4.20    32800.00
00897              -3.60    32800.00
00898              -3.80    32800.00
00899              -4.00    32000.00
00900              -5.40    32800.00
00901              -5.80    32800.00
00902              -4.60    33600.00
00903              -8.20    33600.00
00904              -6.60    33600.00
00905              -8.20    32800.00
00906              -9.40    33600.00
00907              -7.40    33600.00
00908             -12.00    33600.00
00909             -12.20    33600.00
00910             -12.00    32800.00
00911             -14.60    32800.00
00912             -13.80    33600.00
00913             -15.60    32800.00
00914             -16.00    32800.00
00915             -16.40    32800.00
00916             -18.80    32800.00
00917             -22.20    32000.00
00918             -22.40    32800.00
00919             -10.80    32800.00
00920              -8.60    32000.00
00921             -13.60    32000.00
00922             -10.20    31200.00
00923              -7.80    32000.00
00924              -8.20    31200.00
00925              -8.20    31200.00
00926              -6.20    31200.00
00927              -5.00    31200.00
00928              -7.00    30400.00
00929              -5.20    30400.00
00930              -3.00    29600.00
00931              -5.00    29600.00
00932              -4.60    28800.00
00933              -2.00    29600.00
00934              -2.80    28000.00
00935              -3.60    28800.00
00936              -1.80    28000.00
00937              -2.20    27200.00
00938              -3.00    27200.00
00939              -1.00    26400.00
00940              -2.00    27200.00
00941              -3.00    25600.00
00942              -1.00    25600.00
00943              -1.20    25600.00
00944              -1.40    24800.00
00945              -1.20    24800.00
00946              -1.40    24000.00
00947              -1.00    24000.00
00948              -1.20    23200.00
00949              -1.00    22400.00
00950              -1.20    22400.00
00951              -1.20    21600.00
00952              -0.60    21600.00
00953              -1.00    21600.00
00954              -1.00    20800.00
00955              -1.20    19200.00
00956              -0.60    19200.00
00957              -0.20    19200.00
00958              -1.20    18400.00
00959              -0.60    17600.00
00960              -0.80    17600.00
00961              -1.00    16000.00
00962              -0.40    16000.00
00963              -1.00    16000.00
00964              -0.80    15200.00
00965              -1.00    14400.00
00966              -1.00    14400.00
00967              -0.80    13600.00
00968              -1.20    12800.00
00969              -1.20    12800.00
00970              -0.60    12800.00
00971              -0.60    11200.00
00972              -0.60    11200.00
00973              -1.00    10400.00
00974              -0.20     8800.00
00975              -0.60     8800.00
00976              -0.60     8800.00
00977              -0.40     8000.00
00978              -1.00     8000.00
00979              -0.60     6400.00
00980              -0.40     6400.00
00981              -0.80     4800.00
00982              -0.60     4800.00
00983              -0.60     4000.00
00984              -0.40     3200.00
00985              -0.40     3200.00
00986              -0.60     2400.00
00987              -1.00     1600.00
00988              -0.20     1600.00
00989              -0.60      800.00
00990               0.20        0.00
00991               0.40     -800.00
00992               3.20     -800.00
00993               1.00    -1600.00
00994              -1.80    -2400.00
00995               1.00    -3200.00
00996               1.20    -3200.00
00997              -0.60    -4000.00
00998               2.60    -4000.00
00999              15.00    -4800.00
01000              25.00    -6400.00
01001             -25.00    -8000.00
01002             -25.00    -8000.00
01003              25.00    -8000.00
01004               0.20    -8800.00
01005             -25.00    -8000.00
01006              25.00    -9600.00
01007              25.00   -10400.00
01008             -25.00   -10400.00
01009              25.00   -11200.00
01010              24.20   -11200.00
01011             -25.00   -12800.00
01012              25.00   -13600.00
01013             -21.20   -12800.00
01014               9.00   -14400.00
01015               7.80   -14400.00
01016             -25.00   -15200.00
01017              25.00   -16000.00
01018             -13.80   -16000.00
01019             -18.20   -16800.00
01020              25.00   -16800.00
01021              -4.80   -17600.00
01022             -23.00   -17600.00
01023              20.60   -18400.00
01024               3.20   -19200.00
01025             -25.00   -20000.00
01026              25.00   -20000.00
01027              -3.80   -20800.00
01028             -11.60   -21600.00
01029              18.00   -22400.00
01030             -11.00   -22400.00
01031              -3.60   -22400.00
01032               9.80   -23200.00
01033              -4.40   -24000.00
01034              -2.60   -24000.00
01035              12.20   -24000.00
01036              -9.00   -24800.00
01037               1.00   -25600.00
01038               7.60   -25600.00
01039              -9.20   -26400.00
01040               5.40   -26400.00
01041               2.60   -27200.00
01042              -3.00   -27200.00
01043               2.20   -27200.00
01044               2.00   -28000.00
01045              -1.80   -28000.00
01046               2.60   -28800.00
01047               2.20   -28800.00
01048              -2.20   -28800.00
01049               3.00   -29600.00
01050               1.00   -29600.00
01051              -1.00   -29600.00
01052               4.20   -30400.00
01053               1.60   -29600.00
01054              -0.20   -30400.00
01055               4.00   -30400.00
01056               0.40   -31200.00
01057               0.60   -32000.00
01058               3.20   -31200.00
01059               1.20   -32000.00
01060               3.00   -32000.00
01061               2.80   -32000.00
01062               2.20   -32000.00
01063               3.00   -32000.00
01064               3.40   -32000.00
01065               3.80   -32000.00
01066               4.20   -32800.00
01067               5.20   -32800.00
01068               4.40   -32800.00
01069               6.20   -32800.00
01070               6.60   -32800.00
01071               5.80   -32800.00
01072               9.00   -32800.00
01073               8.40   -32800.00
01074               9.40   -32800.00
01075              11.60   -32800.00
01076              10.60   -32800.00
01077              12.60   -32800.00
01078              13.80   -32000.00
01079              13.40   -32000.00
01080              14.80   -32000.00
01081              15.80   -32000.00
01082              17.00   -32000.00
01083              19.80   -32000.00
01084              23.60   -32000.00
01085              17.80   -32000.00
01086               7.60   -31200.00
01087              10.80   -32000.00
01088              12.40   -30400.00
01089               8.20   -31200.00
01090               6.60   -30400.00
01091               8.20   -30400.00
01092               7.60   -30400.00
01093               4.40   -30400.00
01094               4.20   -29600.00
01095               6.20   -29600.00
01096               2.80   -29600.00
01097               2.60   -28800.00
01098               5.20   -28800.00
01099               2.60   -28800.00
01100               1.00   -28800.00
01101               3.40   -28800.00
01102               1.80   -28000.00
01103               0.40   -27200.00
01104               2.60   -27200.00
01105               1.80   -27200.00
01106               0.20   -26400.00
01107               1.20   -26400.00
01108               1.00   -25600.00
01109               0.40   -25600.00
01110               1.00   -25600.00
01111               1.20   -24000.00
01112               0.20   -24000.00
01113               0.20   -24000.00
01114               0.20   -23200.00
01115               0.60   -22400.00
01116              -0.20   -22400.00
01117              -0.20   -22400.00
01118               0.60   -21600.00
01119               0.60   -20800.00
01120               0.00   -20800.00
01121               0.20   -19200.00
01122               0.20   -19200.00
01123              -0.20   -18400.00
01124               0.00   -18400.00
01125               0.60   -17600.00
01126              -0.40   -16800.00
01127              -0.20   -17600.00
01128               0.40   -16000.00
01129               0.00   -16000.00
01130               0.20   -15200.00
01131              -0.20   -14400.00
01132              -0.20   -14400.00
01133               0.20   -13600.00
01134              -0.20   -13600.00
01135              -0.60   -12800.00
01136              -0.20   -12800.00
01137               0.20   -11200.00
01138              -0.60   -11200.00
01139               0.00   -10400.00
01140               0.20   -10400.00
01141              -1.00    -9600.00
01142              -0.40    -8000.00
01143               0.20    -8000.00
01144              -0.60    -7200.00
01145              -0.20    -6400.00
01146              -0.20    -6400.00
01147               0.00    -5600.00
01148               0.40    -4800.00
01149              -0.80    -4000.00
01150              -0.40    -3200.00
01151               0.20    -3200.00
01152              -1.00    -2400.00
01153              -0.60    -1600.00
01154              -0.20     -800.00
01155              -1.00     -800.00
01156              -0.80        0.00
01157               0.20        0.00
01158               0.60      800.00
01159               3.00     1600.00
01160               0.20     1600.00
01161              -1.80     2400.00
01162               0.20     2400.00
01163               0.40     4000.00
01164              -1.40     4000.00
01165               9.40     5600.00
01166              25.00     7200.00
01167             -22.00     8000.00
01168             -25.00     8000.00
01169              21.00     8000.00
01170               8.20     8000.00
01171             -25.00     8800.00
01172              25.00     9600.00
01173               8.40     9600.00
01174             -25.00    10400.00
01175              25.00    11200.00
01176             -25.00    11200.00
01177             -11.20    12800.00
01178              25.00    12800.00
01179             -25.00    13600.00
01180              25.00    14400.00
01181             -25.00    14400.00
01182             -25.00    15200.00
01183              25.00    15200.00
01184             -25.00    16000.00
01185              11.40    16800.00
01186              25.00    17600.00
01187             -25.00    17600.00
01188             -13.40    18400.00
01189              25.00    19200.00
01190             -14.80    19200.00
01191             -18.60    20800.00
01192              25.00    20800.00
01193             -25.00    20800.00
01194               6.60    21600.00
01195              10.00    22400.00
01196             -23.40    22400.00
01197              10.80    23200.00
01198               2.00    23200.00
01199              -8.60    24000.00
01200               6.00    24800.00
01201               6.00    24800.00
01202             -16.60    24800.00
01203              10.60    25600.00
01204              -4.20    25600.00
01205              -9.00    26400.00
01206              10.20    26400.00
01207              -6.20    27200.00
01208              -0.80    27200.00
01209               2.00    27200.00
01210              -2.80    28000.00
01211              -2.60    28000.00
01212               1.80    28800.00
01213              -3.20    28800.00
01214              -4.00    28800.00
01215               1.20    29600.00
01216              -3.40    30400.00
01217              -1.60    30400.00
01218               2.80    30400.00
01219              -4.20    30400.00
01220              -1.80    31200.00
01221              -0.60    31200.00
01222              -5.80    31200.00
01223              -0.20    31200.00
01224              -2.60    32000.00
01225              -3.40    32800.00
01226              -0.40    32800.00
01227              -3.40    32000.00
01228              -3.20    32800.00
01229              -3.80    32800.00
01230              -4.40    32800.00
01231              -3.60    33600.00
01232              -4.60    32800.00
01233              -4.40    32800.00
01234              -6.20    33600.00
01235              -4.40    33600.00
01236              -6.00    33600.00
01237              -7.00    33600.00
01238              -6.00    33600.00
01239             -10.20    33600.00
01240              -8.60    32800.00
01241             -10.00    32800.00
01242             -13.20    32800.00
01243             -11.00    32800.00
01244             -12.60    33600.00
01245             -13.40    32800.00
01246             -14.40    33600.00
01247             -16.40    32800.00
01248             -16.40    32800.00
01249             -18.00    32800.00
01250             -20.40    32800.00
01251             -23.80    32000.00
01252             -17.20    32800.00
01253              -7.40    32000.00
01254             -11.40    32000.00
01255             -12.40    31200.00
01256              -8.40    31200.00
01257              -7.60    31200.00
01258              -8.80    31200.00
01259              -8.00    31200.00
01260              -5.40    31200.00
01261              -6.00    30400.00
01262              -6.60    31200.00
01263              -3.00    30400.00
01264              -3.00    29600.00
01265              -5.20    28800.00
01266              -3.60    28800.00
01267              -2.00    28800.00
01268              -3.80    28800.00
01269              -3.20    28000.00
01270              -0.60    28000.00
01271              -3.00    27200.00
01272              -2.60    27200.00
01273              -0.40    27200.00
01274              -2.80    27200.00
01275              -2.00    26400.00
01276              -1.20    25600.00
01277              -2.00    25600.00
01278              -0.60    24800.00
01279              -2.20    24000.00
01280              -0.80    24000.00
01281              -0.40    24000.00
01282              -1.20    24000.00
01283              -1.20    22400.00
01284              -1.20    22400.00
01285              -1.00    21600.00
01286              -1.20    21600.00
01287              -1.20    20800.00
01288              -0.60    20000.00
01289              -1.20    19200.00
01290              -1.00    19200.00
01291              -1.00    18400.00
01292              -1.20    18400.00
01293              -1.00    17600.00
01294              -1.40    17600.00
01295              -0.60    16800.00
01296              -0.60    16000.00
01297              -1.20    15200.00
01298              -1.00    15200.00
01299              -1.00    14400.00
01300              -0.80    14400.00
01301              -1.20    13600.00
01302              -1.00    12800.00
01303              -0.40    12000.00
01304              -0.60    12000.00
01305              -1.20    11200.00
01306              -1.00    10400.00
01307              -0.20     9600.00
01308              -0.40     9600.00
01309              -1.40     8800.00
01310              -0.60     8000.00
01311              -1.00     8000.00
01312              -1.00     6400.00
01313              -0.20     6400.00
01314               0.20     6400.00
01315              -0.60     4800.00
01316              -0.40     4800.00
01317              -0.60     3200.00
01318              -0.40     2400.00
01319              -0.60     2400.00
01320              -1.00     2400.00
01321              -0.20     1600.00
01322              -0.40      800.00
01323              -0.60        0.00
01324               0.20        0.00
01325               1.00     -800.00
01326               3.80    -1600.00
01327              -1.40    -1600.00
01328              -0.60    -3200.00
01329               2.20    -2400.00
01330               0.40    -3200.00
01331              -0.60    -4000.00
01332               7.20    -4800.00
01333              24.60    -6400.00
01334               5.20    -7200.00
01335             -25.00    -8000.00
01336              -0.80    -7200.00
01337              25.00    -8000.00
01338             -25.00    -8800.00
01339             -18.00    -8800.00
01340              25.00    -9600.00
01341             -25.00   -10400.00
01342             -25.00   -11200.00
01343              25.00   -11200.00
01344             -25.00   -12000.00
01345              -1.80   -12800.00
01346              25.00   -12800.00
01347             -25.00   -13600.00
01348              25.00   -14400.00
01349             -25.00   -14400.00
01350               5.80   -16000.00
01351              25.00   -16000.00
01352             -25.00   -16800.00
01353              11.00   -16800.00
01354              22.60   -17600.00
01355             -24.00   -18400.00
01356              -6.20   -18400.00
01357              25.00   -19200.00
01358             -24.40   -19200.00
01359              -0.20   -20000.00
01360              25.00   -20800.00
01361             -21.60   -20800.00
01362               8.40   -21600.00
01363               6.60   -22400.00
01364             -14.00   -23200.00
01365               6.60   -23200.00
01366               5.00   -23200.00
01367              -8.60   -24000.00
01368               8.20   -24000.00
01369               3.60   -24000.00
01370             -10.20   -24800.00
01371              10.20   -25600.00
01372              -3.40   -25600.00
01373              -3.00   -25600.00
01374               7.80   -26400.00
01375              -3.80   -26400.00
01376              -0.80   -27200.00
01377               4.20   -27200.00
01378               0.40   -28000.00
01379               0.20   -28800.00
01380               3.60   -28800.00
01381              -0.60   -29600.00
01382              -0.80   -29600.00
01383               3.00   -29600.00
01384              -0.60   -29600.00
01385               1.80   -29600.00
01386               3.60   -30400.00
01387              -0.20   -30400.00
01388               2.60   -30400.00
01389               2.40   -30400.00
01390              -0.20   -31200.00
01391               2.60   -31200.00
01392               1.80   -32000.00
01393               2.00   -32000.00
01394               3.60   -32000.00
01395               2.60   -32000.00
01396               2.60   -32000.00
01397               3.40   -32000.00
01398               3.80   -32800.00
01399               3.00   -32000.00
01400               4.20   -32000.00
01401               5.20   -32800.00
01402               4.60   -32800.00
01403               7.00   -32800.00
01404               6.00   -32800.00
01405               7.00   -32800.00
01406               8.80   -32800.00
01407               8.20   -32800.00
01408              11.20   -32800.00
01409              11.00   -32800.00
01410              11.00   -32800.00
01411              14.20   -32800.00
01412              13.80   -32800.00
01413              14.00   -32800.00
01414              15.20   -32000.00
01415              16.20   -32000.00
01416              17.80   -32000.00
01417              21.00   -32800.00
01418              22.40   -32000.00
01419              11.20   -32000.00
01420               7.80   -32000.00
01421              13.00   -32000.00
01422              10.60   -32000.00
01423               6.80   -31200.00
01424               7.60   -30400.00
01425               8.60   -31200.00
01426               5.80   -30400.00
01427               3.60   -30400.00
01428               6.20   -29600.00
01429               5.40   -29600.00
01430               2.20   -29600.00
01431               3.80   -28800.00
01432               3.80   -28800.00
01433               1.40   -28800.00
01434               2.00   -28800.00
01435               3.60   -28000.00
01436               0.60   -27200.00
01437               1.00   -27200.00
01438               2.60   -26400.00
01439               1.00   -27200.00
01440               1.00   -26400.00
01441               1.80   -25600.00
01442               0.20   -25600.00
01443               0.60   -24800.00
01444               0.60   -24000.00
01445               0.40   -24000.00
01446               0.20   -24000.00
01447               0.60   -23200.00
01448               0.40   -23200.00
01449              -0.20   -22400.00
01450               1.00   -22400.00
01451               0.00   -22400.00
01452               0.40   -20800.00
01453               1.40   -20800.00
01454              -1.00   -20800.00
01455               0.60   -20000.00
01456               0.60   -19200.00
01457              -1.20   -18400.00
01458               1.80   -17600.00
01459              -0.20   -17600.00
01460              -1.20   -16800.00
01461               1.80   -16800.00
01462              -0.60   -16800.00
01463              -0.60   -16000.00
01464               1.40   -14400.00
01465              -0.60   -14400.00
01466               0.40   -13600.00
01467               0.40   -13600.00
01468              -0.40   -12800.00
01469               0.20   -12800.00
01470               0.20   -12000.00
01471              -0.40   -11200.00
01472              -0.40   -10400.00
01473              -0.20    -9600.00
01474              -0.40    -9600.00
01475              -0.60    -8800.00
01476               0.20    -8000.00
01477              -0.40    -8000.00
01478              -0.60    -7200.00
01479               0.00    -6400.00
01480              -0.60    -5600.00
01481              -0.40    -5600.00
01482              -0.40    -4800.00
01483              -0.60    -4000.00
01484              -0.20    -3200.00
01485              -0.20    -2400.00
01486              -1.00    -2400.00
01487              -0.40    -1600.00
01488              -0.40    -1600.00
01489              -0.60        0.00
01490              -0.20        0.00
01491               0.20      800.00
01492               1.00     1600.00
01493               3.00     1600.00
01494              -2.60     2400.00
01495              -1.00     3200.00
01496               1.20     3200.00
01497              -0.80     4000.00
01498               1.40     4800.00
01499              21.20     5600.00
01500              24.40     7200.00
01501             -25.00     7200.00
01502             -16.20     8000.00
01503              25.00     8000.00
01504             -25.00     8000.00
01505              -7.00     8800.00
01506              25.00    10400.00
01507             -25.00     9600.00
01508              24.20    11200.00
01509              25.00    11200.00
01510             -25.00    12000.00
01511              25.00    12800.00
01512             -25.00    12800.00
01513              -7.60    13600.00
01514              25.00    14400.00
01515             -25.00    15200.00
01516              25.00    15200.00
01517              13.40    16000.00
01518             -25.00    16000.00
01519              25.00    16800.00
01520               1.40    17600.00
01521             -25.00    17600.00
01522               9.00    18400.00
01523              21.00    19200.00
01524             -25.00    20000.00
01525              18.80    20800.00
01526              13.20    20800.00
01527             -25.00    21600.00
01528              25.00    21600.00
01529             -16.40    22400.00
01530              -7.60    22400.00
01531              11.40    24000.00
01532              -6.40    24000.00
01533              -5.00    24000.00
01534              14.20    24800.00
01535              -8.20    24800.00
01536              -7.60    25600.00
01537              12.00    25600.00
01538             -15.40    25600.00
01539               3.40    27200.00
01540               4.20    27200.00
01541              -7.00    27200.00
01542               2.00    28000.00
01543              -0.20    28000.00
01544              -3.80    28000.00
01545              -1.00    28800.00
01546               1.20    28800.00
01547              -4.20    28800.00
01548              -0.60    29600.00
01549              -0.80    29600.00
01550              -5.20    30400.00
01551               1.00    30400.00
01552              -1.20    31200.00
01553              -4.40    30400.00
01554               1.80    31200.00
01555              -3.80    31200.00
01556              -4.40    31200.00
01557              -0.20    31200.00
01558              -5.00    32000.00
01559              -1.80    32800.00
01560              -0.40    32800.00
01561              -3.40    32800.00
01562              -3.80    32000.00
01563              -4.60    32800.00
01564              -3.80    32800.00
01565              -4.60    33600.00
01566              -3.60    32800.00
01567              -4.60    33600.00
01568              -6.00    32800.00
01569              -4.60    33600.00
01570              -8.40    32800.00
01571              -7.00    32800.00
01572              -7.40    33600.00
01573              -9.40    33600.00
01574              -7.40    33600.00
01575             -11.60    32800.00
01576             -12.60    33600.00
01577             -12.40    33600.00
01578             -13.80    32800.00
01579             -13.20    32800.00
01580             -15.00    32800.00
01581             -15.60    32800.00
01582             -16.60    32000.00
01583             -19.00    33600.00
01584             -23.00    32000.00
01585             -23.40    32800.00
01586             -11.00    32000.00
01587              -7.40    32000.00
01588             -13.20    32800.00
01589             -10.00    32000.00
01590              -7.60    31200.00
01591              -9.00    31200.00
01592              -8.60    31200.00
01593              -6.00    31200.00
01594              -5.00    30400.00
01595              -6.60    30400.00
01596              -4.60    30400.00
01597              -2.20    29600.00
01598              -5.40    29600.00
01599              -4.60    28800.00
01600              -2.20    29600.00
01601              -3.00    28000.00
01602              -2.80    28000.00
01603              -1.00    28000.00
01604              -7.00    27200.00
01605               1.40    27200.00
01606              -2.60    27200.00
01607              -5.20    25600.00
01608               0.40    25600.00
01609               2.20    25600.00
01610               0.60    24800.00
01611              -5.80    24800.00
01612               0.60    24800.00
01613              -1.20    24000.00
01614              -5.20    24000.00
01615              -1.20    24000.00
01616              -2.20    22400.00
01617               3.00    22400.00
01618              -3.40    21600.00
01619               1.20    21600.00
01620              -0.20    20800.00
01621              -4.00    20800.00
01622               2.60    19200.00
01623              -4.20    19200.00
01624              -3.80    18400.00
01625               1.60    18400.00
01626              -1.00    17600.00
01627              -2.80    17600.00
01628               2.00    17600.00
01629               2.00    16000.00
01630              -3.00    16000.00
01631               0.60    15200.00
01632              -3.60    15200.00
01633              -3.00    14400.00
01634              -0.20    14400.00
01635              -2.80    13600.00
01636               0.40    12800.00
01637               1.80    12000.00
01638              -0.60    12000.00
01639              -0.40    11200.00
01640              -0.20     9600.00
01641              -2.60     9600.00
01642              -1.00     8800.00
01643              -1.00     8000.00
01644              -1.80     8000.00
01645               0.40     8000.00
01646              -0.60     6400.00
01647               1.00     6400.00
01648               0.20     5600.00
01649              -2.00     4800.00
01650              -0.60     4800.00
01651              -0.40     3200.00
01652              -1.40     3200.00
01653              -0.40     2400.00
01654               0.40     1600.00
01655              -0.60      800.00
01656               0.80      800.00
01657               0.40        0.00
01658              -0.40     -800.00
01659               3.00     -800.00
01660               0.80    -1600.00
01661              -2.20    -1600.00
01662               1.40    -3200.00
01663               1.20    -3200.00
01664              -0.20    -3200.00
01665               2.60    -4000.00
01666              13.40    -4800.00
01667              25.00    -6400.00
01668             -25.00    -7200.00
01669             -25.00    -7200.00
01670              23.00    -8000.00
01671               5.40    -8800.00
01672             -25.00    -8800.00
01673              25.00    -8800.00
01674              25.00   -10400.00
01675             -25.00    -9600.00
01676              25.00   -11200.00
01677              25.00   -11200.00
01678             -25.00   -12000.00
01679              25.00   -12800.00
01680             -15.40   -13600.00
01681               4.20   -13600.00
01682              14.00   -14400.00
01683             -25.00   -14400.00
01684              25.00   -16000.00
01685              -8.00   -16000.00
01686             -23.00   -16800.00
01687              25.00   -16800.00
01688              -0.60   -17600.00
01689             -24.60   -18400.00
01690              17.80   -17600.00
01691               8.60   -19200.00
01692             -25.00   -20000.00
01693              25.00   -20000.00
01694               0.60   -20800.00
01695             -15.20   -21600.00
01696              18.20   -22400.00
01697              -9.20   -22400.00
01698              -5.60   -22400.00
01699               9.80   -23200.00
01700              -2.40   -24000.00
01701              -4.40   -24000.00
01702              12.40   -24000.00
01703              -7.40   -24800.00
01704              -2.00   -24800.00
01705               9.20   -25600.00
01706              -8.60   -26400.00
01707               4.20   -26400.00
01708               3.80   -26400.00
01709              -3.60   -27200.00
01710               1.60   -27200.00
01711               2.60   -27200.00
01712              -2.00   -28000.00
01713               1.80   -28800.00
01714               3.40   -28800.00
01715              -2.00   -29600.00
01716               2.60   -29600.00
01717               2.00   -29600.00
01718              -1.40   -29600.00
01719               3.60   -29600.00
01720               1.00   -30400.00
01721              -0.20   -30400.00
01722               4.20   -30400.00
01723               0.20   -31200.00
01724               0.60   -31200.00
01725               3.80   -31200.00
01726               0.40   -31200.00
01727               3.00   -32000.00
01728               3.80   -32000.00
01729               1.40   -32000.00
01730               3.00   -32800.00
01731               4.20   -32800.00
01732               3.20   -32000.00
01733               4.20   -32800.00
01734               5.80   -32800.00
01735               3.80   -32800.00
01736               6.00   -32800.00
01737               6.80   -32800.00
01738               5.00   -32800.00
01739               8.60   -32800.00
01740               8.40   -32800.00
01741               8.60   -32800.00
01742              11.80   -33600.00
01743              10.80   -32800.00
01744              12.40   -32000.00
01745              14.00   -32000.00
01746              13.40   -32800.00
01747              14.80   -32800.00
01748              15.40   -32800.00
01749              16.40   -32800.00
01750              19.60   -32000.00
01751              23.40   -32000.00
01752              18.20   -32000.00
01753               8.20   -32000.00
01754              10.20   -31200.00
01755              12.20   -31200.00
01756               7.80   -31200.00
01757               6.60   -30400.00
01758               8.40   -30400.00
01759               8.00   -30400.00
01760               5.00   -30400.00
01761               4.60   -30400.00
01762               6.20   -29600.00
01763               3.00   -28800.00
01764               2.40   -28800.00
01765               4.60   -28800.00
01766               2.60   -28800.00
01767               1.00   -28800.00
01768               3.00   -28800.00
01769               2.60   -28000.00
01770               0.40   -27200.00
01771               2.20   -27200.00
01772               2.20   -27200.00
01773               0.40   -25600.00
01774               1.80   -25600.00
01775               0.60   -25600.00
01776               0.60   -24800.00
01777               1.20   -24000.00
01778               0.80   -24800.00
01779               0.60   -24000.00
01780               0.60   -24000.00
01781               0.40   -23200.00
01782               0.40   -22400.00
01783               0.40   -22400.00
01784               0.40   -22400.00
01785               0.20   -21600.00
01786               0.60   -21600.00
01787               0.20   -20800.00
01788              -0.20   -20000.00
01789               0.20   -19200.00
01790               0.20   -19200.00
01791               0.20   -18400.00
01792               0.40   -17600.00
01793              -0.20   -17600.00
01794               0.20   -17600.00
01795              -0.20   -16000.00
01796              -0.20   -16000.00
01797               0.20   -15200.00
01798              -0.20   -14400.00
01799              -0.40   -14400.00
01800               0.40   -13600.00
01801              -0.20   -13600.00
01802              -0.40   -12000.00
01803              -0.20   -11200.00
01804               0.20   -11200.00
01805              -0.20   -11200.00
01806              -0.20   -10400.00
01807              -0.20    -9600.00
01808              -0.20    -8800.00
01809              -0.20    -8000.00
01810              -0.40    -8000.00
01811              -0.40    -7200.00
01812              -0.20    -7200.00
01813              -0.40    -4800.00
01814              -0.60    -5600.00
01815              -0.40    -4800.00
01816              -1.00    -4000.00
01817              -0.60    -3200.00
01818              -0.40    -3200.00
01819              -0.60    -2400.00
01820              -0.40    -1600.00
01821              -0.40     -800.00
01822              -0.60     -800.00
01823              -0.40        0.00
01824               0.00      800.00
01825               0.20     1600.00
01826               2.80     1600.00
01827               0.40     2400.00
01828              -2.20     2400.00
01829               0.40     3200.00
01830               0.40     3200.00
01831              -1.40     4800.00
01832               7.80     4800.00
01833              25.00     7200.00
01834             -15.00     7200.00
01835             -25.00     8000.00
01836              17.00     8000.00
01837              13.80     8000.00
01838             -25.00     8000.00
01839              25.00    10400.00
01840              22.00     9600.00
01841             -25.00    11200.00
01842              25.00    11200.00
01843             -25.00    11200.00
01844             -25.00    12000.00
01845              25.00    12800.00
01846             -25.00    12800.00
01847              25.00    14400.00
01848             -15.00    14400.00
01849             -25.00    15200.00
01850              25.00    15200.00
01851             -25.00    16000.00
01852               2.20    16000.00
01853              25.00    17600.00
01854             -24.60    17600.00
01855             -15.40    18400.00
01856              25.00    19200.00
01857              -9.20    19200.00
01858             -24.20    20800.00
01859              25.00    20000.00
01860             -23.60    20800.00
01861               2.00    21600.00
01862              14.60    21600.00
01863             -23.60    23200.00
01864               9.20    23200.00
01865               2.80    24000.00
01866              -9.40    24000.00
01867               4.40    24800.00
01868               8.40    24800.00
01869             -16.60    25600.00
01870               9.00    25600.00
01871              -0.60    25600.00
01872             -10.80    26400.00
01873               9.80    27200.00
01874              -5.80    27200.00
01875              -2.20    27200.00
01876               1.80    27200.00
01877              -2.80    28000.00
01878              -3.60    28800.00
01879               1.80    28800.00
01880              -2.00    28800.00
01881              -4.20    29600.00
01882               1.00    30400.00
01883              -3.40    30400.00
01884              -2.80    30400.00
01885               2.20    30400.00
01886              -4.20    31200.00
01887              -2.00    31200.00
01888               0.20    31200.00
01889              -5.40    31200.00
01890              -1.20    31200.00
01891              -2.60    32800.00
01892              -4.00    32800.00
01893              -0.40    32800.00
01894              -3.00    32800.00
01895              -3.60    32000.00
01896              -3.60    32800.00
01897              -4.20    33600.00
01898              -3.60    32800.00
01899              -4.20    32800.00
01900              -3.80    33600.00
01901              -6.00    33600.00
01902              -4.60    33600.00
01903              -5.80    33600.00
01904              -7.80    33600.00
01905              -6.20    32800.00
01906              -9.40    33600.00
01907              -8.40    32800.00
01908              -9.20    33600.00
01909             -13.00    33600.00
01910             -11.00    32800.00
01911             -13.20    33600.00
01912             -14.00    33600.00
01913             -14.20    32800.00
01914             -15.80    33600.00
01915             -15.60    32800.00
01916             -17.40    32800.00
01917             -19.60    32800.00
01918             -23.80    33600.00
01919             -18.20    32000.00
01920              -7.40    32000.00
01921             -11.00    32800.00
01922             -12.80    32000.00
01923              -8.60    31200.00
01924              -7.80    31200.00
01925              -8.40    32000.00
01926              -7.80    31200.00
01927              -5.20    30400.00
01928              -5.40    30400.00
01929              -6.80    30400.00
01930              -3.60    29600.00
01931              -3.00    30400.00
01932              -5.20    28800.00
01933              -3.40    29600.00
01934              -2.00    28800.00
01935              -3.80    28800.00
01936              -2.80    28800.00
01937              -1.20    28000.00
01938              -3.00    27200.00
01939              -2.20    27200.00
01940              -1.00    27200.00
01941              -2.80    26400.00
01942              -1.80    25600.00
01943              -0.60    25600.00
01944              -1.60    25600.00
01945              -1.20    25600.00
01946              -1.60    24000.00
01947              -1.20    24000.00
01948              -1.20    24000.00
01949              -1.40    23200.00
01950              -1.00    23200.00
01951              -1.20    22400.00
01952              -1.20    21600.00
01953              -1.00    21600.00
01954              -1.20    20800.00
01955              -1.20    20000.00
01956              -1.20    20000.00
01957              -0.60    19200.00
01958              -0.60    19200.00
01959              -1.20    18400.00
01960              -1.00    17600.00
01961              -1.00    17600.00
01962              -0.40    16800.00
01963              -0.60    16000.00
01964              -0.80    16000.00
01965              -0.60    15200.00
01966              -1.00    15200.00
01967              -0.40    14400.00
01968              -0.60    13600.00
01969              -1.20    12800.00
01970              -0.40    12800.00
01971              -0.60    11200.00
01972              -0.60    11200.00
01973              -0.60    11200.00
01974              -0.60    10400.00
01975              -0.60     9600.00
01976              -0.40     8800.00
01977              -0.40     8000.00
01978              -0.40     8000.00
01979              -0.60     7200.00
01980              -0.40     6400.00
01981              -0.40     5600.00
01982              -0.40     4800.00
01983              -0.60     4800.00
01984              -0.20     3200.00
01985              -0.20     3200.00
01986              -0.60     2400.00
01987              -1.00     2400.00
01988              -0.60     1600.00
01989              -0.40      800.00
01990               0.20        0.00
01991               0.20        0.00
01992               0.80     -800.00
01993               3.80     -800.00
01994              -1.00    -1600.00
01995              -0.60    -2400.00
01996               1.20    -3200.00
01997               1.00    -3200.00
01998              -0.40    -4000.00
01999               5.20    -4000.00
02000              23.60    -5600.00
02001              10.20    -6400.00
02002             -25.00    -8000.00
02003              -5.80    -8000.00
02004              25.00    -8800.00
02005             -25.00    -8800.00
02006             -23.80    -8000.00
02007              25.00    -9600.00
02008             -19.60   -10400.00
02009             -25.00   -10400.00
02010              25.00   -11200.00
02011             -25.00   -12000.00
02012             -13.20   -12800.00
02013              25.00   -13600.00
02014             -25.00   -13600.00
02015              25.00   -14400.00
02016             -25.00   -14400.00
02017              -0.20   -16000.00
02018              25.00   -16000.00
02019             -25.00   -16800.00
02020               6.80   -16800.00
02021              25.00   -17600.00
02022             -21.80   -17600.00
02023              -9.00   -17600.00
02024              25.00   -19200.00
02025             -21.20   -19200.00
02026              -5.00   -20000.00
02027              25.00   -20800.00
02028             -20.60   -20800.00
02029               5.20   -21600.00
02030               8.60   -22400.00
02031             -14.20   -23200.00
02032               5.40   -23200.00
02033               7.00   -24000.00
02034              -8.40   -24000.00
02035               6.40   -24000.00
02036               5.20   -24000.00
02037             -11.00   -24000.00
02038               9.60   -25600.00
02039              -0.80   -25600.00
02040              -5.00   -26400.00
02041               8.20   -26400.00
02042              -1.60   -27200.00
02043              -1.40   -27200.00
02044               3.80   -28000.00
02045               0.20   -28000.00
02046              -0.80   -28800.00
02047               3.80   -28800.00
02048              -0.40   -28800.00
02049              -1.00   -29600.00
02050               3.60   -28800.00
02051              -1.00   -29600.00
02052               1.20   -29600.00
02053               4.20   -30400.00
02054              -0.60   -30400.00
02055               1.80   -30400.00
02056               3.40   -30400.00
02057              -0.60   -32000.00
02058               2.60   -32000.00
02059               2.80   -32000.00
02060               1.80   -32000.00
02061               3.60   -32000.00
02062               2.20   -32000.00
02063               2.60   -32000.00
02064               3.00   -32000.00
02065               3.60   -32000.00
02066               3.60   -32800.00
02067               4.40   -32800.00
02068               4.60   -32800.00
02069               4.20   -32800.00
02070               6.80   -32800.00
02071               5.60   -32800.00
02072               6.80   -32800.00
02073               9.20   -32000.00
02074               7.80   -32800.00
02075              10.60   -32800.00
02076              11.20   -32800.00
02077              11.00   -33600.00
02078              13.40   -32000.00
02079              13.20   -32800.00
02080              14.00   -32800.00
02081              14.80   -32800.00
02082              15.60   -32000.00
02083              17.80   -32000.00
02084              21.80   -32000.00
02085              22.60   -32000.00
02086              12.60   -32000.00
02087               7.60   -32000.00
02088              12.40   -31200.00
02089              10.60   -32000.00
02090               6.60   -30400.00
02091               7.20   -32000.00
02092               8.60   -31200.00
02093               6.20   -30400.00
02094               3.60   -29600.00
02095               6.20   -29600.00
02096               5.80   -29600.00
02097               2.20   -29600.00
02098               3.80   -29600.00
02099               4.20   -29600.00
02100               1.80   -28800.00
02101               2.00   -28800.00
02102               3.60   -28000.00
02103               1.20   -27200.00
02104               0.60   -27200.00
02105               2.60   -27200.00
02106               1.40   -27200.00
02107               0.60   -26400.00
02108               1.80   -25600.00
02109               0.60   -25600.00
02110               0.60   -24800.00
02111               1.20   -24800.00
02112               0.40   -24000.00
02113               1.00   -24000.00
02114               0.60   -24000.00
02115               0.40   -23200.00
02116               0.60   -23200.00
02117               1.00   -21600.00
02118               0.20   -21600.00
02119               0.60   -22400.00
02120               1.00   -20800.00
02121              -0.20   -20000.00
02122               0.20   -20000.00
02123               0.40   -19200.00
02124              -0.60   -18400.00
02125               0.60   -17600.00
02126              -0.20   -17600.00
02127              -0.20   -17600.00
02128               0.40   -16800.00
02129              -0.20   -16000.00
02130               0.20   -16000.00
02131               0.20   -15200.00
02132              -0.20   -14400.00
02133               0.00   -13600.00
02134               0.00   -13600.00
02135              -0.20   -12800.00
02136              -0.40   -12800.00
02137              -0.40   -11200.00
02138               0.00   -11200.00
02139              -0.40   -11200.00
02140              -0.20   -10400.00
02141              -0.40    -9600.00
02142              -0.40    -8800.00
02143              -0.40    -8000.00
02144              -0.60    -8000.00
02145              -0.40    -7200.00
02146              -0.20    -6400.00
02147              -0.60    -6400.00
02148              -0.40    -5600.00
02149              -0.20    -4800.00
02150              -1.00    -4000.00
02151              -0.40    -3200.00
02152              -0.40    -2400.00
02153              -0.60    -2400.00
02154              -0.60    -1600.00
02155              -0.40     -800.00
02156              -0.40     -800.00
02157              -0.40        0.00
02158              -0.20      800.00
02159               1.00     1600.00
02160               3.40     1600.00
02161              -2.00     2400.00
02162              -0.80     3200.00
02163               1.00     3200.00
02164              -0.60     3200.00
02165               1.00     4800.00
02166              18.60     6400.00
02167              25.00     7200.00
02168             -25.00     8000.00
02169             -22.20     8000.00
02170              25.00     8000.00
02171             -23.40     8000.00
02172             -15.80     8800.00
02173              25.00     9600.00
02174             -25.00     9600.00
02175               9.20    11200.00
02176              25.00    11200.00
02177             -25.00    12000.00
02178              25.00    12800.00
02179             -11.40    12800.00
02180             -20.40    13600.00
02181              25.00    14400.00
02182             -25.00    15200.00
02183              25.00    15200.00
02184              24.40    16000.00
02185             -25.00    16000.00
02186              25.00    16800.00
02187               6.20    17600.00
02188             -25.00    18400.00
02189               5.80    18400.00
02190              23.00    18400.00
02191             -25.00    19200.00
02192              14.00    20800.00
02193              19.40    21600.00
02194             -25.00    21600.00
02195              25.00    22400.00
02196             -12.40    22400.00
02197             -10.80    22400.00
02198              11.60    23200.00
02199              -5.20    24000.00
02200              -5.60    24000.00
02201              12.60    24800.00
02202              -6.40    24800.00
02203              -9.40    25600.00
02204              12.40    25600.00
02205             -14.00    25600.00
02206               2.60    27200.00
02207               4.40    27200.00
02208              -7.40    27200.00
02209               2.00    28000.00
02210              -0.60    28000.00
02211              -3.80    28800.00
02212              -0.60    28800.00
02213               1.80    28800.00
02214              -4.60    29600.00
02215              -1.40    29600.00
02216              -0.40    30400.00
02217              -5.20    30400.00
02218               0.40    29600.00
02219               0.20    30400.00
02220              -4.60    30400.00
02221               1.00    31200.00
02222              -3.00    31200.00
02223              -4.40    31200.00
02224              -0.40    32000.00
02225              -4.60    32000.00
02226              -1.80    32000.00
02227              -1.20    32800.00
02228              -3.80    32000.00
02229              -3.00    32800.00
02230              -3.80    32000.00
02231              -3.80    32800.00
02232              -4.20    32800.00
02233              -4.20    33600.00
02234              -5.20    32800.00
02235              -6.00    32800.00
02236              -4.20    33600.00
02237              -7.60    32800.00
02238              -6.60    33600.00
02239              -7.00    33600.00
02240              -9.60    33600.00
02241              -7.40    33600.00
02242             -11.40    33600.00
02243             -12.80    33600.00
02244             -11.80    33600.00
02245             -13.80    33600.00
02246             -13.60    33600.00
02247             -15.00    33600.00
02248             -15.60    33600.00
02249             -16.60    32800.00
02250             -18.60    32000.00
02251             -22.00    32800.00
02252             -23.60    32800.00
02253             -12.20    32000.00
02254              -7.80    32800.00
02255             -13.40    32000.00
02256             -10.20    31200.00
02257              -7.80    31200.00
02258              -8.00    31200.00
02259              -8.40    31200.00
02260              -7.00    31200.00
02261              -5.00    31200.00
02262              -6.60    30400.00
02263              -5.40    30400.00
02264              -2.80    30400.00
02265              -4.60    30400.00
02266              -5.00    29600.00
02267              -2.40    28800.00
02268              -2.80    28800.00
02269              -4.20    28000.00
02270              -1.80    28000.00
02271              -2.00    27200.00
02272              -3.00    27200.00
02273              -1.00    26400.00
02274              -1.80    26400.00
02275              -2.80    26400.00
02276              -1.20    25600.00
02277              -1.40    25600.00
02278              -1.60    24800.00
02279              -1.40    24800.00
02280              -2.00    24000.00
02281              -1.20    24000.00
02282              -1.40    24000.00
02283              -1.20    23200.00
02284              -1.20    22400.00
02285              -1.20    22400.00
02286              -1.00    21600.00
02287              -1.00    21600.00
02288              -1.20    20800.00
02289              -1.40    20800.00
02290              -0.60    19200.00
02291              -0.20    18400.00
02292              -1.20    18400.00
02293              -0.60    17600.00
02294              -1.00    17600.00
02295              -0.80    16800.00
02296              -0.40    16000.00
02297              -1.20    16000.00
02298              -0.60    15200.00
02299              -0.60    14400.00
02300              -0.60    14400.00
02301              -0.20    13600.00
02302              -1.00    12800.00
02303              -0.80    12000.00
02304              -0.20    12000.00
02305              -0.60    11200.00
02306              -0.40    11200.00
02307              -1.20    10400.00
02308              -0.40     9600.00
02309              -0.60     8800.00
02310              -1.00     8000.00
02311              -0.40     8800.00
02312              -0.60     8000.00
02313              -0.60     7200.00
02314              -0.20     6400.00
02315              -0.60     5600.00
02316              -0.20     4800.00
02317              -0.60     4800.00
02318              -0.20     3200.00
02319               0.20     2400.00
02320              -0.60     2400.00
02321              -0.60     1600.00
02322              -0.20     1600.00
02323              -0.20        0.00
02324              -0.20        0.00
02325               0.40        0.00
02326               2.40     -800.00
02327               1.80    -1600.00
02328              -1.80    -1600.00
02329               0.60    -1600.00
02330               1.20    -3200.00
02331               0.20    -4000.00
02332               1.20    -4000.00
02333              12.20    -4800.00
02334              25.00    -6400.00
02335             -25.00    -7200.00
02336             -25.00    -8000.00
02337              20.60    -8000.00
02338               9.40    -8000.00
02339             -25.00    -8000.00
02340              24.40    -9600.00
02341              25.00   -10400.00
02342             -25.00   -10400.00
02343              25.00   -11200.00
02344              25.00   -12000.00
02345             -25.00   -12000.00
02346              25.00   -12800.00
02347              -8.60   -12800.00
02348              -1.40   -14400.00
02349              18.00   -14400.00
02350             -25.00   -15200.00
02351              25.00   -16000.00
02352              -1.80   -16000.00
02353             -25.00   -16800.00
02354              25.00   -17600.00
02355               3.60   -17600.00
02356             -25.00   -18400.00
02357              14.60   -18400.00
02358              12.60   -19200.00
02359             -25.00   -19200.00
02360              23.40   -20000.00
02361               5.00   -20800.00
02362             -17.20   -20800.00
02363              17.80   -21600.00
02364              -8.20   -22400.00
02365              -6.80   -22400.00
02366              10.20   -24000.00
02367              -1.20   -24000.00
02368              -4.60   -24000.00
02369              12.40   -24000.00
02370              -6.60   -25600.00
02371              -3.00   -25600.00
02372               9.20   -25600.00
02373              -9.00   -26400.00
02374               3.80   -26400.00
02375               4.60   -26400.00
02376              -3.40   -26400.00
02377               2.00   -27200.00
02378               2.80   -27200.00
02379              -1.80   -28000.00
02380               2.00   -28800.00
02381               3.60   -28800.00
02382              -2.20   -28800.00
02383               2.60   -29600.00
02384               1.80   -28800.00
02385              -1.20   -29600.00
02386               3.60   -29600.00
02387               2.00   -29600.00
02388              -1.00   -30400.00
02389               4.20   -31200.00
02390               0.60   -31200.00
02391               0.20   -31200.00
02392               3.20   -31200.00
02393               1.60   -31200.00
02394               3.00   -32000.00
02395               3.00   -32000.00
02396               2.00   -32000.00
02397               2.80   -32000.00
02398               3.20   -32000.00
02399               3.40   -32800.00
02400               3.80   -32800.00
02401               5.00   -32800.00
02402               4.20   -32800.00
02403               5.80   -32000.00
02404               6.60   -32800.00
02405               5.20   -33600.00
02406               8.40   -32800.00
02407               8.40   -33600.00
02408               8.60   -32800.00
02409              11.60   -32000.00
02410              10.60   -32800.00
02411              12.40   -32800.00
02412              14.00   -32800.00
02413              13.40   -32000.00
02414              14.60   -32800.00
02415              15.00   -32000.00
02416              16.20   -32000.00
02417              19.40   -32000.00
02418              22.80   -32000.00
02419              19.00   -32000.00
02420               8.40   -32000.00
02421               9.80   -31200.00
02422              12.40   -32000.00
02423               8.60   -31200.00
02424               6.80   -32000.00
02425               8.20   -32000.00
02426               8.00   -31200.00
02427               5.20   -30400.00
02428               4.60   -30400.00
02429               6.60   -30400.00
02430               3.40   -29600.00
02431               2.60   -28800.00
02432               4.40   -28800.00
02433               3.00   -28800.00
02434               1.40   -28800.00
02435               3.20   -28000.00
02436               2.00   -28800.00
02437               1.00   -27200.00
02438               2.00   -27200.00
02439               2.20   -26400.00
02440               0.40   -26400.00
02441               1.40   -26400.00
02442               1.00   -25600.00
02443               0.40   -25600.00
02444               0.60   -24800.00
02445               1.80   -24800.00
02446               0.60   -24000.00
02447              -0.40   -24000.00
02448               1.20   -24000.00
02449               0.20   -23200.00
02450              -0.20   -22400.00
02451               1.40   -22400.00
02452              -0.60   -20800.00
02453               1.00   -20800.00
02454               1.00   -20800.00
02455              -1.20   -20000.00
02456               1.20   -20000.00
02457               0.60   -18400.00
02458              -1.00   -18400.00
02459               1.20   -17600.00
02460              -0.40   -17600.00
02461              -0.60   -16800.00
02462               1.00   -16000.00
02463              -0.40   -16000.00
02464              -0.40   -15200.00
02465               0.20   -14400.00
02466              -0.40   -14400.00
02467              -0.40   -13600.00
02468              -0.40   -13600.00
02469               0.00   -12800.00
02470              -0.40   -12000.00
02471              -0.20   -11200.00
02472               0.20   -10400.00
02473              -0.60   -10400.00
02474              -0.40    -9600.00
02475              -0.40    -9600.00
02476              -0.40    -9600.00
02477              -0.20    -8000.00
02478              -0.40    -8000.00
02479              -0.60    -6400.00
02480              -0.40    -6400.00
02481              -0.40    -6400.00
02482              -0.60    -4800.00
02483              -0.40    -4000.00
02484               0.20    -4000.00
02485              -0.60    -3200.00
02486              -0.40    -2400.00
02487              -0.20    -1600.00
02488              -0.60    -1600.00
02489              -0.60     -800.00
02490               0.40        0.00
02491              -0.40        0.00
02492              -0.20      800.00
02493               2.60     1600.00
02494               1.00     1600.00
02495              -2.20     2400.00
02496               0.60     3200.00
02497               1.00     3200.00
02498              -1.20     4000.00
02499               6.80     4800.00
02500              25.00     7200.00
02501              -7.80     7200.00
02502             -25.00     8000.00
02503              13.20     8000.00
02504              18.00     8000.00
02505             -25.00     8800.00
02506              25.00     9600.00
02507              25.00     9600.00
02508             -25.00    10400.00
02509              25.00    11200.00
02510             -15.80    11200.00
02511             -25.00    12000.00
02512              25.00    12800.00
02513             -25.00    12800.00
02514              25.00    14400.00
02515              -0.60    14400.00
02516             -25.00    15200.00
02517              25.00    15200.00
02518             -25.00    16000.00
02519              -6.80    16800.00
02520              25.00    17600.00
02521             -22.20    18400.00
02522             -17.40    18400.00
02523              25.00    19200.00
02524              -4.20    19200.00
02525             -25.00    20000.00
02526              25.00    20800.00
02527             -19.40    21600.00
02528              -2.80    21600.00
02529              18.60    22400.00
02530             -24.60    22400.00
02531               7.40    23200.00
02532               3.60    24000.00
02533             -10.00    24000.00
02534               3.00    24000.00
02535               9.80    24800.00
02536             -16.20    24800.00
02537               7.00    24800.00
02538               1.20    25600.00
02539             -12.60    25600.00
02540               9.20    27200.00
02541              -4.60    27200.00
02542              -3.00    28000.00
02543               2.20    28000.00
02544              -2.40    28000.00
02545              -3.40    28000.00
02546               1.60    28800.00
02547              -1.60    28800.00
02548              -4.20    29600.00
02549               0.40    29600.00
02550              -3.00    30400.00
02551              -3.40    30400.00
02552               2.20    30400.00
02553              -3.40    31200.00
02554              -2.20    30400.00
02555               0.40    30400.00
02556              -5.00    31200.00
02557              -1.20    32000.00
02558              -2.60    32000.00
02559              -4.60    32000.00
02560              -0.20    32000.00
02561              -2.80    32800.00
02562              -3.40    32800.00
02563              -3.00    32800.00
02564              -3.80    32800.00
02565              -3.00    32800.00
02566              -4.40    32800.00
02567              -3.80    33600.00
02568              -6.40    32800.00
02569              -5.40    33600.00
02570              -5.20    33600.00
02571              -8.20    33600.00
02572              -5.80    33600.00
02573              -9.00    33600.00
02574              -8.60    33600.00
02575              -9.00    33600.00
02576             -13.20    32800.00
02577             -11.80    33600.00
02578             -13.00    32800.00
02579             -14.00    33600.00
02580             -14.00    33600.00
02581             -15.40    32000.00
02582             -15.80    33600.00
02583             -17.20    32000.00
02584             -19.80    32800.00
02585             -24.20    32800.00
02586             -19.60    32800.00
02587              -8.20    32000.00
02588             -11.00    32000.00
02589             -13.00    32000.00
02590              -8.60    31200.00
02591              -7.60    31200.00
02592              -8.40    32000.00
02593              -8.20    31200.00
02594              -5.80    30400.00
02595              -5.40    31200.00
02596              -7.00    30400.00
02597              -3.80    30400.00
02598              -3.00    28800.00
02599              -5.40    30400.00
02600              -3.80    29600.00
02601              -2.20    28800.00
02602              -3.80    28800.00
02603              -3.40    28000.00
02604              -1.80    28000.00
02605              -3.00    27200.00
02606              -2.60    27200.00
02607              -1.00    27200.00
02608              -2.60    27200.00
02609              -2.20    25600.00
02610              -0.80    25600.00
02611              -1.80    24800.00
02612              -1.20    24800.00
02613              -1.80    24800.00
02614              -1.40    24000.00
02615              -1.20    24000.00
02616              -1.20    24000.00
02617              -1.20    22400.00
02618              -1.20    22400.00
02619              -1.00    21600.00
02620              -1.20    21600.00
02621              -1.20    20800.00
02622              -1.20    20000.00
02623              -1.20    20000.00
02624              -0.60    19200.00
02625              -0.60    18400.00
02626              -1.00    18400.00
02627              -0.60    17600.00
02628              -1.00    17600.00
02629              -0.60    17600.00
02630              -0.40    16000.00
02631              -1.00    16000.00
02632              -0.40    15200.00
02633              -0.60    14400.00
02634              -1.00    14400.00
02635              -0.60    14400.00
02636              -0.40    12800.00
02637              -0.40    12800.00
02638              -0.60    12000.00
02639              -0.40    11200.00
02640              -1.20    11200.00
02641              -1.20     9600.00
02642               1.00     9600.00
02643              -1.20     8800.00
02644              -0.60     8800.00
02645               0.20     8000.00
02646              -1.00     7200.00
02647              -0.60     6400.00
02648               0.20     6400.00
02649              -1.00     5600.00
02650              -0.40     4800.00
02651              -0.40     4000.00
02652              -0.60     3200.00
02653               0.20     2400.00
02654              -0.60     2400.00
02655              -1.00     1600.00
02656              -0.40        0.00
02657              -0.40        0.00
02658               0.00        0.00
02659               1.20     -800.00
02660               3.80     -800.00
02661              -1.00    -1600.00
02662              -1.00    -2400.00
02663               1.40    -3200.00
02664               0.80    -3200.00
02665              -1.00    -4000.00
02666               5.20    -4800.00
02667              21.80    -5600.00
02668              14.00    -6400.00
02669             -25.00    -7200.00
02670             -10.80    -8000.00
02671              25.00    -8000.00
02672             -23.00    -9600.00
02673             -25.00    -8000.00
02674              25.00    -9600.00
02675              -6.40   -10400.00
02676             -25.00   -10400.00
02677              25.00   -11200.00
02678             -25.00   -12000.00
02679             -24.20   -12800.00
02680              25.00   -13600.00
02681             -25.00   -12800.00
02682              25.00   -14400.00
02683             -19.00   -14400.00
02684              -6.20   -15200.00
02685              25.00   -16000.00
02686             -25.00   -16800.00
02687               2.00   -16800.00
02688              25.00   -17600.00
02689             -18.20   -17600.00
02690             -12.40   -18400.00
02691              25.00   -19200.00
02692             -16.40   -20000.00
02693              -9.80   -20000.00
02694              25.00   -20000.00
02695             -18.00   -20800.00
02696               2.00   -21600.00
02697              11.00   -22400.00
02698             -14.20   -22400.00
02699               4.40   -23200.00
02700               7.80   -23200.00
02701              -7.60   -24000.00
02702               5.20   -24000.00
02703               7.00   -24000.00
02704             -11.40   -25600.00
02705               8.40   -25600.00
02706               0.80   -25600.00
02707              -6.20   -26400.00
02708               7.80   -26400.00
02709              -1.20   -27200.00
02710              -1.60   -27200.00
02711               3.00   -27200.00
02712               1.20   -28000.00
02713              -1.00   -28000.00
02714               3.40   -28800.00
02715               1.20   -28800.00
02716              -1.20   -28800.00
02717               3.40   -29600.00
02718               0.20   -29600.00
02719               0.60   -29600.00
02720               3.80   -30400.00
02721               0.20   -30400.00
02722               1.20   -30400.00
02723               3.00   -30400.00
02724              -0.40   -31200.00
02725               2.00   -31200.00
02726               2.60   -32000.00
02727               1.80   -32000.00
02728               3.20   -32000.00
02729               2.00   -32000.00
02730               2.20   -32000.00
02731               2.80   -32000.00
02732               2.80   -32800.00
02733               3.60   -32000.00
02734               4.60   -32000.00
02735               4.40   -32800.00
02736               4.60   -32800.00
02737               6.80   -32800.00
02738               5.40   -32800.00
02739               6.40   -32800.00
02740               9.20   -32800.00
02741               7.60   -32800.00
02742              10.20   -32800.00
02743              11.40   -32800.00
02744              10.80   -32000.00
02745              13.80   -32800.00
02746              13.80   -32000.00
02747              13.80   -32800.00
02748              15.40   -32000.00
02749              15.60   -32800.00
02750              17.40   -32000.00
02751              21.20   -32800.00
02752              22.80   -32000.00
02753              13.80   -32000.00
02754               7.60   -32000.00
02755              12.20   -31200.00
02756              11.00   -32000.00
02757               7.00   -31200.00
02758               6.80   -30400.00
02759               8.40   -30400.00
02760               6.80   -30400.00
02761               4.20   -29600.00
02762               5.80   -30400.00
02763               6.00   -29600.00
02764               2.60   -29600.00
02765               3.60   -29600.00
02766               4.60   -28800.00
02767               2.00   -28800.00
02768               1.80   -28800.00
02769               3.60   -28800.00
02770               1.20   -27200.00
02771               0.60   -27200.00
02772               2.60   -27200.00
02773               1.40   -26400.00
02774               1.00   -26400.00
02775               1.40   -25600.00
02776               0.20   -25600.00
02777               0.40   -25600.00
02778               1.20   -24800.00
02779               0.60   -24800.00
02780               1.00   -24000.00
02781               1.00   -24000.00
02782               0.40   -23200.00
02783               0.40   -22400.00
02784               0.20   -22400.00
02785              -0.40   -22400.00
02786               0.40   -22400.00
02787               0.40   -20800.00
02788               0.00   -20000.00
02789               0.40   -20000.00
02790               0.20   -19200.00
02791               0.20   -18400.00
02792               0.40   -18400.00
02793              -0.40   -17600.00
02794              -0.60   -17600.00
02795               0.20   -16800.00
02796              -0.20   -16000.00
02797              -0.40   -16000.00
02798               0.40   -15200.00
02799               0.00   -14400.00
02800               0.00   -14400.00
02801              -0.20   -13600.00
02802              -0.40   -12800.00
02803              -0.60   -12800.00
02804              -0.40   -11200.00
02805              -0.20   -11200.00
02806              -0.40   -11200.00
02807              -0.40   -10400.00
02808               0.20    -9600.00
02809              -0.20    -9600.00
02810              -0.20    -8000.00
02811              -0.20    -8000.00
02812              -0.60    -7200.00
02813              -0.40    -6400.00
02814              -0.40    -6400.00
02815              -0.40    -4800.00
02816              -0.20    -4800.00
02817              -0.20    -4000.00
02818               0.00    -3200.00
02819              -0.20    -3200.00
02820              -0.60    -2400.00
02821              -0.60    -1600.00
02822              -0.80     -800.00
02823              -0.60        0.00
02824               0.00      800.00
02825               0.40     1600.00
02826               0.80     1600.00
02827               3.60     1600.00
02828              -1.80     2400.00
02829              -1.00     3200.00
02830               1.20     3200.00
02831              -0.20     3200.00
02832               0.20     4800.00
02833              17.00     5600.00
02834              25.00     6400.00
02835             -25.00     8000.00
02836             -25.00     8000.00
02837              25.00     8000.00
02838             -16.60     8000.00
02839             -23.60     8800.00
02840              25.00     9600.00
02841             -25.00     9600.00
02842              -6.00    11200.00
02843              25.00    11200.00
02844             -25.00    12000.00
02845              25.00    12800.00
02846               1.00    12800.00
02847             -25.00    14400.00
02848              25.00    14400.00
02849             -25.00    14400.00
02850              25.00    15200.00
02851              25.00    16000.00
02852             -25.00    16800.00
02853              25.00    16000.00
02854              11.40    17600.00
02855             -25.00    17600.00
02856               2.00    18400.00
02857              25.00    19200.00
02858             -25.00    20000.00
02859               7.80    20800.00
02860              24.20    20800.00
02861             -25.00    21600.00
02862              23.40    21600.00
02863              -9.20    22400.00
02864             -14.00    22400.00
02865              12.20    23200.00
02866              -3.80    24000.00
02867              -6.60    24000.00
02868              11.60    24800.00
02869              -3.80    24800.00
02870             -11.40    24800.00
02871              13.00    25600.00
02872             -12.40    25600.00
02873               0.60    26400.00
02874               6.00    27200.00
02875              -7.80    27200.00
02876               1.40    27200.00
02877              -0.20    28000.00
02878              -3.80    28000.00
02879              -1.40    28800.00
02880               2.00    28800.00
02881              -4.40    28800.00
02882              -2.00    29600.00
02883               0.40    29600.00
02884              -5.20    30400.00
02885              -0.20    29600.00
02886               1.20    31200.00
02887              -4.60    31200.00
02888               0.60    31200.00
02889              -2.20    31200.00
02890              -4.60    32000.00
02891              -0.20    32000.00
02892              -4.20    32800.00
02893              -2.20    32000.00
02894              -0.40    32800.00
02895              -3.80    32000.00
02896              -3.40    32000.00
02897              -3.80    32800.00
02898              -4.20    32800.00
02899              -3.80    33600.00
02900              -3.40    33600.00
02901              -4.60    33600.00
02902              -5.80    33600.00
02903              -3.80    33600.00
02904              -7.60    33600.00
02905              -7.20    33600.00
02906              -6.80    33600.00
02907             -10.20    33600.00
02908              -7.00    33600.00
02909             -10.80    33600.00
02910             -13.00    32800.00
02911             -11.40    32800.00
02912             -13.80    32800.00
02913             -14.00    33600.00
02914             -15.00    33600.00
02915             -16.20    32800.00
02916             -16.60    32800.00
02917             -18.60    32800.00
02918             -21.80    32000.00
02919             -23.40    32800.00
02920             -12.60    32000.00
02921              -7.80    32000.00
02922             -13.40    32000.00
02923             -11.40    32000.00
02924              -8.40    31200.00
02925              -8.20    31200.00
02926              -8.40    31200.00
02927              -7.00    31200.00
02928              -4.60    31200.00
02929              -6.80    30400.00
02930              -6.00    29600.00
02931              -3.00    30400.00
02932              -4.60    29600.00
02933              -5.60    29600.00
02934              -2.60    29600.00
02935              -2.80    28800.00
02936              -3.60    28000.00
02937              -2.00    28000.00
02938              -1.80    28000.00
02939              -3.00    27200.00
02940              -1.80    27200.00
02941              -1.80    27200.00
02942              -2.80    26400.00
02943              -1.20    25600.00
02944              -1.20    25600.00
02945              -1.20    24800.00
02946              -1.20    24800.00
02947              -1.80    24000.00
02948              -1.00    24000.00
02949              -1.40    24000.00
02950              -1.40    23200.00
02951              -1.00    22400.00
02952              -1.20    21600.00
02953              -0.60    21600.00
02954              -0.60    21600.00
02955              -0.60    20800.00
02956              -1.40    20000.00
02957              -1.20    19200.00
02958              -0.60    19200.00
02959              -1.20    18400.00
02960              -1.00    18400.00
02961              -0.60    17600.00
02962              -1.00    17600.00
02963              -0.20    16800.00
02964              -0.60    16000.00
02965              -0.80    15200.00
02966              -0.60    15200.00
02967              -0.60    14400.00
02968              -0.60    14400.00
02969              -1.00    13600.00
02970              -1.20    12800.00
02971              -0.40    12000.00
02972              -0.40    12000.00
02973              -0.60    11200.00
02974              -1.00    10400.00
02975              -0.40    10400.00
02976              -0.60     8800.00
02977              -1.00     8800.00
02978              -0.20     8000.00
02979              -0.80     8000.00
02980              -0.40     6400.00
02981               0.20     6400.00
02982              -0.60     5600.00
02983              -0.40     4800.00
02984              -0.40     4000.00
02985              -0.60     3200.00
02986              -0.40     3200.00
02987              -0.60     2400.00
02988              -1.20     1600.00
02989              -0.40     1600.00
02990              -0.20      800.00
02991              -0.40        0.00
02992               0.60        0.00
02993               2.40    -1600.00
02994               2.60    -1600.00
02995              -2.00    -1600.00
02996               1.00    -3200.00
02997               1.00    -3200.00
02998              -0.20    -3200.00
02999               1.40    -4000.00
03000              10.60    -5600.00
03001              25.00    -6400.00
03002             -19.00    -7200.00
03003             -25.00    -8000.00
03004              17.40    -8000.00
03005              14.20    -8800.00
03006             -25.00    -8000.00
03007              15.80    -8800.00
03008              25.00   -10400.00
03009             -25.00    -9600.00
03010              23.60   -11200.00
03011              25.00   -11200.00
03012             -25.00   -12000.00
03013              25.00   -13600.00
03014              -1.40   -12800.00
03015              -7.00   -13600.00
03016              22.60   -14400.00
03017             -25.00   -14400.00
03018              25.00   -16000.00
03019               4.60   -16000.00
03020             -25.00   -16000.00
03021              25.00   -16800.00
03022               7.40   -17600.00
03023             -25.00   -18400.00
03024              10.80   -19200.00
03025              17.20   -19200.00
03026             -25.00   -20000.00
03027              20.20   -20000.00
03028              10.00   -20800.00
03029             -19.80   -20800.00
03030              17.20   -20800.00
03031              -5.00   -22400.00
03032              -8.60   -22400.00
03033              10.00   -23200.00
03034               0.20   -24000.00
03035              -6.20   -24000.00
03036              12.60   -24000.00
03037              -4.60   -24000.00
03038              -5.00   -24800.00
03039              10.60   -25600.00
03040              -7.80   -26400.00
03041               2.60   -26400.00
03042               5.80   -26400.00
03043              -3.20   -26400.00
03044               1.00   -27200.00
03045               3.20   -27200.00
03046              -1.20   -28800.00
03047               0.80   -28000.00
03048               4.20   -28800.00
03049              -2.20   -28800.00
03050               1.00   -28800.00
03051               2.60   -29600.00
03052              -1.60   -29600.00
03053               2.60   -29600.00
03054               2.60   -30400.00
03055              -0.60   -30400.00
03056               3.40   -30400.00
03057               1.20   -31200.00
03058               0.20   -31200.00
03059               3.40   -32000.00
03060               1.40   -32000.00
03061               2.60   -31200.00
03062               3.60   -32000.00
03063               2.00   -32000.00
03064               2.60   -32000.00
03065               3.20   -32800.00
03066               3.20   -32800.00
03067               3.40   -32000.00
03068               5.00   -32800.00
03069               4.40   -32800.00
03070               5.40   -32800.00
03071               6.80   -32800.00
03072               5.40   -32800.00
03073               8.20   -32800.00
03074               9.00   -32800.00
03075               8.60   -32800.00
03076              11.40   -32800.00
03077              10.60   -32800.00
03078              12.20   -32800.00
03079              14.00   -32800.00
03080              13.00   -32000.00
03081              14.20   -32800.00
03082              15.60   -32000.00
03083              15.80   -32800.00
03084              18.60   -32000.00
03085              23.60   -32000.00
03086              21.20   -32000.00
03087               8.00   -32000.00
03088               9.20   -32000.00
03089              13.20   -31200.00
03090               9.00   -30400.00
03091               6.00   -30400.00
03092               8.60   -31200.00
03093               8.60   -30400.00
03094               4.20   -30400.00
03095               4.20   -30400.00
03096               6.80   -29600.00
03097               3.40   -28800.00
03098               2.80   -29600.00
03099               5.20   -28800.00
03100               2.80   -28800.00
03101               0.40   -28800.00
03102               3.40   -28000.00
03103               3.60   -28000.00
03104               1.00   -27200.00
03105               2.00   -27200.00
03106               2.20   -27200.00
03107              -0.40   -26400.00
03108               1.80   -26400.00
03109               0.00   -25600.00
03110               0.20   -25600.00
03111               2.60   -24800.00
03112               0.40   -24800.00
03113              -0.40   -24000.00
03114               1.40   -24000.00
03115               0.20   -24000.00
03116              -0.40   -22400.00
03117               1.00   -22400.00
03118               0.20   -22400.00
03119              -0.20   -21600.00
03120               0.60   -20800.00
03121               0.40   -20800.00
03122               0.20   -20000.00
03123               1.20   -20000.00
03124               0.20   -18400.00
03125              -0.40   -18400.00
03126              -0.40   -17600.00
03127              -1.00   -17600.00
03128               0.60   -16800.00
03129               0.40   -16000.00
03130              -0.20   -16000.00
03131               0.20   -15200.00
03132              -0.60   -14400.00
03133              -1.20   -14400.00
03134               0.00   -13600.00
03135               0.20   -13600.00
03136               0.40   -12800.00
03137              -0.20   -12800.00
03138               0.20   -11200.00
03139              -0.20   -11200.00
03140              -0.40   -10400.00
03141              -0.20   -10400.00
03142              -0.20    -9600.00
03143              -0.20    -8800.00
03144              -0.40    -8000.00
03145              -0.40    -7200.00
03146              -0.60    -7200.00
03147              -0.40    -6400.00
03148              -0.20    -6400.00
03149               0.60    -4800.00
03150              -0.20    -4000.00
03151              -0.40    -3200.00
03152               0.00    -3200.00
03153              -0.40    -3200.00
03154              -0.60    -1600.00
03155              -0.20     -800.00
03156              -0.40     -800.00
03157              -0.20        0.00
03158               0.20        0.00
03159               0.00        0.00
03160               2.40     1600.00
03161               2.00     1600.00
03162              -2.60     2400.00
03163               0.40     2400.00
03164               1.40     3200.00
03165              -2.20     4000.00
03166               6.60     4800.00
03167              25.00     6400.00
03168              -2.20     8000.00
03169             -25.00     8000.00
03170               8.40     8800.00
03171              21.00     8000.00
03172             -25.00     8000.00
03173              25.00     9600.00
03174              25.00     9600.00
03175             -25.00    10400.00
03176              25.00    11200.00
03177              -0.40    12000.00
03178             -25.00    12000.00
03179              25.00    12800.00
03180             -25.00    12800.00
03181              25.00    14400.00
03182              12.20    14400.00
03183             -25.00    15200.00
03184              25.00    15200.00
03185             -25.00    16000.00
03186             -15.80    16800.00
03187              25.00    16000.00
03188             -19.60    17600.00
03189             -20.00    18400.00
03190              23.40    19200.00
03191               1.00    19200.00
03192             -25.00    19200.00
03193              25.00    20800.00
03194             -13.80    20800.00
03195              -7.40    21600.00
03196              21.80    21600.00
03197             -24.40    22400.00
03198               5.20    22400.00
03199               5.20    24000.00
03200              -9.80    24000.00
03201               1.40    24000.00
03202              11.60    24800.00
03203             -15.40    24800.00
03204               5.40    25600.00
03205               3.60    25600.00
03206             -14.20    26400.00
03207               9.20    26400.00
03208              -3.40    27200.00
03209              -3.60    27200.00
03210               2.80    28000.00
03211              -2.20    28000.00
03212              -3.80    28800.00
03213               1.00    28800.00
03214              -0.60    28800.00
03215              -4.00    28800.00
03216               1.00    29600.00
03217              -2.60    30400.00
03218              -3.60    30400.00
03219               2.00    30400.00
03220              -4.00    30400.00
03221              -2.40    31200.00
03222               1.80    31200.00
03223              -5.40    31200.00
03224              -1.40    32000.00
03225              -1.40    32000.00
03226              -4.60    32800.00
03227              -0.40    32000.00
03228              -3.00    32800.00
03229              -2.60    32800.00
03230              -2.80    32800.00
03231              -5.60    32800.00
03232              -2.80    32800.00
03233              -3.80    32000.00
03234              -4.80    32800.00
03235              -4.60    33600.00
03236              -4.40    33600.00
03237              -6.00    32800.00
03238              -7.00    33600.00
03239              -6.40    32800.00
03240             -11.00    33600.00
03241              -8.60    32800.00
03242              -8.20    33600.00
03243             -13.00    33600.00
03244             -10.40    33600.00
03245             -12.40    33600.00
03246             -14.60    33600.00
03247             -13.80    33600.00
03248             -16.60    33600.00
03249             -16.60    33600.00
03250             -16.60    32000.00
03251             -19.40    32800.00
03252             -24.20    32800.00
03253             -20.60    32800.00
03254              -8.60    32000.00
03255              -9.80    32000.00
03256             -12.40    32000.00
03257             -10.00    32000.00
03258              -7.80    31200.00
03259              -8.60    31200.00
03260              -8.60    31200.00
03261              -5.00    31200.00
03262              -4.60    30400.00
03263              -6.80    30400.00
03264              -4.40    30400.00
03265              -3.40    29600.00
03266              -6.00    29600.00
03267              -4.60    28800.00
03268              -2.20    28800.00
03269              -3.00    28000.00
03270              -3.20    28000.00
03271              -1.40    28000.00
03272              -2.20    27200.00
03273              -2.60    27200.00
03274              -1.00    27200.00
03275              -2.60    26400.00
03276              -2.20    26400.00
03277              -1.20    25600.00
03278              -1.80    25600.00
03279              -1.20    24800.00
03280              -1.40    24800.00
03281              -1.20    24800.00
03282              -1.00    24000.00
03283              -1.20    24000.00
03284              -1.20    22400.00
03285              -1.80    22400.00
03286              -1.20    22400.00
03287              -0.60    21600.00
03288              -1.00    20800.00
03289              -0.80    20800.00
03290              -1.00    20000.00
03291              -0.40    19200.00
03292              -1.20    18400.00
03293              -1.20    18400.00
03294              -0.60    17600.00
03295              -1.20    17600.00
03296              -0.60    16800.00
03297               0.20    16000.00
03298              -1.00    16000.00
03299              -1.00    15200.00
03300              -0.40    14400.00
03301              -0.60    14400.00
03302              -0.80    13600.00
03303              -1.00    12800.00
03304              -0.60    12000.00
03305              -0.20    12000.00
03306              -0.80    11200.00
03307              -1.00    10400.00
03308              -0.40     9600.00
03309              -0.40     9600.00
03310              -1.00     8800.00
03311              -0.40     8800.00
03312              -1.00     8000.00
03313              -1.00     7200.00
03314              -0.60     6400.00
03315              -0.40     6400.00
03316              -0.40     5600.00
03317              -0.60     4800.00
03318              -0.60     4000.00
03319              -0.40     3200.00
03320              -0.60     2400.00
03321              -0.60     2400.00
03322              -0.60     1600.00
03323              -0.40     1600.00
03324              -0.40        0.00
03325               0.40     -800.00
03326               0.60     -800.00
03327               3.60     -800.00
03328              -0.60    -1600.00
03329              -0.60    -1600.00
03330               1.00    -3200.00
03331              -0.20    -3200.00
03332              -0.40    -4000.00
03333               4.60    -4000.00
03334              20.60    -5600.00
03335              18.00    -7200.00
03336             -25.00    -7200.00
03337             -15.40    -8000.00
03338              25.00    -8000.00
03339             -18.00    -8800.00
03340             -25.00    -8000.00
03341              25.00   -10400.00
03342               5.80   -10400.00
03343             -25.00   -10400.00
03344              25.00   -11200.00
03345             -18.60   -12000.00
03346             -25.00   -12000.00
03347              25.00   -13600.00
03348             -25.00   -13600.00
03349              24.40   -14400.00
03350             -13.40   -14400.00
03351             -12.40   -14400.00
03352              25.00   -16000.00
03353             -25.00   -16000.00
03354              -2.80   -16800.00
03355              25.00   -16800.00
03356             -16.20   -17600.00
03357             -15.40   -18400.00
03358              25.00   -19200.00
03359             -12.80   -19200.00
03360             -14.80   -19200.00
03361              25.00   -20800.00
03362             -16.00   -20800.00
03363              -1.00   -21600.00
03364              13.80   -22400.00
03365             -15.00   -22400.00
03366               3.20   -23200.00
03367               9.00   -23200.00
03368              -7.60   -23200.00
03369               3.00   -24000.00
03370               9.00   -24000.00
03371             -11.80   -24000.00
03372               6.80   -25600.00
03373               2.60   -25600.00
03374              -7.60   -26400.00
03375               7.60   -26400.00
03376              -0.60   -26400.00
03377              -2.00   -27200.00
03378               3.60   -28000.00
03379               0.60   -28800.00
03380              -1.20   -28000.00
03381               3.60   -28800.00
03382               0.40   -28800.00
03383              -1.40   -28800.00
03384               3.80   -29600.00
03385              -0.40   -29600.00
03386               0.20   -29600.00
03387               4.40   -30400.00
03388              -0.20   -30400.00
03389               1.00   -31200.00
03390               3.40   -31200.00
03391              -0.40   -31200.00
03392               2.00   -32000.00
03393               2.80   -32000.00
03394               1.60   -32000.00
03395               3.40   -32000.00
03396               2.20   -32000.00
03397               2.60   -32000.00
03398               2.60   -32000.00
03399               3.40   -32000.00
03400               4.20   -32800.00
03401               3.60   -32800.00
03402               4.80   -32800.00
03403               4.60   -32800.00
03404               6.00   -32800.00
03405               5.80   -32800.00
03406               6.60   -32800.00
03407               8.60   -32800.00
03408               8.20   -32800.00
03409               9.80   -32800.00
03410              11.60   -32800.00
03411              11.40   -32800.00
03412              13.00   -32800.00
03413              14.20   -32000.00
03414              14.40   -32800.00
03415              14.40   -32800.00
03416              16.40   -32000.00
03417              17.20   -32800.00
03418              19.80   -32000.00
03419              24.40   -32000.00
03420              14.60   -32000.00
03421               6.60   -32000.00
03422              12.60   -31200.00
03423              11.40   -32000.00
03424               6.40   -32000.00
03425               7.00   -30400.00
03426               9.00   -30400.00
03427               7.40   -30400.00
03428               4.20   -29600.00
03429               5.60   -30400.00
03430               5.80   -29600.00
03431               2.00   -29600.00
03432               3.00   -29600.00
03433               5.40   -28800.00
03434               2.20   -28800.00
03435               1.40   -28800.00
03436               3.40   -28800.00
03437               0.40   -28000.00
03438               0.40   -27200.00
03439               2.60   -26400.00
03440               2.20   -26400.00
03441               0.20   -26400.00
03442               1.00   -26400.00
03443               1.40   -25600.00
03444              -0.40   -24800.00
03445               1.00   -24800.00
03446               2.20   -24000.00
03447              -0.60   -24000.00
03448               0.40   -23200.00
03449               0.40   -23200.00
03450              -1.00   -23200.00
03451               1.20   -22400.00
03452               0.40   -21600.00
03453              -0.40   -20800.00
03454               2.00   -20000.00
03455              -1.20   -20000.00
03456              -0.40   -20000.00
03457               1.20   -19200.00
03458              -1.00   -18400.00
03459               0.40   -17600.00
03460               0.60   -17600.00
03461              -0.20   -16800.00
03462              -0.60   -16800.00
03463              -0.80   -16000.00
03464               0.80   -16000.00
03465               0.60   -15200.00
03466              -0.60   -14400.00
03467               0.00   -14400.00
03468              -0.60   -13600.00
03469              -0.60   -12800.00
03470              -0.20   -12800.00
03471               0.20   -12000.00
03472               0.40   -11200.00
03473               0.20   -11200.00
03474              -0.40    -9600.00
03475              -0.60    -9600.00
03476              -0.60    -8800.00
03477              -0.20    -8000.00
03478               0.00    -7200.00
03479               0.20    -7200.00
03480              -0.20    -6400.00
03481              -0.40    -6400.00
03482              -0.40    -4800.00
03483              -0.60    -4000.00
03484              -0.60    -4000.00
03485              -0.20    -3200.00
03486               0.20    -2400.00
03487               0.20    -1600.00
03488              -0.40    -1600.00
03489              -0.60    -1600.00
03490              -0.20        0.00
03491               0.40        0.00
03492               0.20      800.00
03493               0.40     1600.00
03494               3.60     1600.00
03495              -2.00     2400.00
03496              -1.40     3200.00
03497               2.00     3200.00
03498               0.60     4000.00
03499              -0.60     4800.00
03500              14.60     5600.00
03501              25.00     7200.00
03502             -25.00     7200.00
03503             -25.00     8000.00
03504              25.00     8000.00
03505             -11.00     8800.00
03506             -25.00     8800.00
03507              25.00     9600.00
03508             -25.00     9600.00
03509             -20.40    11200.00
03510              25.00    11200.00
03511             -25.00    12000.00
03512              25.00    12800.00
03513              12.00    12800.00
03514             -25.00    12800.00
03515              25.00    14400.00
03516             -25.00    15200.00
03517              18.60    16000.00
03518              25.00    15200.00
03519             -25.00    16800.00
03520              25.00    16800.00
03521              16.20    17600.00
03522             -25.00    17600.00
03523              -1.40    18400.00
03524              25.00    19200.00
03525             -25.00    20000.00
03526               2.20    20000.00
03527              25.00    20800.00
03528             -25.00    21600.00
03529              21.00    21600.00
03530              -5.00    22400.00
03531             -15.60    22400.00
03532              13.00    23200.00
03533              -3.00    24000.00
03534              -7.80    24000.00
03535              10.20    24800.00
03536              -2.20    24800.00
03537             -13.00    25600.00
03538              14.20    25600.00
03539             -10.20    25600.00
03540              -1.40    27200.00
03541               6.80    27200.00
03542              -8.20    27200.00
03543               0.40    27200.00
03544               0.40    28000.00
03545              -3.20    28000.00
03546              -1.80    28800.00
03547               2.60    28800.00
03548              -3.40    28800.00
03549              -2.60    29600.00
03550               0.80    30400.00
03551              -4.60    30400.00
03552              -0.60    30400.00
03553               1.20    31200.00
03554              -4.60    31200.00
03555               0.40    31200.00
03556              -1.40    31200.00
03557              -5.20    31200.00
03558               0.20    32000.00
03559              -4.00    32000.00
03560              -3.00    32000.00
03561              -0.40    32000.00
03562              -3.80    32800.00
03563              -3.60    32800.00
03564              -3.40    32800.00
03565              -3.60    32800.00
03566              -4.20    33600.00
03567              -3.80    32800.00
03568              -4.00    32800.00
03569              -6.20    33600.00
03570              -4.60    33600.00
03571              -7.00    33600.00
03572              -7.00    33600.00
03573              -7.00    32800.00
03574             -10.20    33600.00
03575              -7.20    33600.00
03576             -11.00    33600.00
03577             -13.40    32800.00
03578             -10.80    33600.00
03579             -14.00    33600.00
03580             -14.20    32800.00
03581             -14.20    33600.00
03582             -16.20    33600.00
03583             -17.00    32800.00
03584             -17.60    32000.00
03585             -21.40    32800.00
03586             -24.40    32800.00
03587             -14.60    32000.00
03588              -7.40    32800.00
03589             -12.40    32000.00
03590             -11.80    32800.00
03591              -8.20    31200.00
03592              -7.60    31200.00
03593              -9.00    32000.00
03594              -7.40    30400.00
03595              -4.40    31200.00
03596              -6.80    30400.00
03597              -6.00    30400.00
03598              -2.20    30400.00
03599              -4.60    29600.00
03600              -5.40    29600.00
03601              -2.20    28800.00
03602              -2.80    28800.00
03603              -4.20    28800.00
03604              -2.00    28000.00
03605              -1.80    28000.00
03606              -3.00    27200.00
03607              -1.40    27200.00
03608              -1.40    27200.00
03609              -2.60    27200.00
03610              -1.20    26400.00
03611              -1.20    25600.00
03612              -1.20    25600.00
03613              -1.40    24800.00
03614              -1.80    24800.00
03615              -1.20    24000.00
03616              -1.00    23200.00
03617              -1.00    23200.00
03618              -0.60    22400.00
03619              -1.20    22400.00
03620              -1.20    21600.00
03621              -1.20    21600.00
03622              -0.60    20800.00
03623              -1.60    20000.00
03624              -1.20    19200.00
03625               0.20    18400.00
03626              -1.00    18400.00
03627              -1.00    17600.00
03628              -0.20    17600.00
03629              -1.20    16800.00
03630              -0.80    16000.00
03631              -0.60    16000.00
03632              -1.00    15200.00
03633              -1.00    14400.00
03634              -0.40    14400.00
03635              -0.60    14400.00
03636              -1.20    12800.00
03637              -1.40    12800.00
03638              -0.60    12000.00
03639              -0.40    12000.00
03640              -0.80    11200.00
03641              -1.20    10400.00
03642              -0.20     9600.00
03643              -0.60     8800.00
03644              -1.00     8800.00
03645              -0.20     8000.00
03646              -0.80     8000.00
03647              -0.60     7200.00
03648              -0.40     6400.00
03649              -1.20     5600.00
03650              -0.60     5600.00
03651              -1.00     4000.00
03652              -1.20     3200.00
03653               0.20     3200.00
03654              -1.00     2400.00
03655              -1.20     2400.00
03656               0.20     1600.00
03657              -0.40      800.00
03658              -0.40        0.00
03659               0.80     -800.00
03660               2.00     -800.00
03661               2.80    -1600.00
03662              -1.80    -1600.00
03663               0.60    -2400.00
03664               1.40    -3200.00
03665               0.40    -3200.00
03666               0.40    -4000.00
03667               9.40    -4000.00
03668              25.00    -6400.00
03669             -13.80    -7200.00
03670             -25.00    -7200.00
03671              14.60    -8000.00
03672              17.60    -9600.00
03673             -25.00    -8000.00
03674               8.60    -8800.00
03675              25.00   -10400.00
03676             -25.00   -10400.00
03677              11.80   -11200.00
03678              25.00   -11200.00
03679             -25.00   -12000.00
03680              25.00   -12800.00
03681               5.20   -12800.00
03682             -12.40   -13600.00
03683              25.00   -14400.00
03684             -25.00   -15200.00
03685              25.00   -16000.00
03686              11.00   -16000.00
03687             -25.00   -16800.00
03688              24.60   -16800.00
03689              10.80   -17600.00
03690             -25.00   -17600.00
03691               8.20   -19200.00
03692              20.20   -20000.00
03693             -25.00   -20000.00
03694              17.00   -20000.00
03695              13.00   -20800.00
03696             -21.40   -21600.00
03697              17.00   -22400.00
03698              -3.60   -22400.00
03699             -11.00   -22400.00
03700              10.60   -23200.00
03701               1.20   -23200.00
03702              -7.60   -24000.00
03703              12.40   -24000.00
03704              -3.60   -24800.00
03705              -7.20   -24800.00
03706              11.40   -25600.00
03707              -7.00   -25600.00
03708               0.60   -26400.00
03709               6.40   -26400.00
03710              -3.00   -27200.00
03711               0.40   -27200.00
03712               3.40   -27200.00
03713              -1.20   -28800.00
03714               0.40   -28800.00
03715               4.40   -28800.00
03716              -2.60   -28800.00
03717               1.40   -29600.00
03718               3.40   -29600.00
03719              -2.60   -29600.00
03720               3.00   -30400.00
03721               3.60   -29600.00
03722              -1.40   -30400.00
03723               3.60   -31200.00
03724               2.00   -30400.00
03725              -0.60   -31200.00
03726               3.40   -32000.00
03727               1.80   -32000.00
03728               2.60   -32000.00
03729               3.00   -32000.00
03730               2.20   -32000.00
03731               2.60   -32000.00
03732               2.60   -32000.00
03733               3.40   -32000.00
03734               3.60   -32800.00
03735               5.20   -32800.00
03736               4.40   -32000.00
03737               5.00   -32800.00
03738               7.40   -32800.00
03739               6.00   -32800.00
03740               7.40   -32800.00
03741               9.00   -32800.00
03742               8.40   -32800.00
03743              11.00   -32800.00
03744              11.40   -32800.00
03745              11.80   -32800.00
03746              13.20   -32800.00
03747              14.00   -32800.00
03748              14.60   -32000.00
03749              15.20   -32800.00
03750              16.40   -32000.00
03751              18.60   -32800.00
03752              23.40   -32000.00
03753              21.00   -32000.00
03754               9.00   -32800.00
03755               9.40   -32000.00
03756              13.00   -32000.00
03757               8.40   -32000.00
03758               6.60   -31200.00
03759               8.40   -31200.00
03760               7.80   -30400.00
03761               5.00   -30400.00
03762               3.80   -29600.00
03763               6.20   -29600.00
03764               4.40   -29600.00
03765               2.00   -29600.00
03766               4.20   -28800.00
03767               3.60   -28800.00
03768               1.00   -28800.00
03769               2.60   -28000.00
03770               3.60   -28000.00
03771               0.40   -27200.00
03772               1.80   -27200.00
03773               2.40   -27200.00
03774              -0.20   -26400.00
03775               1.40   -26400.00
03776               1.20   -25600.00
03777               0.20   -25600.00
03778               1.00   -25600.00
03779               0.40   -24800.00
03780               0.60   -24000.00
03781               1.00   -24000.00
03782              -0.40   -23200.00
03783               0.40   -23200.00
03784               0.60   -22400.00
03785              -0.40   -22400.00
03786               0.40   -21600.00
03787               0.60   -20800.00
03788              -0.40   -20800.00
03789              -0.20   -20000.00
03790               0.60   -20000.00
03791              -0.40   -18400.00
03792               0.40   -19200.00
03793               0.40   -17600.00
03794              -0.60   -17600.00
03795               0.20   -16800.00
03796              -0.20   -16800.00
03797              -0.20   -16000.00
03798               0.40   -15200.00
03799              -0.40   -14400.00
03800              -0.20   -14400.00
03801               0.40   -13600.00
03802              -0.40   -13600.00
03803              -0.40   -12800.00
03804              -0.20   -12800.00
03805               0.40   -11200.00
03806               0.20   -11200.00
03807              -0.60   -10400.00
03808               0.00   -10400.00
03809              -0.40    -8800.00
03810              -0.40    -8800.00
03811               0.60    -8000.00
03812              -0.60    -8000.00
03813              -1.40    -7200.00
03814               1.40    -6400.00
03815               0.60    -5600.00
03816              -1.20    -4800.00
03817               0.40    -4000.00
03818              -0.20    -4000.00
03819              -1.20    -3200.00
03820               0.60    -2400.00
03821              -0.20    -1600.00
03822              -1.40    -1600.00
03823               0.20     -800.00
03824               0.20        0.00
03825              -1.00        0.00
03826               0.40      800.00
03827               2.20     1600.00
03828               1.80     1600.00
03829              -1.40     2400.00
03830               0.20     3200.00
03831              -0.60     3200.00
03832              -1.00     4800.00
03833               5.60     4800.00
03834              25.00     6400.00
03835               5.00     7200.00
03836             -25.00     8000.00
03837               2.20     8000.00
03838              24.80     8000.00
03839             -25.00     8000.00
03840              25.00     9600.00
03841              25.00     9600.00
03842             -25.00     9600.00
03843              25.00    11200.00
03844              12.60    11200.00
03845             -25.00    12000.00
03846              25.00    12800.00
03847             -25.00    12800.00
03848              25.00    13600.00
03849              24.60    14400.00
03850             -25.00    14400.00
03851              25.00    15200.00
03852             -25.00    16000.00
03853             -24.40    17600.00
03854              25.00    17600.00
03855             -15.60    17600.00
03856             -21.40    18400.00
03857              21.00    19200.00
03858               6.20    19200.00
03859             -25.00    20000.00
03860              25.00    20800.00
03861              -8.40    20800.00
03862             -12.20    22400.00
03863              23.60    21600.00
03864             -23.40    22400.00
03865               2.80    24000.00
03866               6.40    23200.00
03867              -8.60    24000.00
03868               0.20    24000.00
03869              12.20    24800.00
03870             -14.20    24800.00
03871               2.20    24800.00
03872               5.80    25600.00
03873             -14.20    25600.00
03874               9.00    27200.00
03875              -1.80    27200.00
03876              -4.20    27200.00
03877               2.60    27200.00
03878              -1.40    28800.00
03879              -3.80    28800.00
03880               0.60    28800.00
03881              -0.20    28800.00
03882              -4.60    29600.00
03883               0.40    29600.00
03884              -2.00    30400.00
03885              -4.20    30400.00
03886               2.00    30400.00
03887              -2.60    31200.00
03888              -3.20    30400.00
03889               1.20    31200.00
03890              -4.60    32000.00
03891              -2.20    32000.00
03892              -1.40    32000.00
03893              -4.40    32800.00
03894              -0.60    32000.00
03895              -2.60    32800.00
03896              -3.60    32800.00
03897              -3.20    32000.00
03898              -4.40    32800.00
03899              -3.60    32800.00
03900              -4.20    32800.00
03901              -4.20    33600.00
03902              -5.80    33600.00
03903              -5.00    33600.00
03904              -5.20    33600.00
03905              -8.20    33600.00
03906              -6.20    33600.00
03907              -9.00    33600.00
03908              -9.00    33600.00
03909              -8.20    32800.00
03910             -12.60    33600.00
03911             -11.60    33600.00
03912             -12.60    33600.00
03913             -14.20    33600.00
03914             -14.00    33600.00
03915             -16.00    33600.00
03916             -16.00    32800.00
03917             -17.20    33600.00
03918             -19.40    32800.00
03919             -23.40    32000.00
03920             -21.00    32800.00
03921              -8.80    32800.00
03922              -9.40    32000.00
03923             -13.20    32000.00
03924              -9.20    32000.00
03925              -7.60    32000.00
03926              -8.20    31200.00
03927              -8.60    31200.00
03928              -5.80    31200.00
03929              -5.20    31200.00
03930              -7.00    30400.00
03931              -4.40    30400.00
03932              -3.00    30400.00
03933              -5.20    29600.00
03934              -4.20    29600.00
03935              -2.00    28800.00
03936              -3.20    28800.00
03937              -3.40    28800.00
03938              -1.00    28000.00
03939              -2.00    27200.00
03940              -2.80    28000.00
03941              -0.80    27200.00
03942              -2.20    27200.00
03943              -2.60    26400.00
03944              -0.60    25600.00
03945              -1.40    24800.00
03946              -1.80    24800.00
03947              -1.20    24800.00
03948              -1.20    24000.00
03949              -1.20    24000.00
03950              -1.20    24000.00
03951              -0.60    23200.00
03952              -1.20    22400.00
03953              -1.00    22400.00
03954              -0.80    21600.00
03955              -1.00    21600.00
03956              -1.00    20800.00
03957              -1.40    19200.00
03958              -0.60    19200.00
03959              -0.60    18400.00
03960              -1.40    18400.00
03961              -0.80    17600.00
03962              -1.00    16800.00
03963              -1.20    16800.00
03964              -0.40    16000.00
03965              -1.00    16000.00
03966              -0.60    15200.00
03967              -1.00    14400.00
03968              -0.40    14400.00
03969              -1.00    13600.00
03970              -1.00    12800.00
03971              -0.60    12800.00
03972              -0.60    12000.00
03973              -1.00    11200.00
03974              -0.60    11200.00
03975              -0.80    10400.00
03976              -0.40     9600.00
03977              -1.00     8800.00
03978              -0.60     8800.00
03979              -0.60     8000.00
03980              -1.00     7200.00
03981              -0.20     6400.00
03982              -0.40     6400.00
03983              -1.00     5600.00
03984              -0.20     4800.00
03985              -0.60     4000.00
03986              -0.40     3200.00
03987              -0.40     3200.00
03988              -0.60     1600.00
03989              -0.60     1600.00
03990              -0.40     1600.00
03991               0.00        0.00
03992              -0.20     -800.00
03993               0.40     -800.00
03994               4.40     -800.00
03995              -0.60    -1600.00
03996              -1.80    -2400.00
03997               2.20    -3200.00
03998               0.60    -3200.00
03999              -1.40    -3200.00
04000               4.80    -4800.00
04001              18.60    -5600.00
04002              21.20    -6400.00
04003             -25.00    -7200.00
04004             -20.40    -8000.00
04005              25.00    -8000.00
04006             -13.20    -8800.00
04007             -25.00    -8000.00
04008              25.00    -9600.00
04009              17.60   -10400.00
04010             -25.00   -10400.00
04011              25.00   -12800.00
04012              -6.40   -11200.00
04013             -25.00   -12000.00
04014              25.00   -12800.00
04015             -25.00   -12800.00
04016              21.00   -14400.00
04017              -7.40   -14400.00
04018             -18.20   -14400.00
04019              25.00   -16000.00
04020             -25.00   -16000.00
04021              -7.60   -16800.00
04022              25.00   -16800.00
04023             -13.40   -18400.00
04024             -18.20   -18400.00
04025              25.00   -19200.00
04026              -8.20   -19200.00
04027             -18.80   -20000.00
04028              25.00   -20000.00
04029             -12.60   -20800.00
04030              -4.20   -21600.00
04031              15.40   -22400.00
04032             -14.00   -23200.00
04033               1.20   -23200.00
04034               9.00   -23200.00
04035              -7.00   -23200.00
04036               1.80   -24000.00
04037               9.80   -24000.00
04038             -11.40   -25600.00
04039               5.80   -25600.00
04040               3.80   -25600.00
04041              -8.20   -26400.00
04042               7.00   -26400.00
04043               0.40   -27200.00
04044              -2.20   -27200.00
04045               3.20   -28000.00
04046               1.40   -28000.00
04047              -1.40   -28800.00
04048               3.40   -28000.00
04049               1.40   -28800.00
04050              -1.80   -28800.00
04051               3.60   -29600.00
04052              -0.20   -29600.00
04053              -0.40   -29600.00
04054               4.20   -30400.00
04055               0.40   -30400.00
04056               1.00   -30400.00
04057               3.60   -30400.00
04058               0.20   -31200.00
04059               2.00   -31200.00
04060               2.60   -30400.00
04061               1.40   -32000.00
04062               3.80   -32000.00
04063               2.00   -32000.00
04064               2.00   -32000.00
04065               3.20   -32000.00
04066               3.40   -32800.00
04067               3.60   -32000.00
04068               4.40   -32000.00
04069               5.00   -32800.00
04070               4.40   -32800.00
04071               6.20   -32800.00
04072               6.00   -32800.00
04073               6.40   -32800.00
04074               9.00   -32800.00
04075               8.40   -32800.00
04076              10.80   -32800.00
04077              11.40   -32000.00
04078              10.80   -32800.00
04079              13.40   -32800.00
04080              13.20   -32800.00
04081              13.60   -32800.00
04082              15.40   -32800.00
04083              15.60   -32000.00
04084              17.20   -32000.00
04085              20.60   -32800.00
04086              23.40   -32000.00
04087              15.40   -32000.00
04088               7.40   -32000.00
04089              11.80   -32000.00
04090              11.60   -30400.00
04091               7.20   -31200.00
04092               6.80   -31200.00
04093               8.40   -31200.00
04094               7.00   -30400.00
04095               4.40   -30400.00
04096               5.20   -30400.00
04097               5.80   -29600.00
04098               2.00   -28800.00
04099               2.80   -29600.00
04100               4.40   -28800.00
04101               2.20   -28800.00
04102               1.20   -28000.00
04103               3.40   -28800.00
04104               1.20   -28000.00
04105               0.40   -27200.00
04106               2.40   -27200.00
04107               1.40   -27200.00
04108               0.40   -26400.00
04109               1.80   -26400.00
04110               0.40   -25600.00
04111               0.60   -25600.00
04112               1.00   -24800.00
04113               0.40   -24000.00
04114               0.40   -24000.00
04115               0.40   -23200.00
04116               0.20   -23200.00
04117               0.60   -23200.00
04118               0.20   -22400.00
04119               0.20   -21600.00
04120               0.60   -22400.00
04121               0.20   -20800.00
04122               0.20   -20000.00
04123              -0.20   -20000.00
04124               0.20   -19200.00
04125               0.20   -18400.00
04126               0.40   -18400.00
04127               0.40   -17600.00
04128               0.20   -17600.00
04129               0.20   -16800.00
04130              -0.40   -16000.00
04131               0.20   -16000.00
04132              -0.20   -15200.00
04133              -0.40   -14400.00
04134               0.20   -14400.00
04135               0.20   -14400.00
04136              -0.20   -12800.00
04137               0.00   -12800.00
04138              -0.40   -11200.00
04139               0.60   -11200.00
04140              -0.20   -10400.00
04141              -0.40   -10400.00
04142               0.40    -9600.00
04143              -0.60    -8800.00
04144              -0.60    -8800.00
04145               0.20    -8000.00
04146              -0.40    -7200.00
04147              -0.60    -6400.00
04148              -0.20    -6400.00
04149              -0.40    -5600.00
04150              -0.40    -4800.00
04151              -0.60    -4000.00
04152              -0.40    -4000.00
04153              -0.20    -3200.00
04154              -0.60    -2400.00
04155              -0.60     -800.00
04156              -0.20    -1600.00
04157              -0.60     -800.00
04158              -0.40        0.00
04159               0.20      800.00
04160               0.00     1600.00
04161               3.40     2400.00
04162              -1.20     2400.00
04163              -1.80     2400.00
04164               1.00     3200.00
04165               0.20     4000.00
04166              -0.60     4800.00
04167              13.20     5600.00
04168              25.00     7200.00
04169             -25.00     8000.00
04170             -25.00     8000.00
04171              25.00     8000.00
04172              -5.80     8000.00
04173             -25.00     8800.00
04174              25.00     9600.00
04175             -25.00     9600.00
04176             -25.00    11200.00
04177              25.00    11200.00
04178             -25.00    11200.00
04179              21.00    12800.00
04180              23.40    12800.00
04181             -25.00    13600.00
04182              25.00    14400.00
04183             -25.00    14400.00
04184               6.20    15200.00
04185              25.00    16000.00
04186             -25.00    16000.00
04187              25.00    16800.00
04188              21.20    17600.00
04189             -25.00    18400.00
04190              -4.60    18400.00
04191              25.00    19200.00
04192             -25.00    19200.00
04193              -3.40    20800.00
04194              25.00    20800.00
04195             -25.00    20800.00
04196              17.80    22400.00
04197              -1.20    22400.00
04198             -17.80    22400.00
04199              12.60    23200.00
04200              -1.80    24000.00
04201              -7.80    24000.00
04202              10.00    24800.00
04203               0.40    24800.00
04204             -14.40    25600.00
04205              13.20    25600.00
04206              -9.00    26400.00
04207              -3.60    26400.00
04208               8.20    27200.00
04209              -7.60    27200.00
04210               0.20    27200.00
04211               1.00    28000.00
04212              -3.00    28000.00
04213              -2.20    28000.00
04214               2.60    28000.00
04215              -3.40    28800.00
04216              -2.20    28800.00
04217               1.20    29600.00
04218              -4.60    30400.00
04219              -0.60    30400.00
04220               1.40    31200.00
04221              -5.00    30400.00
04222              -0.20    31200.00
04223              -1.40    31200.00
04224              -5.40    32000.00
04225              -0.20    32000.00
04226              -3.80    32000.00
04227              -3.00    32800.00
04228              -0.60    32000.00
04229              -3.60    32000.00
04230              -3.40    32800.00
04231              -3.80    32800.00
04232              -3.80    32800.00
04233              -3.80    32800.00
04234              -4.40    33600.00
04235              -4.20    33600.00
04236              -6.20    33600.00
04237              -4.40    33600.00
04238              -7.00    33600.00
04239              -7.60    33600.00
04240              -6.80    33600.00
04241             -10.00    33600.00
04242              -7.60    33600.00
04243             -10.20    33600.00
04244             -12.80    32800.00
04245             -11.40    33600.00
04246             -13.60    32800.00
04247             -13.60    33600.00
04248             -14.60    33600.00
04249             -15.80    32800.00
04250             -16.20    32800.00
04251             -18.00    32000.00
04252             -21.20    32800.00
04253             -24.20    32000.00
04254             -15.20    32800.00
04255              -7.40    32800.00
04256             -12.60    32000.00
04257             -11.60    31200.00
04258              -7.80    32000.00
04259              -7.80    32000.00
04260              -8.60    31200.00
04261              -7.00    31200.00
04262              -4.80    31200.00
04263              -6.20    30400.00
04264              -6.20    30400.00
04265              -2.80    29600.00
04266              -4.20    29600.00
04267              -5.40    29600.00
04268              -2.80    28800.00
04269              -2.60    28800.00
04270              -3.60    28000.00
04271              -2.40    28800.00
04272              -1.40    28000.00
04273              -2.80    27200.00
04274              -1.80    27200.00
04275              -1.20    26400.00
04276              -2.80    26400.00
04277              -1.20    25600.00
04278              -0.60    25600.00
04279              -1.60    24800.00
04280              -1.40    24800.00
04281              -1.60    24000.00
04282              -1.20    24000.00
04283              -1.20    23200.00
04284              -1.20    23200.00
04285              -1.20    22400.00
04286              -1.20    22400.00
04287              -1.00    21600.00
04288              -1.20    20800.00
04289              -1.00    20800.00
04290              -1.40    20800.00
04291              -1.20    19200.00
04292              -0.40    19200.00
04293              -1.20    18400.00
04294              -1.20    17600.00
04295              -0.60    17600.00
04296              -1.20    16800.00
04297              -0.60    16000.00
04298              -0.60    16000.00
04299              -1.20    15200.00
04300              -1.20    15200.00
04301              -0.60    14400.00
04302              -0.60    14400.00
04303              -1.40    12800.00
04304              -0.60    12800.00
04305              -0.60    12800.00
04306              -0.60    11200.00
04307              -1.00    11200.00
04308              -0.20    11200.00
04309              -0.60     9600.00
04310              -1.20     9600.00
04311              -0.40     8000.00
04312               0.20     8000.00
04313              -1.00     7200.00
04314              -0.60     7200.00
04315              -0.60     6400.00
04316              -0.60     5600.00
04317              -1.00     5600.00
04318              -0.20     4800.00
04319              -0.60     4000.00
04320              -1.00     3200.00
04321              -0.40     2400.00
04322              -0.40     1600.00
04323              -0.60     1600.00
04324              -0.20      800.00
04325               0.20        0.00
04326              -0.20     -800.00
04327               1.80     -800.00
04328               3.60    -1600.00
04329              -2.00    -1600.00
04330              -0.20    -2400.00
04331               1.40    -3200.00
04332               0.40    -3200.00
04333               0.20    -4000.00
04334               8.80    -4800.00
04335              25.00    -6400.00
04336              -8.80    -8000.00
04337             -25.00    -8000.00
04338              10.80    -8000.00
04339              20.60    -8800.00
04340             -25.00    -8000.00
04341               0.60    -8800.00
04342              25.00    -9600.00
04343             -25.00   -10400.00
04344              -1.00   -10400.00
04345              25.00   -11200.00
04346             -25.00   -12000.00
04347              20.20   -13600.00
04348              12.60   -13600.00
04349             -17.20   -14400.00
04350              25.00   -14400.00
04351             -25.00   -14400.00
04352              21.00   -16000.00
04353              16.60   -16000.00
04354             -25.00   -16000.00
04355              21.20   -16800.00
04356              14.00   -17600.00
04357             -25.00   -17600.00
04358               4.00   -18400.00
04359              22.60   -19200.00
04360             -25.00   -20000.00
04361              12.60   -20000.00
04362              17.00   -20000.00
04363             -22.00   -21600.00
04364              14.60   -21600.00
04365              -0.80   -22400.00
04366             -11.80   -22400.00
04367               9.20   -23200.00
04368               2.80   -23200.00
04369              -7.60   -24000.00
04370              11.40   -24000.00
04371              -1.20   -24800.00
04372              -8.40   -24800.00
04373              11.00   -25600.00
04374              -6.20   -26400.00
04375               0.20   -26400.00
04376               6.80   -26400.00
04377              -3.40   -27200.00
04378               0.60   -27200.00
04379               3.60   -28000.00
04380              -1.20   -27200.00
04381               1.00   -28800.00
04382               4.00   -28800.00
04383              -1.80   -28800.00
04384               1.20   -29600.00
04385               3.40   -29600.00
04386              -1.20   -29600.00
04387               2.60   -30400.00
04388               3.60   -30400.00
04389              -1.00   -30400.00
04390               2.80   -30400.00
04391               2.20   -30400.00
04392              -0.20   -31200.00
04393               3.00   -32000.00
04394               2.00   -32000.00
04395               2.80   -32000.00
04396               3.40   -32000.00
04397               1.80   -32000.00
04398               2.60   -32000.00
04399               3.00   -32000.00
04400               3.40   -32800.00
04401               4.20   -32000.00
04402               5.40   -32800.00
04403               4.80   -32800.00
04404               5.00   -32000.00
04405               7.40   -32800.00
04406               5.40   -32800.00
04407               7.40   -32800.00
04408               8.60   -32800.00
04409               8.00   -32800.00
04410              11.40   -32800.00
04411              11.00   -32000.00
04412              12.20   -32800.00
04413              14.20   -32800.00
04414              13.80   -32800.00
04415              14.20   -32800.00
04416              15.00   -32000.00
04417              15.80   -32800.00
04418              18.20   -32000.00
04419              22.80   -32000.00
04420              21.60   -32000.00
04421              10.00   -32000.00
04422               8.60   -32000.00
04423              12.80   -32000.00
04424               9.20   -32000.00
04425               6.20   -30400.00
04426               7.00   -31200.00
04427               8.20   -30400.00
04428               5.40   -30400.00
04429               4.00   -30400.00
04430               6.80   -29600.00
04431               5.20   -29600.00
04432               2.80   -28800.00
04433               3.80   -29600.00
04434               3.00   -28800.00
04435               1.20   -28000.00
04436               1.40   -28000.00
04437               3.40   -28000.00
04438               1.80   -28000.00
04439               0.60   -27200.00
04440               3.00   -26400.00
04441               0.40   -27200.00
04442               0.40   -26400.00
04443               2.20   -25600.00
04444              -0.40   -25600.00
04445               0.60   -24800.00
04446               2.00   -24800.00
04447              -0.80   -24000.00
04448               0.60   -24000.00
04449               1.40   -24000.00
04450              -0.40   -23200.00
04451               0.60   -22400.00
04452               0.40   -21600.00
04453              -0.60   -22400.00
04454               0.40   -20800.00
04455               0.40   -20800.00
04456              -0.20   -20000.00
04457               0.40   -20000.00
04458               0.20   -18400.00
04459               0.60   -18400.00
04460               0.20   -17600.00
04461              -0.40   -17600.00
04462               0.40   -16800.00
04463               0.20   -16800.00
04464              -0.40   -16000.00
04465               0.40   -16000.00
04466               0.40   -14400.00
04467              -0.40   -14400.00
04468               0.20   -13600.00
04469               0.00   -13600.00
04470              -0.20   -12800.00
04471              -0.40   -12800.00
04472               0.20   -11200.00
04473               0.20   -11200.00
04474              -0.60   -10400.00
04475              -0.20    -9600.00
04476              -0.20    -9600.00
04477              -0.40    -8000.00
04478              -0.20    -8000.00
04479              -0.60    -7200.00
04480              -0.40    -6400.00
04481              -0.40    -6400.00
04482              -0.60    -6400.00
04483              -0.60    -4800.00
04484               0.20    -4000.00
04485              -0.60    -4000.00
04486              -0.40    -3200.00
04487              -0.60    -3200.00
04488              -0.40    -1600.00
04489              -1.20    -1600.00
04490              -0.60     -800.00
04491               0.20        0.00
04492              -0.80        0.00
04493               0.40      800.00
04494               2.00     1600.00
04495               2.00     1600.00
04496              -2.80     2400.00
04497              -0.20     3200.00
04498               0.60     3200.00
04499              -1.20     3200.00
04500               4.20     4800.00
04501              25.00     7200.00
04502              10.20     7200.00
04503             -25.00     8000.00
04504              -2.00     8800.00
04505              25.00     8800.00
04506             -25.00     8000.00
04507              16.60     9600.00
04508              25.00     9600.00
04509             -25.00    10400.00
04510              25.00    11200.00
04511              25.00    11200.00
04512             -25.00    12000.00
04513              25.00    12800.00
04514             -25.00    12800.00
04515              24.40    13600.00
04516              25.00    14400.00
04517             -25.00    14400.00
04518              25.00    16000.00
04519             -17.20    16000.00
04520             -25.00    16800.00
04521              25.00    17600.00
04522             -11.60    17600.00
04523             -23.00    18400.00
04524              18.60    19200.00
04525              10.80    19200.00
04526             -25.00    20000.00
04527              25.00    20000.00
04528              -2.80    21600.00
04529             -16.40    20800.00
04530              25.00    21600.00
04531             -22.00    22400.00
04532               0.40    22400.00
04533               7.40    24000.00
04534              -8.40    23200.00
04535              -1.00    24800.00
04536              12.80    24800.00
04537             -13.00    24800.00
04538               0.20    25600.00
04539               8.00    25600.00
04540             -15.00    26400.00
04541               8.20    25600.00
04542              -0.60    27200.00
04543              -5.40    27200.00
04544               2.60    27200.00
04545              -1.80    28000.00
04546              -4.20    28000.00
04547               0.60    28800.00
04548               0.40    28800.00
04549              -3.80    28800.00
04550               0.40    28800.00
04551              -2.20    29600.00
04552              -3.80    30400.00
04553               1.00    30400.00
04554              -3.20    30400.00
04555              -3.40    31200.00
04556               1.00    31200.00
04557              -4.20    30400.00
04558              -1.60    31200.00
04559              -0.60    32000.00
04560              -4.40    31200.00
04561              -1.40    32000.00
04562              -3.00    32800.00
04563              -4.40    32800.00
04564              -3.60    32000.00
04565              -4.40    32800.00
04566              -3.00    32800.00
04567              -3.80    32800.00
04568              -3.00    32800.00
04569              -4.80    33600.00
04570              -5.20    33600.00
04571              -5.20    32800.00
04572              -8.60    33600.00
04573              -6.80    33600.00
04574              -9.20    33600.00
04575              -9.20    33600.00
04576              -7.20    32800.00
04577             -12.20    33600.00
04578             -11.00    33600.00
04579             -11.80    32800.00
04580             -14.40    32800.00
04581             -14.20    32800.00
04582             -15.80    32000.00
04583             -16.40    32800.00
04584             -17.00    32800.00
04585             -18.80    32800.00
04586             -22.80    32800.00
04587             -21.20    32000.00
04588              -9.20    32000.00
04589              -9.40    31200.00
04590             -13.40    32800.00
04591             -10.00    31200.00
04592              -8.20    32000.00
04593              -8.20    32000.00
04594              -8.20    31200.00
04595              -5.80    31200.00
04596              -4.40    30400.00
04597              -6.60    30400.00
04598              -4.40    30400.00
04599              -2.80    29600.00
04600              -5.40    29600.00
04601              -4.40    28800.00
04602              -2.00    28800.00
04603              -3.40    28800.00
04604              -3.60    28000.00
04605              -1.20    28000.00
04606              -2.20    28000.00
04607              -2.80    28000.00
04608              -1.00    26400.00
04609              -2.20    26400.00
04610              -2.80    25600.00
04611              -1.20    25600.00
04612              -1.40    24800.00
04613              -1.80    24800.00
04614              -1.40    24800.00
04615              -1.20    24800.00
04616              -1.20    24000.00
04617              -1.20    24000.00
04618              -1.20    22400.00
04619              -1.20    22400.00
04620              -1.20    22400.00
04621              -1.00    21600.00
04622              -1.40    20800.00
04623              -1.20    20800.00
04624              -1.20    20000.00
04625              -0.60    19200.00
04626              -0.40    19200.00
04627              -1.40    18400.00
04628              -0.60    18400.00
04629              -1.00    17600.00
04630              -1.20    16000.00
04631              -0.40    16000.00
04632              -1.20    15200.00
04633              -0.60    15200.00
04634              -1.00    15200.00
04635              -0.80    14400.00
04636              -1.00    13600.00
04637              -0.60    12800.00
04638              -0.60    12000.00
04639              -0.60    12000.00
04640              -1.00    11200.00
04641              -0.60    11200.00
04642              -0.60    10400.00
04643              -0.20     9600.00
04644              -0.60     8800.00
04645              -0.40     8000.00
04646              -0.20     8000.00
04647              -0.60     6400.00
04648              -0.40     7200.00
04649              -0.20     6400.00
04650              -1.00     4800.00
04651              -0.40     4800.00
04652              -0.80     4000.00
04653              -0.60     3200.00
04654              -0.40     2400.00
04655              -0.40     2400.00
04656              -0.60     1600.00
04657               0.00        0.00
04658               0.20        0.00
04659               0.40        0.00
04660               0.40     -800.00
04661               3.40    -1600.00
04662               0.20    -1600.00
04663              -1.40    -1600.00
04664               1.20    -3200.00
04665               1.40    -3200.00
04666              -0.40    -4000.00
04667               3.40    -4000.00
04668              17.40    -4800.00
04669              23.20    -6400.00
04670             -25.00    -8000.00
04671             -24.60    -8000.00
04672              25.00    -8000.00
04673              -7.80    -8800.00
04674             -25.00    -8000.00
04675              25.00    -9600.00
04676              25.00   -11200.00
04677             -25.00    -9600.00
04678              25.00   -11200.00
04679               5.20   -12000.00
04680             -25.00   -12800.00
04681              25.00   -13600.00
04682             -25.00   -12800.00
04683              16.80   -14400.00
04684              -1.80   -14400.00
04685             -23.80   -14400.00
04686              25.00   -15200.00
04687             -22.60   -16000.00
04688             -11.40   -17600.00
04689              25.00   -17600.00
04690             -10.60   -17600.00
04691             -19.80   -18400.00
04692              25.00   -18400.00
04693              -4.00   -20000.00
04694             -22.60   -20000.00
04695              25.00   -20800.00
04696             -10.20   -20800.00
04697              -7.60   -21600.00
04698              17.00   -22400.00
04699             -13.00   -22400.00
04700              -0.60   -23200.00
04701               9.20   -22400.00
04702              -5.60   -24000.00
04703              -0.20   -24000.00
04704              10.60   -24800.00
04705             -10.20   -25600.00
04706               3.60   -25600.00
04707               4.60   -25600.00
04708              -8.20   -26400.00
04709               7.00   -26400.00
04710               1.00   -26400.00
04711              -2.00   -26400.00
04712               2.80   -27200.00
04713               1.80   -28000.00
04714              -1.40   -28000.00
04715               2.20   -28000.00
04716               1.80   -28800.00
04717              -2.00   -29600.00
04718               3.40   -29600.00
04719               1.20   -29600.00
04720               0.20   -29600.00
04721               4.20   -29600.00
04722               0.80   -30400.00
04723              -0.20   -30400.00
04724               4.20   -30400.00
04725              -0.40   -31200.00
04726               1.80   -32000.00
04727               3.40   -31200.00
04728               1.00   -32000.00
04729               4.20   -32000.00
04730               2.20   -32000.00
04731               2.00   -32000.00
04732               3.40   -32000.00
04733               3.00   -32000.00
04734               3.40   -32800.00
04735               4.40   -32000.00
04736               4.80   -32800.00
04737               4.60   -32800.00
04738               6.80   -32000.00
04739               6.00   -32800.00
04740               6.00   -32800.00
04741               9.40   -32800.00
04742               7.40   -32800.00
04743               9.40   -32800.00
04744              12.00   -32800.00
04745               9.80   -32800.00
04746              13.20   -32000.00
04747              14.40   -32800.00
04748              12.60   -32000.00
04749              15.20   -32800.00
04750              15.80   -32800.00
04751              16.20   -32800.00
04752              20.60   -32000.00
04753              23.60   -32000.00
04754              15.60   -32000.00
04755               7.60   -32000.00
04756              11.80   -32000.00
04757              11.40   -31200.00
04758               7.60   -32000.00
04759               6.80   -30400.00
04760               7.80   -30400.00
04761               7.60   -30400.00
04762               4.40   -30400.00
04763               4.60   -30400.00
04764               6.60   -29600.00
04765               2.20   -29600.00
04766               2.40   -29600.00
04767               5.00   -28800.00
04768               2.60   -28800.00
04769               1.80   -28800.00
04770               3.60   -28000.00
04771               1.60   -28000.00
04772               0.60   -27200.00
04773               2.60   -26400.00
04774               1.00   -27200.00
04775               0.80   -26400.00
04776               2.00   -25600.00
04777               0.20   -25600.00
04778               1.00   -25600.00
04779               1.80   -24800.00
04780               0.20   -24000.00
04781               0.60   -24000.00
04782               0.60   -24000.00
04783               0.20   -23200.00
04784               1.00   -23200.00
04785               0.60   -22400.00
04786               0.20   -22400.00
04787               0.60   -20800.00
04788               0.60   -20800.00
04789              -0.20   -20800.00
04790               0.20   -20000.00
04791               0.20   -18400.00
04792              -0.20   -19200.00
04793               0.40   -18400.00
04794               0.20   -18400.00
04795              -0.20   -17600.00
04796               0.20   -16800.00
04797               0.20   -16800.00
04798              -0.40   -16000.00
04799              -0.40   -15200.00
04800              -0.20   -15200.00
04801               0.20   -13600.00
04802               0.20   -13600.00
04803              -0.20   -12800.00
04804               0.00   -12800.00
04805              -0.20   -12000.00
04806              -0.20   -11200.00
04807              -0.60   -11200.00
04808              -0.60   -10400.00
04809              -0.40    -9600.00
04810              -0.60    -9600.00
04811              -0.20    -8000.00
04812              -0.20    -8000.00
04813              -0.40    -7200.00
04814              -0.20    -7200.00
04815              -0.60    -6400.00
04816              -0.20    -4800.00
04817              -0.60    -4800.00
04818              -0.80    -4000.00
04819              -0.40    -4000.00
04820              -0.60    -3200.00
04821              -0.60    -1600.00
04822              -0.40    -1600.00
04823              -0.60    -1600.00
04824              -0.60     -800.00
04825              -0.60        0.00
04826              -0.40        0.00
04827               0.20     1600.00
04828               3.60     1600.00
04829              -0.60     2400.00
04830              -1.60     3200.00
04831               1.20     3200.00
04832               0.40     3200.00
04833              -1.20     4000.00
04834              11.60     4800.00
04835              25.00     6400.00
04836             -25.00     7200.00
04837             -25.00     8000.00
04838              25.00     8800.00
04839              -0.40     8000.00
04840             -25.00     8800.00
04841              25.00     9600.00
04842             -13.40     9600.00
04843             -25.00    11200.00
04844              25.00    11200.00
04845             -25.00    11200.00
04846               9.00    12800.00
04847              25.00    12800.00
04848             -25.00    12800.00
04849              25.00    14400.00
04850             -25.00    14400.00
04851              -6.80    15200.00
04852              25.00    16000.00
04853             -25.00    16000.00
04854              21.80    16800.00
04855              25.00    17600.00
04856             -25.00    17600.00
04857              -8.40    18400.00
04858              25.00    19200.00
04859             -23.40    19200.00
04860              -9.80    20800.00
04861              25.00    20800.00
04862             -25.00    21600.00
04863              13.80    22400.00
04864               3.80    22400.00
04865             -20.40    22400.00
04866              12.20    23200.00
04867              -0.20    23200.00
04868              -9.00    24000.00
04869               8.20    24000.00
04870               3.20    24800.00
04871             -16.40    25600.00
04872              12.60    25600.00
04873              -6.60    25600.00
04874              -6.60    27200.00
04875               9.20    27200.00
04876              -7.00    27200.00
04877              -1.00    27200.00
04878               1.40    28000.00
04879              -3.00    28800.00
04880              -3.00    28000.00
04881               2.80    28800.00
04882              -3.40    28800.00
04883              -3.60    28800.00
04884               1.20    29600.00
04885              -4.60    29600.00
04886              -1.80    30400.00
04887               2.00    30400.00
04888              -5.20    31200.00
04889              -0.80    31200.00
04890              -0.60    31200.00
04891              -5.60    32000.00
04892              -0.20    31200.00
04893              -3.40    32000.00
04894              -3.20    32800.00
04895              -0.40    32000.00
04896              -3.60    32000.00
04897              -3.40    32800.00
04898              -3.60    32800.00
04899              -3.80    32800.00
04900              -3.60    32800.00
04901              -4.20    32800.00
04902              -4.20    33600.00
04903              -6.20    32800.00
04904              -4.40    33600.00
04905              -6.60    32800.00
04906              -7.40    32800.00
04907              -6.40    33600.00
04908             -10.00    33600.00
04909              -7.60    33600.00
04910             -10.20    33600.00
04911             -12.80    33600.00
04912             -11.00    33600.00
04913             -13.60    33600.00
04914             -13.80    33600.00
04915             -14.60    32800.00
04916             -16.00    32800.00
04917             -16.20    32800.00
04918             -17.60    32800.00
04919             -20.40    32800.00
04920             -24.20    32800.00
04921             -15.60    32000.00
04922              -7.40    32800.00
04923             -12.40    32000.00
04924             -11.20    32000.00
04925              -8.40    32000.00
04926              -7.80    31200.00
04927              -8.00    31200.00
04928              -7.80    31200.00
04929              -5.20    31200.00
04930              -5.80    30400.00
04931              -6.60    30400.00
04932              -3.00    30400.00
04933              -4.20    29600.00
04934              -5.40    28800.00
04935              -3.00    28800.00
04936              -2.60    28800.00
04937              -3.80    28800.00
04938              -2.20    28000.00
04939              -1.80    27200.00
04940              -3.00    27200.00
04941              -1.40    27200.00
04942              -1.40    26400.00
04943              -2.80    26400.00
04944              -1.40    25600.00
04945              -1.40    25600.00
04946              -1.80    24800.00
04947              -1.20    24800.00
04948              -2.00    24800.00
04949              -1.20    24000.00
04950              -1.20    23200.00
04951              -1.20    23200.00
04952              -1.00    22400.00
04953              -1.20    22400.00
04954              -1.00    21600.00
04955              -1.00    21600.00
04956              -1.00    20800.00
04957              -1.40    20000.00
04958              -1.20    20000.00
04959              -0.40    18400.00
04960              -1.20    19200.00
04961              -1.20    17600.00
04962              -0.60    17600.00
04963              -1.00    17600.00
04964              -0.60    16000.00
04965              -1.00    16000.00
04966              -0.60    16000.00
04967              -0.60    14400.00
04968              -1.00    14400.00
04969              -0.80    14400.00
04970              -1.20    13600.00
04971              -0.40    12800.00
04972              -1.00    12800.00
04973              -1.00    12000.00
04974               0.40    11200.00
04975              -0.60    10400.00
04976              -1.40     9600.00
04977              -0.60     9600.00
04978              -0.60     8800.00
04979              -0.40     8000.00
04980              -1.00     8000.00
04981              -0.40     7200.00
04982               0.20     6400.00
04983              -0.40     5600.00
04984              -1.00     4800.00
04985              -0.40     4800.00
04986              -0.60     4000.00
04987               0.00     3200.00
04988               0.40     2400.00
04989              -1.20     1600.00
04990              -1.40     1600.00
04991               0.60      800.00
04992               0.40        0.00
04993               0.40        0.00
04994               2.20     -800.00
04995               3.60    -1600.00
04996              -2.80    -1600.00
04997              -0.20    -2400.00
04998               0.60    -3200.00
04999               0.60    -3200.00
05000               1.20    -4000.00
