Unit:(mV)
                     CH1         CH2
Frequency              ? 299.995 kHz
00001              18.60    -4800.00
00002              20.80    -7200.00
00003             -25.00    -8000.00
00004             -21.00    -8000.00
00005              25.00    -8000.00
00006              -8.60    -8800.00
00007             -25.00    -8800.00
00008              25.00    -9600.00
00009              25.00   -10400.00
00010             -25.00   -10400.00
00011              25.00   -11200.00
00012              22.80   -12000.00
00013             -25.00   -12800.00
00014              25.00   -13600.00
00015             -15.60   -12800.00
00016              14.20   -14400.00
00017              -6.00   -14400.00
00018             -22.00   -15200.00
00019              25.00   -16000.00
00020             -24.40   -16800.00
00021             -14.80   -16800.00
00022              25.00   -17600.00
00023             -10.00   -17600.00
00024             -23.80   -19200.00
00025              23.40   -18400.00
00026               3.40   -19200.00
00027             -25.00   -20000.00
00028              25.00   -20800.00
00029              -2.80   -20800.00
00030             -10.20   -21600.00
00031              12.40   -22400.00
00032              -9.20   -22400.00
00033               0.40   -23200.00
00034               5.20   -23200.00
00035              -3.60   -24000.00
00036               2.80   -24000.00
00037               6.80   -24000.00
00038             -10.20   -25600.00
00039               6.00   -25600.00
00040               4.20   -25600.00
00041             -10.00   -26400.00
00042               8.80   -27200.00
00043               1.00   -27200.00
00044              -4.20   -27200.00
00045               4.40   -28000.00
00046               1.40   -28000.00
00047              -2.60   -28800.00
00048               3.60   -28800.00
00049               1.20   -28800.00
00050              -2.60   -29600.00
00051               3.60   -29600.00
00052               0.80   -29600.00
00053              -0.60   -29600.00
00054               4.20   -30400.00
00055               1.00   -30400.00
00056               0.40   -30400.00
00057               3.80   -31200.00
00058              -0.20   -31200.00
00059               2.00   -32000.00
00060               2.60   -32000.00
00061               1.00   -32000.00
00062               4.20   -32000.00
00063               2.20   -32000.00
00064               1.60   -32000.00
00065               3.60   -32000.00
00066               2.80   -32000.00
00067               3.40   -32000.00
00068               4.40   -32800.00
00069               5.40   -32000.00
00070               5.00   -32800.00
00071               6.60   -32800.00
00072               6.80   -32800.00
00073               6.60   -32800.00
00074               9.40   -32800.00
00075               7.40   -32800.00
00076              10.00   -32800.00
00077              13.40   -32800.00
00078              10.80   -32800.00
00079              12.60   -32000.00
00080              14.80   -32800.00
00081              13.00   -32800.00
00082              14.60   -32000.00
00083              17.20   -32800.00
00084              18.00   -32800.00
00085              21.20   -32000.00
00086              22.60   -32000.00
00087              11.40   -32000.00
00088               7.40   -32000.00
00089              13.40   -32000.00
00090               9.00   -32000.00
00091               5.80   -31200.00
00092               9.00   -30400.00
00093               7.40   -30400.00
00094               4.20   -31200.00
00095               5.00   -30400.00
00096               6.60   -30400.00
00097               4.00   -29600.00
00098               3.00   -29600.00
00099               3.60   -28800.00
00100               3.00   -28800.00
00101               2.00   -28800.00
00102               2.60   -28000.00
00103               1.80   -27200.00
00104               1.60   -28000.00
00105               1.40   -27200.00
00106               1.80   -27200.00
00107               1.00   -27200.00
00108               0.40   -26400.00
00109               1.00   -25600.00
00110               0.40   -25600.00
00111               0.60   -25600.00
00112               1.20   -24800.00
00113               0.20   -24800.00
00114               0.40   -24000.00
00115               0.60   -24000.00
00116               0.40   -23200.00
00117               0.40   -22400.00
00118               0.40   -22400.00
00119               0.40   -22400.00
00120               0.20   -21600.00
00121              -0.20   -20800.00
00122               0.20   -20000.00
00123              -0.20   -20000.00
00124              -0.40   -19200.00
00125               0.40   -18400.00
00126               0.40   -18400.00
00127              -0.20   -17600.00
00128               0.20   -17600.00
00129               0.20   -16800.00
00130              -0.40   -16000.00
00131               0.20   -16000.00
00132               0.20   -15200.00
00133              -0.20   -14400.00
00134              -0.20   -14400.00
00135               0.00   -13600.00
00136               0.20   -12800.00
00137              -0.20   -12800.00
00138              -0.20   -11200.00
00139               0.20   -11200.00
00140              -0.20   -10400.00
00141              -0.80   -10400.00
00142               0.20    -9600.00
00143               0.00    -9600.00
00144              -0.60    -8000.00
00145              -0.20    -8000.00
00146               0.20    -7200.00
00147              -1.00    -6400.00
00148               0.20    -6400.00
00149              -0.40    -5600.00
00150              -0.40    -4800.00
00151               0.40    -4000.00
00152              -0.80    -3200.00
00153               0.20    -3200.00
00154              -0.20    -2400.00
00155              -2.20    -1600.00
00156               1.20     -800.00
00157              -0.40        0.00
00158              -2.60        0.00
00159               2.60        0.00
00160               0.40     1600.00
00161               0.40     1600.00
00162               0.40     2400.00
00163              -1.60     3200.00
00164              -0.60     3200.00
00165               3.00     4000.00
00166              -0.20     4800.00
00167              14.00     5600.00
00168              25.00     7200.00
00169             -25.00     8000.00
00170             -25.00     8000.00
00171              25.00     8000.00
00172             -13.20     8000.00
00173             -25.00     8800.00
00174              25.00     9600.00
00175             -25.00     9600.00
00176             -25.00    11200.00
00177              25.00    11200.00
00178             -25.00    12000.00
00179              21.80    12800.00
00180              10.00    12800.00
00181             -25.00    12800.00
00182              25.00    14400.00
00183             -25.00    14400.00
00184              13.80    15200.00
00185              25.00    16000.00
00186             -25.00    16000.00
00187              25.00    16000.00
00188              25.00    17600.00
00189             -25.00    17600.00
00190              -5.80    19200.00
00191              25.00    19200.00
00192             -25.00    19200.00
00193              -3.40    20000.00
00194              25.00    20800.00
00195             -25.00    21600.00
00196              17.40    21600.00
00197              -7.00    22400.00
00198             -13.20    22400.00
00199              14.80    22400.00
00200              -8.80    24000.00
00201              -4.60    24000.00
00202              15.40    24800.00
00203              -7.60    25600.00
00204             -13.00    24800.00
00205              17.80    25600.00
00206             -14.60    25600.00
00207              -2.80    26400.00
00208              11.80    27200.00
00209             -10.00    27200.00
00210              -0.20    27200.00
00211               3.00    28000.00
00212              -5.40    28000.00
00213              -1.80    28800.00
00214               3.00    28800.00
00215              -5.00    28800.00
00216              -1.80    28800.00
00217               0.40    30400.00
00218              -5.20    29600.00
00219               0.40    30400.00
00220               1.00    30400.00
00221              -5.80    30400.00
00222               1.00    31200.00
00223              -2.60    31200.00
00224              -5.80    31200.00
00225               1.00    31200.00
00226              -4.20    30400.00
00227              -3.00    32000.00
00228               0.20    32800.00
00229              -4.40    32800.00
00230              -3.80    32000.00
00231              -3.40    32000.00
00232              -4.40    32000.00
00233              -4.20    32800.00
00234              -4.20    33600.00
00235              -4.60    32000.00
00236              -6.40    33600.00
00237              -4.60    32800.00
00238              -7.60    32800.00
00239              -7.60    33600.00
00240              -7.00    33600.00
00241             -10.60    33600.00
00242              -7.80    33600.00
00243             -10.80    33600.00
00244             -13.60    33600.00
00245             -11.40    32800.00
00246             -14.00    32800.00
00247             -14.20    32800.00
00248             -15.00    32800.00
00249             -15.80    33600.00
00250             -17.20    32800.00
00251             -19.60    32800.00
00252             -22.00    32800.00
00253             -21.40    32800.00
00254             -10.40    32000.00
00255              -8.60    32800.00
00256             -13.80    32000.00
00257              -9.40    32800.00
00258              -7.40    31200.00
00259              -8.40    31200.00
00260              -7.80    31200.00
00261              -6.00    31200.00
00262              -5.20    31200.00
00263              -6.80    31200.00
00264              -5.00    30400.00
00265              -2.80    30400.00
00266              -5.20    30400.00
00267              -4.20    29600.00
00268              -2.20    28800.00
00269              -3.40    28800.00
00270              -3.00    28800.00
00271              -1.40    28000.00
00272              -2.20    28000.00
00273              -2.20    27200.00
00274              -1.00    27200.00
00275              -1.80    26400.00
00276              -2.20    26400.00
00277              -1.20    25600.00
00278              -1.40    25600.00
00279              -1.40    24800.00
00280              -1.20    24000.00
00281              -1.80    24800.00
00282              -0.80    24000.00
00283              -1.20    24000.00
00284              -0.60    22400.00
00285              -1.00    22400.00
00286              -1.20    22400.00
00287              -0.60    21600.00
00288              -0.60    21600.00
00289              -1.20    20800.00
00290              -1.20    20000.00
00291              -1.00    19200.00
00292              -0.80    19200.00
00293              -1.00    18400.00
00294              -0.80    17600.00
00295              -1.20    17600.00
00296              -1.20    16800.00
00297              -0.20    16000.00
00298              -1.20    16000.00
00299              -1.00    15200.00
00300              -0.60    14400.00
00301              -0.80    14400.00
00302              -0.40    14400.00
00303              -1.20    12800.00
00304              -0.80    12000.00
00305              -0.20    12000.00
00306              -0.60    11200.00
00307              -1.00    10400.00
00308              -1.00     9600.00
00309              -0.60     9600.00
00310              -0.60     8800.00
00311              -1.00     8000.00
00312              -0.20     8000.00
00313              -1.00     8000.00
00314              -0.60     7200.00
00315              -0.20     5600.00
00316              -0.40     5600.00
00317              -0.20     4800.00
00318              -0.40     4000.00
00319              -0.40     3200.00
00320              -0.20     2400.00
00321              -0.60     2400.00
00322              -0.60     1600.00
00323               0.00     1600.00
00324              -0.40      800.00
00325               0.20        0.00
00326               0.60     -800.00
00327               3.00     -800.00
00328               1.20    -1600.00
00329              -1.60    -1600.00
00330               1.00    -3200.00
00331               1.40    -3200.00
00332              -0.20    -4000.00
00333               1.40    -4000.00
00334              12.20    -4800.00
00335              25.00    -6400.00
00336             -23.00    -8000.00
00337             -25.00    -8000.00
00338              19.40    -8000.00
00339              13.40    -8800.00
00340             -25.00    -8800.00
00341               9.20    -9600.00
00342              25.00   -10400.00
00343             -25.00   -10400.00
00344               3.80   -11200.00
00345              25.00   -12000.00
00346             -25.00   -12000.00
00347              16.20   -13600.00
00348               7.80   -13600.00
00349              -6.20   -13600.00
00350              17.40   -14400.00
00351             -25.00   -14400.00
00352              25.00   -16000.00
00353               6.20   -16000.00
00354             -25.00   -16800.00
00355              25.00   -17600.00
00356              10.20   -17600.00
00357             -25.00   -18400.00
00358               6.80   -19200.00
00359              22.20   -19200.00
00360             -25.00   -20000.00
00361              12.20   -20800.00
00362              15.00   -20800.00
00363             -17.40   -21600.00
00364              11.20   -22400.00
00365              -2.80   -22400.00
00366              -5.80   -23200.00
00367               6.20   -22400.00
00368              -1.40   -24000.00
00369              -1.80   -24000.00
00370               9.80   -24800.00
00371              -7.00   -24800.00
00372              -2.20   -25600.00
00373              10.00   -26400.00
00374             -10.40   -26400.00
00375               3.40   -26400.00
00376               6.80   -26400.00
00377              -5.60   -27200.00
00378               2.00   -27200.00
00379               4.20   -27200.00
00380              -2.80   -28000.00
00381               2.00   -28800.00
00382               3.80   -28800.00
00383              -2.20   -28800.00
00384               1.80   -29600.00
00385               2.20   -29600.00
00386              -1.40   -30400.00
00387               2.80   -29600.00
00388               2.60   -30400.00
00389              -0.60   -30400.00
00390               3.80   -31200.00
00391               0.60   -30400.00
00392               1.00   -32000.00
00393               3.60   -31200.00
00394               0.60   -32000.00
00395               3.60   -32000.00
00396               3.40   -32000.00
00397               1.40   -32800.00
00398               3.40   -32000.00
00399               3.40   -32800.00
00400               3.20   -32800.00
00401               4.20   -32800.00
00402               5.00   -32800.00
00403               5.00   -32000.00
00404               5.80   -32800.00
00405               6.60   -32800.00
00406               5.80   -32800.00
00407               8.60   -32800.00
00408               9.00   -32800.00
00409               9.00   -32800.00
00410              12.20   -33600.00
00411              11.00   -32800.00
00412              12.20   -32800.00
00413              14.20   -32800.00
00414              13.80   -32800.00
00415              14.60   -32800.00
00416              15.60   -32800.00
00417              17.00   -32000.00
00418              20.20   -32000.00
00419              22.60   -32000.00
00420              15.20   -32000.00
00421               7.00   -32000.00
00422              11.40   -32000.00
00423              11.00   -32000.00
00424               6.60   -31200.00
00425               7.40   -30400.00
00426               8.00   -30400.00
00427               6.80   -30400.00
00428               4.40   -29600.00
00429               5.20   -29600.00
00430               5.20   -29600.00
00431               2.80   -29600.00
00432               3.00   -28800.00
00433               4.20   -28800.00
00434               1.80   -28800.00
00435               1.40   -28800.00
00436               2.80   -28800.00
00437               1.80   -28000.00
00438               0.60   -27200.00
00439               2.20   -27200.00
00440               1.20   -26400.00
00441               0.40   -27200.00
00442               1.20   -26400.00
00443               1.00   -25600.00
00444               0.60   -25600.00
00445               1.40   -25600.00
00446               0.40   -24000.00
00447               0.60   -24000.00
00448               0.40   -23200.00
00449               0.20   -24000.00
00450               0.40   -23200.00
00451               0.20   -23200.00
00452               0.20   -22400.00
00453               0.40   -21600.00
00454               0.20   -20800.00
00455               0.60   -20800.00
00456              -0.20   -20000.00
00457               0.40   -20000.00
00458               0.40   -18400.00
00459               0.20   -18400.00
00460               0.40   -17600.00
00461              -0.20   -17600.00
00462               0.20   -16800.00
00463               0.20   -16000.00
00464              -0.20   -16800.00
00465               0.20   -14400.00
00466              -0.40   -14400.00
00467               0.20   -14400.00
00468               0.20   -13600.00
00469              -0.60   -13600.00
00470               0.40   -12800.00
00471               0.20   -12000.00
00472              -0.40   -11200.00
00473               0.40   -10400.00
00474               0.20   -10400.00
00475              -0.60    -9600.00
00476              -0.20    -9600.00
00477              -0.40    -8000.00
00478              -0.20    -8000.00
00479              -0.40    -7200.00
00480              -0.60    -7200.00
00481              -0.40    -6400.00
00482              -0.40    -5600.00
00483              -0.40    -4800.00
00484              -0.40    -4000.00
00485              -0.20    -4000.00
00486              -0.40    -3200.00
00487              -0.20    -3200.00
00488              -0.40    -1600.00
00489              -0.60    -1600.00
00490              -0.40     -800.00
00491              -0.40        0.00
00492              -0.20      800.00
00493               0.00     1600.00
00494               3.40     1600.00
00495              -0.60     2400.00
00496              -2.00     2400.00
00497               1.00     3200.00
00498               0.40     4000.00
00499              -1.40     4800.00
00500               8.60     4800.00
00501              25.00     6400.00
00502             -17.00     7200.00
00503             -25.00     8000.00
00504              18.00     8000.00
00505              13.80     8800.00
00506             -25.00     8800.00
00507              25.00     9600.00
00508              25.00     9600.00
00509             -25.00    11200.00
00510              25.00    11200.00
00511             -14.00    11200.00
00512             -25.00    12800.00
00513              25.00    12800.00
00514             -25.00    14400.00
00515              25.00    14400.00
00516             -10.80    14400.00
00517             -25.00    14400.00
00518              25.00    15200.00
00519             -25.00    16000.00
00520             -10.80    16800.00
00521              25.00    17600.00
00522             -24.60    17600.00
00523             -21.80    18400.00
00524              25.00    19200.00
00525              -3.00    20000.00
00526             -25.00    20000.00
00527              25.00    20800.00
00528             -18.00    21600.00
00529               0.40    21600.00
00530              12.20    22400.00
00531             -23.80    22400.00
00532              14.00    22400.00
00533              -1.40    24000.00
00534             -11.80    24000.00
00535              11.80    24800.00
00536               4.40    24800.00
00537             -19.80    24800.00
00538              14.60    25600.00
00539              -1.80    25600.00
00540             -15.40    25600.00
00541              14.40    27200.00
00542              -5.40    27200.00
00543              -5.60    27200.00
00544               5.20    28000.00
00545              -3.40    28000.00
00546              -4.60    28000.00
00547               2.80    28800.00
00548              -2.80    28800.00
00549              -3.80    28800.00
00550               1.40    30400.00
00551              -3.80    30400.00
00552              -2.20    30400.00
00553               2.20    30400.00
00554              -5.40    31200.00
00555              -1.40    31200.00
00556               0.20    31200.00
00557              -7.00    31200.00
00558              -0.20    31200.00
00559              -2.20    32000.00
00560              -5.40    32800.00
00561               0.40    32000.00
00562              -3.00    32000.00
00563              -4.60    32000.00
00564              -2.80    32000.00
00565              -4.20    32800.00
00566              -4.20    32800.00
00567              -3.80    32800.00
00568              -4.40    33600.00
00569              -6.20    32800.00
00570              -5.00    32800.00
00571              -6.60    33600.00
00572              -8.60    33600.00
00573              -6.20    33600.00
00574             -10.20    33600.00
00575              -8.60    33600.00
00576              -9.00    33600.00
00577             -13.60    33600.00
00578             -11.40    33600.00
00579             -13.00    32800.00
00580             -14.60    33600.00
00581             -14.60    33600.00
00582             -16.00    33600.00
00583             -16.40    33600.00
00584             -18.20    32800.00
00585             -21.40    32800.00
00586             -23.40    32800.00
00587             -13.80    32000.00
00588              -7.60    32800.00
00589             -13.20    32000.00
00590             -10.80    32000.00
00591              -7.60    31200.00
00592              -8.60    32000.00
00593              -7.80    31200.00
00594              -7.00    31200.00
00595              -5.20    31200.00
00596              -6.00    31200.00
00597              -6.00    30400.00
00598              -2.80    29600.00
00599              -4.00    30400.00
00600              -5.00    29600.00
00601              -2.60    28800.00
00602              -2.80    28800.00
00603              -3.60    28800.00
00604              -2.20    28000.00
00605              -1.80    28000.00
00606              -3.00    27200.00
00607              -1.80    27200.00
00608              -1.00    26400.00
00609              -2.60    27200.00
00610              -1.40    25600.00
00611              -1.00    25600.00
00612              -2.00    24800.00
00613              -1.00    24800.00
00614              -1.60    24000.00
00615              -1.60    24000.00
00616              -0.80    23200.00
00617              -1.40    23200.00
00618              -1.00    22400.00
00619              -1.20    22400.00
00620              -1.20    21600.00
00621              -1.20    21600.00
00622              -1.20    20800.00
00623              -1.40    20800.00
00624              -1.20    19200.00
00625              -0.60    19200.00
00626              -0.80    18400.00
00627              -1.00    18400.00
00628              -0.60    17600.00
00629              -1.20    17600.00
00630              -0.40    16000.00
00631              -0.80    16000.00
00632              -1.20    16000.00
00633              -0.60    14400.00
00634              -1.00    14400.00
00635              -1.20    14400.00
00636              -1.00    13600.00
00637              -1.00    12800.00
00638              -0.60    12000.00
00639              -0.40    12000.00
00640              -0.60    11200.00
00641              -1.00    11200.00
00642              -0.40     9600.00
00643              -0.20     9600.00
00644              -1.00     8800.00
00645              -0.40     8000.00
00646              -0.60     7200.00
00647              -0.60     7200.00
00648              -0.40     6400.00
00649              -0.40     5600.00
00650              -0.40     4800.00
00651              -0.40     4800.00
00652              -0.60     4000.00
00653              -0.40     3200.00
00654              -0.20     2400.00
00655              -0.60     1600.00
00656              -0.40     1600.00
00657               0.40      800.00
00658               0.20        0.00
00659              -0.20        0.00
00660               2.00     -800.00
00661               3.40    -1600.00
00662              -2.60    -1600.00
00663               0.20    -2400.00
00664               2.40    -3200.00
00665               0.40    -4000.00
00666              -1.20    -4000.00
00667               8.20    -4800.00
00668              25.00    -6400.00
00669               1.40    -7200.00
00670             -25.00    -8000.00
00671               2.00    -8000.00
00672              25.00    -8000.00
00673             -25.00    -8800.00
00674             -21.20    -9600.00
00675              25.00    -9600.00
00676             -13.40   -11200.00
00677             -25.00   -11200.00
00678              25.00   -12000.00
00679             -25.00   -12000.00
00680             -22.60   -12800.00
00681              25.00   -12800.00
00682             -22.00   -13600.00
00683              23.60   -14400.00
00684             -25.00   -14400.00
00685               5.80   -16000.00
00686              25.00   -16000.00
00687             -25.00   -16800.00
00688               8.60   -16800.00
00689              25.00   -17600.00
00690             -22.80   -17600.00
00691             -10.20   -18400.00
00692              25.00   -19200.00
00693             -17.20   -20000.00
00694              -8.60   -20000.00
00695              25.00   -20000.00
00696             -15.00   -20800.00
00697               1.40   -21600.00
00698               6.20   -22400.00
00699             -10.00   -23200.00
00700               5.00   -22400.00
00701               2.40   -23200.00
00702              -3.80   -24000.00
00703               7.60   -24000.00
00704               0.40   -24800.00
00705              -8.60   -24800.00
00706              11.00   -25600.00
00707              -4.00   -25600.00
00708              -4.40   -25600.00
00709              10.60   -26400.00
00710              -3.80   -27200.00
00711              -1.60   -27200.00
00712               5.80   -27200.00
00713              -1.20   -28000.00
00714              -1.00   -28800.00
00715               4.60   -28800.00
00716              -0.60   -28800.00
00717              -1.00   -29600.00
00718               4.20   -28800.00
00719              -0.40   -29600.00
00720               1.20   -30400.00
00721               4.40   -30400.00
00722              -0.20   -30400.00
00723               2.60   -31200.00
00724               2.40   -30400.00
00725              -0.40   -31200.00
00726               3.00   -32000.00
00727               2.00   -32000.00
00728               1.80   -32000.00
00729               4.40   -32000.00
00730               1.80   -32000.00
00731               2.60   -32000.00
00732               3.60   -32800.00
00733               3.00   -32000.00
00734               4.00   -32800.00
00735               5.00   -32800.00
00736               5.40   -32800.00
00737               5.40   -32800.00
00738               6.80   -32800.00
00739               6.20   -32000.00
00740               7.40   -32800.00
00741               9.00   -32800.00
00742               8.00   -33600.00
00743              10.80   -32800.00
00744              11.40   -32800.00
00745              11.40   -32800.00
00746              14.00   -32800.00
00747              13.80   -32800.00
00748              14.20   -32800.00
00749              15.40   -32800.00
00750              16.40   -32000.00
00751              19.40   -32800.00
00752              22.20   -32000.00
00753              18.80   -32000.00
00754               8.40   -32000.00
00755               9.20   -32000.00
00756              12.40   -32000.00
00757               8.20   -32000.00
00758               6.60   -30400.00
00759               7.80   -31200.00
00760               7.40   -30400.00
00761               5.20   -30400.00
00762               4.40   -30400.00
00763               6.20   -30400.00
00764               3.80   -29600.00
00765               2.60   -29600.00
00766               4.40   -28800.00
00767               2.80   -28800.00
00768               1.20   -28800.00
00769               3.00   -28000.00
00770               2.20   -27200.00
00771               0.60   -27200.00
00772               1.40   -27200.00
00773               1.40   -26400.00
00774               1.00   -26400.00
00775               1.00   -26400.00
00776               1.00   -25600.00
00777               0.40   -25600.00
00778               1.00   -24800.00
00779               0.60   -24800.00
00780               0.60   -24000.00
00781               1.00   -24000.00
00782               0.40   -23200.00
00783               0.20   -22400.00
00784               0.40   -22400.00
00785               0.20   -22400.00
00786               0.40   -21600.00
00787               0.40   -20800.00
00788               0.40   -20800.00
00789               0.20   -20000.00
00790               0.20   -19200.00
00791               0.00   -18400.00
00792               0.20   -18400.00
00793               0.40   -17600.00
00794               0.20   -17600.00
00795              -0.20   -16800.00
00796               0.40   -16000.00
00797              -0.20   -16000.00
00798               0.20   -16000.00
00799               0.20   -15200.00
00800              -0.20   -14400.00
00801               0.20   -13600.00
00802               0.00   -13600.00
00803              -0.20   -12800.00
00804              -0.40   -12800.00
00805              -0.40   -12000.00
00806               0.20   -11200.00
00807              -0.60   -11200.00
00808              -0.60   -10400.00
00809              -0.40    -9600.00
00810              -0.60    -8800.00
00811              -0.40    -8000.00
00812              -0.20    -7200.00
00813              -0.20    -7200.00
00814               0.20    -6400.00
00815              -0.40    -6400.00
00816              -0.40    -4800.00
00817              -0.40    -4800.00
00818              -0.60    -4000.00
00819              -0.40    -3200.00
00820              -0.40    -2400.00
00821              -0.60    -2400.00
00822              -0.80     -800.00
00823              -0.60     -800.00
00824              -0.40        0.00
00825              -0.20        0.00
00826               0.20        0.00
00827               2.20     1600.00
00828               2.00     2400.00
00829              -2.80     1600.00
00830               0.00     3200.00
00831               1.20     3200.00
00832              -1.20     4000.00
00833               3.60     4800.00
00834              25.00     6400.00
00835              12.60     7200.00
00836             -25.00     8000.00
00837              -4.20     8000.00
00838              25.00     8000.00
00839             -25.00     8000.00
00840               0.20     9600.00
00841              25.00     9600.00
00842             -25.00     9600.00
00843              25.00    11200.00
00844              25.00    11200.00
00845             -25.00    12000.00
00846              25.00    12800.00
00847             -25.00    12800.00
00848              14.80    14400.00
00849              25.00    14400.00
00850             -25.00    15200.00
00851              25.00    15200.00
00852               7.60    16000.00
00853             -25.00    16800.00
00854              25.00    16800.00
00855               0.40    17600.00
00856             -25.00    17600.00
00857              14.60    18400.00
00858              20.20    19200.00
00859             -25.00    19200.00
00860              21.20    20000.00
00861               7.80    20800.00
00862             -19.00    21600.00
00863              23.40    21600.00
00864             -22.00    22400.00
00865               1.80    22400.00
00866               9.40    23200.00
00867             -14.00    24000.00
00868               4.00    24000.00
00869              14.20    24800.00
00870             -17.80    24800.00
00871               1.00    24800.00
00872              12.00    25600.00
00873             -20.60    26400.00
00874               8.40    25600.00
00875               4.20    27200.00
00876             -10.20    27200.00
00877               4.20    28000.00
00878               0.00    28000.00
00879              -6.60    28000.00
00880               1.00    28800.00
00881               0.20    29600.00
00882              -5.40    28800.00
00883               0.60    29600.00
00884              -1.80    29600.00
00885              -4.60    30400.00
00886               2.00    30400.00
00887              -2.20    30400.00
00888              -4.20    31200.00
00889               2.00    31200.00
00890              -5.40    31200.00
00891              -3.00    31200.00
00892               0.40    32000.00
00893              -6.20    32000.00
00894              -0.60    32000.00
00895              -1.00    32800.00
00896              -5.20    32000.00
00897              -3.00    32800.00
00898              -3.80    32000.00
00899              -4.60    32800.00
00900              -4.00    32800.00
00901              -3.80    32800.00
00902              -5.80    33600.00
00903              -5.40    32800.00
00904              -5.00    32800.00
00905              -8.60    33600.00
00906              -6.60    33600.00
00907              -8.60    33600.00
00908             -10.20    33600.00
00909              -7.60    33600.00
00910             -12.60    32800.00
00911             -12.60    32000.00
00912             -11.60    32800.00
00913             -14.60    33600.00
00914             -14.40    32800.00
00915             -15.40    32800.00
00916             -16.20    33600.00
00917             -17.80    32800.00
00918             -19.80    32800.00
00919             -23.00    32800.00
00920             -17.80    32000.00
00921              -7.40    32000.00
00922             -10.80    32000.00
00923             -12.40    31200.00
00924              -8.40    31200.00
00925              -8.20    31200.00
00926              -8.60    31200.00
00927              -7.80    31200.00
00928              -5.40    30400.00
00929              -5.80    30400.00
00930              -6.20    30400.00
00931              -3.60    30400.00
00932              -3.60    30400.00
00933              -5.20    28800.00
00934              -3.00    28800.00
00935              -2.00    28800.00
00936              -3.80    28000.00
00937              -2.60    28000.00
00938              -1.80    28000.00
00939              -2.80    28000.00
00940              -2.60    27200.00
00941              -1.00    26400.00
00942              -2.20    26400.00
00943              -2.60    25600.00
00944              -0.80    25600.00
00945              -1.60    25600.00
00946              -2.00    24000.00
00947              -1.20    24000.00
00948              -1.40    24800.00
00949              -1.20    24000.00
00950              -1.20    23200.00
00951              -0.60    22400.00
00952              -1.20    22400.00
00953              -1.20    21600.00
00954              -1.00    20800.00
00955              -1.40    20800.00
00956              -1.40    20800.00
00957              -1.40    19200.00
00958              -0.60    19200.00
00959              -0.60    18400.00
00960              -1.40    18400.00
00961              -0.60    17600.00
00962              -1.20    16800.00
00963              -1.20    17600.00
00964              -0.40    16000.00
00965              -1.00    15200.00
00966              -1.00    15200.00
00967              -0.60    15200.00
00968              -0.40    13600.00
00969              -1.00    12800.00
00970              -0.60    12800.00
00971              -0.80    12800.00
00972              -0.60    12000.00
00973              -0.60    11200.00
00974              -0.60    11200.00
00975              -1.00    10400.00
00976              -0.40     9600.00
00977              -0.60     8800.00
00978              -0.40     8000.00
00979              -0.60     8000.00
00980              -0.60     6400.00
00981               0.20     7200.00
00982              -0.60     6400.00
00983              -1.00     5600.00
00984               0.60     4800.00
00985              -1.00     4000.00
00986              -0.60     3200.00
00987               0.40     3200.00
00988              -1.00     2400.00
00989              -0.60     1600.00
00990               0.20      800.00
00991              -0.40        0.00
00992               0.40     -800.00
00993               0.60    -1600.00
00994               3.80     -800.00
00995              -0.20    -1600.00
00996              -1.80    -2400.00
00997               1.80    -2400.00
00998               2.00    -3200.00
00999              -1.40    -4000.00
01000               4.00    -4800.00
01001              19.40    -5600.00
01002              20.60    -6400.00
01003             -25.00    -7200.00
01004             -21.40    -8000.00
01005              25.00    -8000.00
01006              -8.40    -8800.00
01007             -25.00    -8800.00
01008              25.00    -9600.00
01009              25.00   -10400.00
01010             -25.00   -10400.00
01011              25.00   -12000.00
01012              25.00   -12000.00
01013             -25.00   -12800.00
01014              25.00   -13600.00
01015             -15.00   -12800.00
01016              13.20   -14400.00
01017              -4.20   -14400.00
01018             -23.80   -16000.00
01019              25.00   -16000.00
01020             -23.00   -16000.00
01021             -16.60   -16800.00
01022              25.00   -17600.00
01023              -9.20   -17600.00
01024             -24.60   -18400.00
01025              22.60   -18400.00
01026               5.00   -20000.00
01027             -25.00   -20000.00
01028              25.00   -20000.00
01029              -1.20   -20800.00
01030             -10.80   -21600.00
01031              12.60   -22400.00
01032              -8.40   -22400.00
01033               0.40   -23200.00
01034               5.00   -23200.00
01035              -3.80   -24000.00
01036               2.20   -24000.00
01037               7.20   -24800.00
01038             -10.00   -24800.00
01039               5.80   -25600.00
01040               4.40   -25600.00
01041             -10.20   -26400.00
01042               9.00   -26400.00
01043               1.80   -27200.00
01044              -4.20   -27200.00
01045               4.60   -27200.00
01046               2.00   -28800.00
01047              -2.80   -28800.00
01048               3.60   -28800.00
01049               1.40   -28800.00
01050              -2.20   -29600.00
01051               3.60   -28800.00
01052               1.00   -29600.00
01053              -0.20   -30400.00
01054               4.20   -29600.00
01055               0.60   -30400.00
01056               0.40   -30400.00
01057               3.80   -30400.00
01058              -0.40   -31200.00
01059               2.20   -31200.00
01060               3.60   -32000.00
01061               0.60   -32000.00
01062               4.20   -32000.00
01063               2.60   -32000.00
01064               1.80   -32000.00
01065               3.60   -32000.00
01066               3.40   -32000.00
01067               3.40   -32800.00
01068               4.20   -32800.00
01069               5.20   -32800.00
01070               4.60   -32800.00
01071               6.20   -32800.00
01072               6.60   -32800.00
01073               6.00   -32800.00
01074               9.00   -32800.00
01075               8.40   -32800.00
01076              10.00   -32800.00
01077              11.80   -32800.00
01078              11.00   -32800.00
01079              13.20   -32800.00
01080              13.80   -32800.00
01081              14.00   -32800.00
01082              15.00   -32000.00
01083              15.60   -32000.00
01084              18.00   -32800.00
01085              21.20   -32000.00
01086              21.40   -32000.00
01087              11.60   -32000.00
01088               7.40   -32000.00
01089              13.00   -32000.00
01090              10.00   -32000.00
01091               6.20   -31200.00
01092               7.60   -30400.00
01093               8.20   -30400.00
01094               5.80   -30400.00
01095               4.60   -30400.00
01096               6.00   -29600.00
01097               4.60   -29600.00
01098               2.60   -29600.00
01099               3.80   -29600.00
01100               3.60   -28800.00
01101               1.40   -28800.00
01102               2.60   -28800.00
01103               2.60   -28000.00
01104               1.20   -27200.00
01105               1.20   -27200.00
01106               2.00   -27200.00
01107               1.80   -27200.00
01108               0.60   -26400.00
01109               1.80   -26400.00
01110               0.60   -25600.00
01111               0.40   -25600.00
01112               1.00   -24800.00
01113               0.60   -24000.00
01114               0.20   -24000.00
01115               0.40   -24000.00
01116               0.40   -23200.00
01117               0.40   -23200.00
01118               0.40   -22400.00
01119               0.20   -21600.00
01120               0.60   -20800.00
01121               0.40   -20800.00
01122               0.40   -20000.00
01123               0.20   -20000.00
01124               0.20   -19200.00
01125               0.20   -18400.00
01126               0.20   -18400.00
01127               0.20   -17600.00
01128              -0.20   -17600.00
01129               0.20   -16800.00
01130              -0.20   -16800.00
01131              -0.20   -16000.00
01132              -0.20   -14400.00
01133              -0.40   -14400.00
01134              -0.20   -14400.00
01135               0.00   -13600.00
01136              -0.40   -12800.00
01137              -0.20   -12800.00
01138              -0.40   -12000.00
01139               0.20   -11200.00
01140              -0.40   -11200.00
01141              -0.40    -9600.00
01142              -0.20    -9600.00
01143              -0.60    -9600.00
01144              -0.60    -8000.00
01145              -0.40    -8000.00
01146              -0.40    -7200.00
01147              -0.40    -6400.00
01148              -0.60    -6400.00
01149              -0.40    -4800.00
01150              -0.20    -4000.00
01151              -0.60    -4000.00
01152              -0.40    -3200.00
01153              -0.20    -3200.00
01154              -1.00    -1600.00
01155              -0.60    -1600.00
01156              -0.60    -1600.00
01157              -0.60     -800.00
01158              -0.20        0.00
01159               0.20        0.00
01160               1.00     1600.00
01161               3.40     1600.00
01162              -2.20     2400.00
01163              -1.00     2400.00
01164               1.40     3200.00
01165              -0.60     4000.00
01166              -0.20     4800.00
01167              15.60     4800.00
01168              25.00     7200.00
01169             -25.00     8000.00
01170             -25.00     8000.00
01171              25.00     8000.00
01172              -9.40     8000.00
01173             -25.00     8800.00
01174              25.00    10400.00
01175             -22.20     9600.00
01176             -25.00    11200.00
01177              25.00    11200.00
01178             -25.00    12000.00
01179              19.00    12800.00
01180              12.40    12800.00
01181             -25.00    13600.00
01182              25.00    14400.00
01183             -25.00    15200.00
01184              11.40    15200.00
01185              25.00    16000.00
01186             -25.00    16000.00
01187              25.00    16800.00
01188              25.00    16800.00
01189             -25.00    18400.00
01190              -6.00    18400.00
01191              25.00    19200.00
01192             -25.00    19200.00
01193              -4.40    19200.00
01194              25.00    20800.00
01195             -25.00    21600.00
01196              17.40    21600.00
01197              -6.80    22400.00
01198             -14.00    22400.00
01199              16.60    23200.00
01200              -9.40    24000.00
01201              -5.20    24000.00
01202              15.80    24000.00
01203              -8.40    24800.00
01204             -12.60    25600.00
01205              18.40    24800.00
01206             -14.60    26400.00
01207              -3.80    25600.00
01208              12.20    27200.00
01209             -11.00    27200.00
01210              -0.40    27200.00
01211               3.40    28000.00
01212              -5.40    28000.00
01213              -1.40    28800.00
01214               3.00    28800.00
01215              -5.00    28800.00
01216              -1.80    29600.00
01217               0.20    29600.00
01218              -5.40    30400.00
01219               0.40    29600.00
01220               0.40    30400.00
01221              -5.80    30400.00
01222               1.20    31200.00
01223              -2.80    31200.00
01224              -5.60    31200.00
01225               1.40    31200.00
01226              -4.40    32000.00
01227              -3.00    32000.00
01228               0.60    32800.00
01229              -4.60    32000.00
01230              -3.80    32800.00
01231              -2.80    32800.00
01232              -4.40    32800.00
01233              -4.20    32800.00
01234              -3.80    32800.00
01235              -4.60    33600.00
01236              -6.40    33600.00
01237              -4.60    32800.00
01238              -7.40    32800.00
01239              -7.60    32800.00
01240              -7.00    33600.00
01241             -10.20    32800.00
01242              -7.80    33600.00
01243             -10.60    33600.00
01244             -13.20    32800.00
01245             -11.60    33600.00
01246             -13.80    32800.00
01247             -14.60    33600.00
01248             -14.80    32800.00
01249             -15.80    32800.00
01250             -16.60    32800.00
01251             -19.00    32000.00
01252             -21.80    32800.00
01253             -21.40    32000.00
01254             -10.20    32800.00
01255              -8.40    32000.00
01256             -13.60    32000.00
01257              -9.40    32000.00
01258              -7.60    31200.00
01259              -8.60    31200.00
01260              -7.40    31200.00
01261              -6.60    31200.00
01262              -5.20    30400.00
01263              -6.20    30400.00
01264              -5.60    30400.00
01265              -3.40    30400.00
01266              -4.40    28800.00
01267              -4.40    28800.00
01268              -2.60    28800.00
01269              -2.80    28800.00
01270              -3.40    28000.00
01271              -2.20    28000.00
01272              -2.00    27200.00
01273              -3.00    27200.00
01274              -1.40    27200.00
01275              -1.40    26400.00
01276              -2.80    25600.00
01277              -1.00    25600.00
01278              -1.20    24800.00
01279              -1.40    24800.00
01280              -1.40    24000.00
01281              -1.80    24000.00
01282              -1.00    24000.00
01283              -1.80    23200.00
01284              -1.20    23200.00
01285              -1.20    22400.00
01286              -1.80    21600.00
01287              -1.20    21600.00
01288              -1.00    20800.00
01289              -1.20    20800.00
01290              -1.40    20000.00
01291              -1.00    19200.00
01292               0.00    18400.00
01293              -0.80    18400.00
01294              -0.60    17600.00
01295              -0.40    17600.00
01296              -1.20    16800.00
01297              -0.60    16000.00
01298              -1.00    16000.00
01299              -1.00    15200.00
01300              -1.00    14400.00
01301              -0.40    14400.00
01302              -0.40    12800.00
01303              -0.60    12800.00
01304              -0.60    12000.00
01305              -0.40    12000.00
01306              -0.60    11200.00
01307              -0.60    11200.00
01308              -0.60    10400.00
01309              -0.20     8800.00
01310              -0.40     9600.00
01311              -0.60     8000.00
01312              -0.20     8000.00
01313              -1.00     7200.00
01314              -1.00     7200.00
01315              -0.40     5600.00
01316              -0.60     5600.00
01317              -0.40     4800.00
01318               0.00     4000.00
01319              -0.20     3200.00
01320               0.20     2400.00
01321              -0.40     2400.00
01322              -0.60     1600.00
01323               0.20     1600.00
01324              -0.40        0.00
01325              -0.20        0.00
01326               0.40     -800.00
01327               3.00     -800.00
01328               1.00    -1600.00
01329              -1.80    -1600.00
01330               1.20    -3200.00
01331               1.00    -3200.00
01332              -0.40    -4000.00
01333               1.20    -4800.00
01334              11.00    -4800.00
01335              25.00    -6400.00
01336             -21.40    -8000.00
01337             -25.00    -8000.00
01338              18.60    -8000.00
01339              14.60    -8800.00
01340             -25.00    -8000.00
01341               7.40    -8800.00
01342              25.00   -10400.00
01343             -25.00   -10400.00
01344               0.80   -11200.00
01345              25.00   -12800.00
01346             -25.00   -12800.00
01347              14.80   -13600.00
01348               9.40   -12800.00
01349              -7.00   -14400.00
01350              18.20   -14400.00
01351             -25.00   -15200.00
01352              25.00   -16000.00
01353               7.60   -16000.00
01354             -25.00   -16800.00
01355              25.00   -17600.00
01356              11.60   -17600.00
01357             -25.00   -17600.00
01358               6.60   -18400.00
01359              23.40   -19200.00
01360             -25.00   -19200.00
01361              11.60   -20000.00
01362              16.20   -20800.00
01363             -18.20   -21600.00
01364              10.60   -22400.00
01365              -2.00   -22400.00
01366              -6.20   -23200.00
01367               6.60   -23200.00
01368              -0.60   -24000.00
01369              -1.60   -24000.00
01370              10.00   -24000.00
01371              -6.20   -24000.00
01372              -2.40   -25600.00
01373              10.60   -25600.00
01374              -9.80   -26400.00
01375               2.80   -26400.00
01376               7.40   -26400.00
01377              -5.40   -27200.00
01378               1.80   -27200.00
01379               4.40   -28000.00
01380              -2.80   -28800.00
01381               1.80   -28800.00
01382               4.00   -28800.00
01383              -2.00   -28800.00
01384               1.80   -29600.00
01385               3.00   -29600.00
01386              -1.20   -29600.00
01387               3.00   -30400.00
01388               2.80   -30400.00
01389              -0.60   -31200.00
01390               3.60   -30400.00
01391               0.60   -30400.00
01392               0.40   -31200.00
01393               3.40   -31200.00
01394               0.60   -32000.00
01395               3.40   -31200.00
01396               4.00   -32800.00
01397               1.20   -32000.00
01398               3.40   -32000.00
01399               3.60   -32800.00
01400               3.40   -32800.00
01401               4.20   -32800.00
01402               5.00   -32000.00
01403               5.00   -32800.00
01404               5.80   -32800.00
01405               6.60   -32800.00
01406               5.80   -32800.00
01407               8.40   -32800.00
01408               8.40   -32800.00
01409               8.40   -32800.00
01410              12.40   -32800.00
01411              10.80   -32800.00
01412              11.80   -32000.00
01413              14.60   -32800.00
01414              13.40   -32800.00
01415              14.80   -32800.00
01416              15.40   -32800.00
01417              17.20   -32000.00
01418              19.80   -32000.00
01419              22.20   -32000.00
01420              15.80   -32000.00
01421               6.80   -32000.00
01422              11.40   -31200.00
01423              11.80   -31200.00
01424               6.80   -31200.00
01425               7.40   -30400.00
01426               8.40   -30400.00
01427               6.80   -31200.00
01428               5.00   -30400.00
01429               5.20   -29600.00
01430               5.40   -30400.00
01431               3.00   -29600.00
01432               2.80   -29600.00
01433               4.60   -28800.00
01434               2.00   -28800.00
01435               1.20   -28800.00
01436               3.00   -27200.00
01437               2.20   -27200.00
01438               0.60   -27200.00
01439               2.20   -27200.00
01440               1.80   -26400.00
01441               0.40   -27200.00
01442               1.20   -26400.00
01443               1.20   -25600.00
01444               0.20   -25600.00
01445               1.20   -25600.00
01446               1.00   -24800.00
01447               0.40   -24000.00
01448               0.60   -24000.00
01449               0.60   -24000.00
01450               0.20   -23200.00
01451               0.40   -22400.00
01452               0.60   -22400.00
01453               0.40   -20800.00
01454               0.20   -20800.00
01455               0.40   -20800.00
01456               0.00   -20000.00
01457              -0.40   -19200.00
01458               0.20   -18400.00
01459               0.40   -18400.00
01460              -0.20   -17600.00
01461              -0.40   -17600.00
01462               0.40   -16800.00
01463              -0.40   -16000.00
01464              -0.40   -16000.00
01465               0.40   -16000.00
01466              -0.20   -14400.00
01467              -0.40   -14400.00
01468              -0.20   -13600.00
01469              -0.60   -12800.00
01470              -0.60   -12000.00
01471              -0.60   -12000.00
01472              -0.40   -11200.00
01473               0.20   -11200.00
01474              -0.60   -10400.00
01475              -0.40    -9600.00
01476              -0.20    -9600.00
01477              -0.40    -8000.00
01478               0.00    -8000.00
01479              -0.20    -7200.00
01480              -0.20    -7200.00
01481              -0.40    -6400.00
01482              -0.40    -4800.00
01483              -0.40    -4800.00
01484              -0.60    -4000.00
01485              -0.80    -4000.00
01486              -0.60    -3200.00
01487              -0.60    -2400.00
01488              -0.60    -2400.00
01489              -0.60    -1600.00
01490              -0.40     -800.00
01491              -0.20        0.00
01492               0.20        0.00
01493               0.40     1600.00
01494               3.40     1600.00
01495              -0.40     2400.00
01496              -2.00     2400.00
01497               0.80     3200.00
01498               0.40     3200.00
01499              -1.40     3200.00
01500               8.40     5600.00
01501              25.00     6400.00
01502             -15.60     8000.00
01503             -25.00     8000.00
01504              17.20     8800.00
01505              15.20     8000.00
01506             -25.00     8800.00
01507              25.00    10400.00
01508              25.00     9600.00
01509             -25.00    11200.00
01510              25.00    11200.00
01511             -11.00    12000.00
01512             -25.00    12000.00
01513              25.00    12800.00
01514             -25.00    12800.00
01515              25.00    14400.00
01516              -7.00    14400.00
01517             -25.00    15200.00
01518              25.00    15200.00
01519             -25.00    16000.00
01520             -13.20    16000.00
01521              25.00    16000.00
01522             -24.40    17600.00
01523             -22.80    18400.00
01524              25.00    18400.00
01525              -1.80    19200.00
01526             -25.00    20800.00
01527              25.00    20800.00
01528             -17.40    20800.00
01529              -0.60    21600.00
01530              13.40    22400.00
01531             -24.60    22400.00
01532              14.00    23200.00
01533              -1.00    24000.00
01534             -12.40    24000.00
01535              11.60    24000.00
01536               4.20    24800.00
01537             -19.40    24800.00
01538              13.80    24800.00
01539              -2.20    25600.00
01540             -15.60    26400.00
01541              14.60    26400.00
01542              -5.60    27200.00
01543              -5.40    27200.00
01544               5.40    27200.00
01545              -3.40    28000.00
01546              -5.20    28000.00
01547               3.00    28800.00
01548              -2.20    28800.00
01549              -4.80    29600.00
01550               1.40    28800.00
01551              -3.00    30400.00
01552              -2.80    30400.00
01553               2.60    30400.00
01554              -4.20    31200.00
01555              -2.00    31200.00
01556               0.60    31200.00
01557              -6.20    31200.00
01558              -0.20    32000.00
01559              -2.00    31200.00
01560              -5.00    32000.00
01561               0.60    32000.00
01562              -3.00    32800.00
01563              -4.80    32000.00
01564              -2.80    32800.00
01565              -4.20    32800.00
01566              -4.40    32800.00
01567              -3.80    32800.00
01568              -3.80    33600.00
01569              -6.00    33600.00
01570              -4.40    33600.00
01571              -5.80    32800.00
01572              -8.40    33600.00
01573              -5.80    33600.00
01574              -9.60    32800.00
01575              -9.00    33600.00
01576              -9.00    33600.00
01577             -13.40    32800.00
01578             -11.80    32800.00
01579             -13.00    32800.00
01580             -15.00    33600.00
01581             -14.40    33600.00
01582             -15.40    33600.00
01583             -16.40    32800.00
01584             -17.80    32000.00
01585             -20.80    32800.00
01586             -23.00    32000.00
01587             -14.00    32800.00
01588              -7.00    32000.00
01589             -13.00    32000.00
01590             -11.20    31200.00
01591              -7.40    32000.00
01592              -9.20    31200.00
01593              -8.20    31200.00
01594              -6.60    31200.00
01595              -6.00    30400.00
01596              -6.00    30400.00
01597              -6.20    30400.00
01598              -3.60    30400.00
01599              -3.00    29600.00
01600              -5.20    28800.00
01601              -2.80    28800.00
01602              -1.80    28800.00
01603              -4.60    28800.00
01604              -2.60    28000.00
01605              -1.20    27200.00
01606              -3.60    27200.00
01607              -2.00    27200.00
01608              -0.80    27200.00
01609              -3.60    26400.00
01610              -2.00    25600.00
01611              -0.40    24800.00
01612              -1.80    24800.00
01613              -1.20    24800.00
01614              -1.40    24000.00
01615              -2.20    24000.00
01616              -1.20    24000.00
01617              -0.60    24000.00
01618              -1.20    22400.00
01619              -1.00    22400.00
01620              -0.80    21600.00
01621              -1.20    21600.00
01622              -0.60    20800.00
01623              -1.20    20000.00
01624              -1.40    19200.00
01625              -0.40    18400.00
01626              -1.20    18400.00
01627              -1.20    18400.00
01628              -0.60    17600.00
01629              -1.00    17600.00
01630              -0.20    16800.00
01631               0.20    16000.00
01632              -1.20    15200.00
01633              -1.00    14400.00
01634              -1.20    14400.00
01635              -1.00    14400.00
01636              -0.60    12800.00
01637              -0.20    12800.00
01638              -0.20    12800.00
01639              -0.20    12000.00
01640              -0.60    11200.00
01641              -1.20    10400.00
01642              -0.60     9600.00
01643               0.00     8800.00
01644              -1.20     8800.00
01645              -0.60     8000.00
01646              -0.60     8000.00
01647              -0.60     6400.00
01648               0.20     6400.00
01649               0.20     5600.00
01650              -0.40     5600.00
01651               0.20     4800.00
01652              -1.00     4000.00
01653              -0.60     3200.00
01654              -0.60     2400.00
01655              -1.20     2400.00
01656              -0.40     1600.00
01657               0.20     1600.00
01658              -0.40        0.00
01659               0.20     -800.00
01660               1.80     -800.00
01661               2.60    -1600.00
01662              -1.80    -1600.00
01663               0.20    -2400.00
01664               1.80    -3200.00
01665               0.40    -3200.00
01666              -0.40    -3200.00
01667               7.00    -4800.00
01668              24.60    -6400.00
01669               3.60    -7200.00
01670             -25.00    -8000.00
01671              -1.00    -8000.00
01672              25.00    -8800.00
01673             -25.00    -8800.00
01674             -23.80    -8800.00
01675              25.00   -10400.00
01676              -9.40   -10400.00
01677             -25.00   -11200.00
01678              25.00   -12000.00
01679             -25.00   -12000.00
01680             -23.80   -12800.00
01681              25.00   -13600.00
01682             -20.60   -13600.00
01683              23.80   -14400.00
01684             -25.00   -14400.00
01685               5.20   -16000.00
01686              25.00   -16000.00
01687             -25.00   -16000.00
01688               7.80   -17600.00
01689              25.00   -17600.00
01690             -23.60   -17600.00
01691             -11.40   -19200.00
01692              25.00   -19200.00
01693             -16.60   -19200.00
01694              -9.40   -20000.00
01695              25.00   -20800.00
01696             -14.80   -20800.00
01697               0.60   -22400.00
01698               7.00   -22400.00
01699              -9.60   -23200.00
01700               5.00   -23200.00
01701               2.80   -23200.00
01702              -3.80   -24000.00
01703               7.60   -24000.00
01704               1.20   -24800.00
01705              -8.80   -24800.00
01706              11.00   -25600.00
01707              -3.00   -26400.00
01708              -4.80   -26400.00
01709              10.20   -26400.00
01710              -3.40   -27200.00
01711              -1.40   -27200.00
01712               5.20   -28000.00
01713              -0.60   -28000.00
01714              -0.60   -28800.00
01715               4.40   -28800.00
01716              -0.40   -28800.00
01717              -1.20   -28800.00
01718               4.40   -29600.00
01719              -0.40   -29600.00
01720               0.20   -29600.00
01721               5.00   -29600.00
01722              -0.40   -30400.00
01723               1.20   -30400.00
01724               3.40   -32000.00
01725              -0.60   -30400.00
01726               2.00   -31200.00
01727               3.20   -32000.00
01728               2.00   -32000.00
01729               3.60   -32000.00
01730               2.20   -32000.00
01731               2.20   -32000.00
01732               3.40   -32000.00
01733               3.60   -32000.00
01734               3.40   -32000.00
01735               4.60   -32000.00
01736               5.20   -32800.00
01737               4.60   -32800.00
01738               6.60   -32800.00
01739               6.20   -32800.00
01740               7.20   -32800.00
01741               9.20   -32000.00
01742               8.20   -32800.00
01743              10.80   -32800.00
01744              11.60   -32800.00
01745              11.40   -32800.00
01746              14.20   -32000.00
01747              13.80   -32800.00
01748              14.40   -32800.00
01749              15.00   -32800.00
01750              16.40   -32000.00
01751              19.40   -32000.00
01752              22.20   -32800.00
01753              19.00   -32000.00
01754               9.20   -32000.00
01755               9.40   -32000.00
01756              13.00   -32000.00
01757               8.60   -31200.00
01758               6.40   -32000.00
01759               8.40   -30400.00
01760               8.20   -30400.00
01761               5.00   -30400.00
01762               4.80   -29600.00
01763               6.20   -29600.00
01764               3.60   -29600.00
01765               2.40   -28800.00
01766               4.60   -29600.00
01767               3.00   -28800.00
01768               1.40   -28800.00
01769               3.40   -28800.00
01770               2.40   -28800.00
01771               0.60   -27200.00
01772               2.00   -27200.00
01773               2.00   -27200.00
01774               0.60   -26400.00
01775               1.20   -26400.00
01776               1.40   -25600.00
01777               0.20   -25600.00
01778               0.80   -25600.00
01779               0.80   -24800.00
01780               0.40   -24800.00
01781               0.60   -23200.00
01782               0.40   -24000.00
01783               0.60   -23200.00
01784               0.20   -22400.00
01785               0.20   -22400.00
01786               0.60   -20800.00
01787               0.20   -20800.00
01788               0.20   -20800.00
01789               0.20   -20000.00
01790              -0.40   -20000.00
01791              -0.40   -19200.00
01792               0.20   -18400.00
01793              -0.20   -17600.00
01794              -0.60   -17600.00
01795               0.20   -17600.00
01796               0.40   -16800.00
01797              -0.20   -16000.00
01798               0.20   -15200.00
01799              -0.20   -15200.00
01800              -0.60   -14400.00
01801               0.20   -13600.00
01802              -0.20   -13600.00
01803              -0.60   -12800.00
01804              -0.20   -12000.00
01805              -0.40   -11200.00
01806              -0.20   -11200.00
01807              -0.40   -10400.00
01808              -0.60   -10400.00
01809              -0.40    -9600.00
01810              -0.40    -9600.00
01811              -0.40    -8000.00
01812              -0.20    -7200.00
01813              -0.40    -7200.00
01814              -0.40    -6400.00
01815              -0.60    -6400.00
01816              -0.40    -4800.00
01817              -0.60    -4000.00
01818              -0.60    -4000.00
01819              -0.40    -4000.00
01820              -0.20    -3200.00
01821              -0.60    -1600.00
01822              -0.40    -1600.00
01823              -0.60     -800.00
01824              -0.60        0.00
01825              -0.20        0.00
01826               0.40     1600.00
01827               2.00     1600.00
01828               2.20     2400.00
01829              -2.80     2400.00
01830              -0.20     3200.00
01831               1.20     3200.00
01832              -1.20     4000.00
01833               3.80     4800.00
01834              25.00     6400.00
01835              14.40     7200.00
01836             -25.00     8000.00
01837              -5.00     8000.00
01838              25.00     8800.00
01839             -25.00     8000.00
01840              -1.80     9600.00
01841              25.00     9600.00
01842             -25.00     9600.00
01843              25.00    11200.00
01844              25.00    11200.00
01845             -25.00    12000.00
01846              25.00    12800.00
01847             -25.00    13600.00
01848              11.80    14400.00
01849              25.00    14400.00
01850             -25.00    15200.00
01851              25.00    15200.00
01852              10.00    16000.00
01853             -25.00    16000.00
01854              25.00    17600.00
01855               1.00    16800.00
01856             -25.00    18400.00
01857              13.40    18400.00
01858              20.60    19200.00
01859             -25.00    19200.00
01860              20.20    20000.00
01861               9.00    20800.00
01862             -19.80    22400.00
01863              23.60    21600.00
01864             -21.80    22400.00
01865               1.00    22400.00
01866               9.80    23200.00
01867             -14.00    24000.00
01868               3.80    24000.00
01869              13.80    24800.00
01870             -17.80    24800.00
01871               0.60    24800.00
01872              12.20    25600.00
01873             -20.80    26400.00
01874               8.20    25600.00
01875               4.60    27200.00
01876             -10.20    27200.00
01877               4.20    28000.00
01878               0.40    28000.00
01879              -6.20    28000.00
01880               1.20    28800.00
01881               1.00    28800.00
01882              -5.20    28800.00
01883               0.60    28800.00
01884              -1.60    30400.00
01885              -4.60    30400.00
01886               2.00    30400.00
01887              -2.20    31200.00
01888              -3.80    31200.00
01889               2.20    31200.00
01890              -5.20    31200.00
01891              -3.00    31200.00
01892               0.60    31200.00
01893              -6.00    32000.00
01894              -0.60    32000.00
01895              -0.60    32800.00
01896              -5.40    32800.00
01897              -2.60    33600.00
01898              -3.80    32800.00
01899              -4.60    32800.00
01900              -3.80    32800.00
01901              -3.80    32800.00
01902              -5.80    33600.00
01903              -5.20    33600.00
01904              -4.60    33600.00
01905              -8.60    33600.00
01906              -6.40    33600.00
01907              -8.40    33600.00
01908             -10.20    33600.00
01909              -7.60    33600.00
01910             -12.60    33600.00
01911             -12.40    33600.00
01912             -11.80    32800.00
01913             -14.60    32800.00
01914             -14.20    32800.00
01915             -15.60    33600.00
01916             -16.20    32800.00
01917             -17.20    32800.00
01918             -19.80    32800.00
01919             -23.40    32000.00
01920             -18.20    32000.00
01921              -8.20    31200.00
01922             -11.00    32000.00
01923             -12.60    32000.00
01924              -8.40    32000.00
01925              -8.20    32000.00
01926              -8.40    31200.00
01927              -7.60    31200.00
01928              -5.60    30400.00
01929              -5.20    30400.00
01930              -6.60    30400.00
01931              -3.80    30400.00
01932              -3.40    29600.00
01933              -5.60    29600.00
01934              -3.60    28800.00
01935              -2.20    28800.00
01936              -3.80    28000.00
01937              -3.00    28000.00
01938              -1.60    27200.00
01939              -2.80    28000.00
01940              -2.20    27200.00
01941              -1.00    27200.00
01942              -2.20    26400.00
01943              -2.20    26400.00
01944              -0.60    25600.00
01945              -1.80    25600.00
01946              -1.40    24800.00
01947              -1.40    24000.00
01948              -1.80    24000.00
01949              -1.20    24000.00
01950              -1.40    23200.00
01951              -1.00    22400.00
01952              -1.20    22400.00
01953              -1.00    21600.00
01954              -0.60    21600.00
01955              -1.00    20800.00
01956              -1.00    20800.00
01957              -0.80    19200.00
01958              -0.60    19200.00
01959              -0.40    19200.00
01960              -1.00    18400.00
01961              -0.80    17600.00
01962              -1.00    17600.00
01963              -1.00    16800.00
01964              -0.60    16000.00
01965              -1.00    16000.00
01966              -0.60    14400.00
01967              -0.60    15200.00
01968              -0.60    14400.00
01969              -0.60    14400.00
01970              -0.40    12800.00
01971              -0.60    12800.00
01972              -0.20    12000.00
01973              -0.60    11200.00
01974              -0.40    10400.00
01975              -0.60     9600.00
01976               0.20     9600.00
01977              -0.60     8800.00
01978              -0.80     8000.00
01979              -0.20     8000.00
01980              -1.00     6400.00
01981              -0.60     7200.00
01982              -0.20     5600.00
01983              -1.00     4800.00
01984              -0.40     4800.00
01985              -0.40     4000.00
01986              -0.40     3200.00
01987              -0.40     2400.00
01988              -0.80     2400.00
01989              -0.60     1600.00
01990              -0.20        0.00
01991              -0.40        0.00
01992               0.20        0.00
01993               1.00     -800.00
01994               3.60    -1600.00
01995              -0.60    -1600.00
01996              -1.20    -2400.00
01997               1.40    -3200.00
01998               1.00    -3200.00
01999              -0.80    -4000.00
02000               3.80    -4000.00
02001              17.60    -4800.00
02002              22.00    -6400.00
02003             -25.00    -8000.00
02004             -23.40    -8000.00
02005              25.00    -8000.00
02006              -6.60    -9600.00
02007             -25.00    -8800.00
02008              25.00    -9600.00
02009              25.00   -10400.00
02010             -25.00   -10400.00
02011              25.00   -11200.00
02012              25.00   -12000.00
02013             -25.00   -12800.00
02014              25.00   -13600.00
02015             -14.20   -13600.00
02016              12.20   -14400.00
02017              -3.40   -14400.00
02018             -24.40   -16000.00
02019              25.00   -16800.00
02020             -22.00   -16000.00
02021             -17.20   -16800.00
02022              25.00   -17600.00
02023              -8.20   -17600.00
02024             -25.00   -19200.00
02025              22.40   -18400.00
02026               6.00   -20000.00
02027             -25.00   -20000.00
02028              25.00   -20000.00
02029               0.00   -20800.00
02030             -11.80   -22400.00
02031              13.20   -22400.00
02032              -7.60   -23200.00
02033              -0.40   -23200.00
02034               6.00   -23200.00
02035              -4.20   -24000.00
02036               2.40   -24000.00
02037               9.80   -24000.00
02038             -11.80   -24800.00
02039               5.20   -25600.00
02040               7.60   -25600.00
02041             -13.40   -25600.00
02042               8.20   -26400.00
02043               4.40   -27200.00
02044              -7.20   -27200.00
02045               4.40   -27200.00
02046               5.20   -27200.00
02047              -5.20   -28800.00
02048               2.80   -28800.00
02049               4.20   -28800.00
02050              -4.60   -29600.00
02051               3.80   -28800.00
02052               2.60   -29600.00
02053              -1.80   -30400.00
02054               4.60   -30400.00
02055               1.00   -30400.00
02056              -1.20   -31200.00
02057               5.00   -30400.00
02058               0.20   -31200.00
02059               0.20   -32000.00
02060               5.40   -31200.00
02061              -0.20   -32000.00
02062               2.20   -31200.00
02063               5.40   -32000.00
02064               1.20   -32000.00
02065               2.20   -32000.00
02066               5.40   -32800.00
02067               2.60   -32000.00
02068               2.80   -32800.00
02069               6.80   -32800.00
02070               4.20   -32800.00
02071               5.80   -33600.00
02072               7.60   -32000.00
02073               5.60   -32800.00
02074               8.40   -32800.00
02075               9.20   -32800.00
02076               9.00   -32800.00
02077              12.60   -32000.00
02078              11.60   -32800.00
02079              12.20   -32000.00
02080              15.00   -32800.00
02081              13.80   -32800.00
02082              14.20   -32800.00
02083              17.00   -32000.00
02084              17.80   -32800.00
02085              20.60   -32000.00
02086              22.80   -32000.00
02087              11.40   -32000.00
02088               7.00   -32000.00
02089              13.80   -32000.00
02090               9.80   -31200.00
02091               6.60   -31200.00
02092               8.40   -30400.00
02093               7.60   -30400.00
02094               5.80   -30400.00
02095               5.00   -30400.00
02096               5.80   -30400.00
02097               5.20   -29600.00
02098               2.80   -29600.00
02099               3.80   -28800.00
02100               4.20   -28800.00
02101               1.40   -28800.00
02102               2.20   -28000.00
02103               3.00   -27200.00
02104               1.40   -27200.00
02105               0.60   -27200.00
02106               2.60   -27200.00
02107               1.00   -26400.00
02108               0.20   -25600.00
02109               1.80   -26400.00
02110               0.60   -25600.00
02111               0.40   -25600.00
02112               1.40   -24000.00
02113               0.20   -24800.00
02114               0.20   -24000.00
02115               0.60   -24000.00
02116               0.20   -23200.00
02117               0.40   -22400.00
02118               0.20   -22400.00
02119               0.00   -20800.00
02120               0.00   -20800.00
02121               0.20   -20800.00
02122              -0.20   -20800.00
02123              -0.20   -20000.00
02124              -0.20   -19200.00
02125               0.00   -18400.00
02126               0.40   -17600.00
02127               0.20   -17600.00
02128              -0.20   -16800.00
02129               0.20   -16800.00
02130              -0.20   -16800.00
02131              -0.20   -16000.00
02132               0.20   -15200.00
02133              -0.60   -14400.00
02134              -0.60   -14400.00
02135              -0.20   -13600.00
02136              -0.40   -12800.00
02137              -0.40   -12800.00
02138              -0.20   -12000.00
02139              -0.20   -11200.00
02140              -0.20   -11200.00
02141              -0.40   -10400.00
02142              -0.20    -9600.00
02143              -0.40    -8800.00
02144              -0.20    -8000.00
02145              -0.40    -8000.00
02146              -0.60    -7200.00
02147              -0.40    -6400.00
02148              -0.60    -6400.00
02149              -0.60    -5600.00
02150              -0.20    -4000.00
02151              -0.60    -4000.00
02152              -0.40    -3200.00
02153               0.00    -3200.00
02154              -0.40    -2400.00
02155              -0.40    -1600.00
02156              -0.20     -800.00
02157              -0.20        0.00
02158              -0.20        0.00
02159               0.20        0.00
02160               1.00     1600.00
02161               3.40     2400.00
02162              -2.00     2400.00
02163              -1.00     3200.00
02164               1.40     3200.00
02165              -0.20     4800.00
02166               0.00     4000.00
02167              15.20     5600.00
02168              25.00     7200.00
02169             -25.00     8000.00
02170             -25.00     8000.00
02171              25.00     8000.00
02172              -8.60     8800.00
02173             -25.00     8800.00
02174              25.00     9600.00
02175             -20.40     9600.00
02176             -25.00    11200.00
02177              25.00    11200.00
02178             -25.00    11200.00
02179              17.40    12800.00
02180              14.00    12800.00
02181             -25.00    13600.00
02182              25.00    14400.00
02183             -25.00    15200.00
02184               8.60    16000.00
02185              25.00    15200.00
02186             -25.00    16000.00
02187              25.00    16000.00
02188              25.00    17600.00
02189             -25.00    18400.00
02190              -6.80    18400.00
02191              25.00    19200.00
02192             -25.00    20000.00
02193              -5.00    20000.00
02194              25.00    20800.00
02195             -25.00    21600.00
02196              16.60    21600.00
02197              -6.00    22400.00
02198             -15.00    22400.00
02199              16.40    23200.00
02200              -9.40    24000.00
02201              -5.20    24000.00
02202              15.40    24800.00
02203              -7.60    24800.00
02204             -13.00    25600.00
02205              18.20    25600.00
02206             -14.00    25600.00
02207              -3.80    27200.00
02208              12.40    27200.00
02209             -10.80    27200.00
02210              -0.20    27200.00
02211               3.60    28000.00
02212              -5.40    28000.00
02213              -2.00    28800.00
02214               3.00    28000.00
02215              -4.80    28800.00
02216              -2.00    29600.00
02217               0.60    29600.00
02218              -4.80    30400.00
02219               0.20    30400.00
02220               1.00    31200.00
02221              -5.40    30400.00
02222               1.40    31200.00
02223              -2.20    31200.00
02224              -5.80    31200.00
02225               1.20    32000.00
02226              -4.20    32000.00
02227              -3.00    32000.00
02228              -0.20    32000.00
02229              -4.40    32800.00
02230              -3.40    32800.00
02231              -3.40    32800.00
02232              -4.40    32800.00
02233              -3.40    32000.00
02234              -3.80    33600.00
02235              -4.60    32800.00
02236              -5.80    32800.00
02237              -4.40    32800.00
02238              -7.60    33600.00
02239              -7.40    33600.00
02240              -6.20    32800.00
02241             -11.40    32800.00
02242              -8.20    32800.00
02243              -9.60    33600.00
02244             -14.00    32800.00
02245             -11.80    32800.00
02246             -12.60    33600.00
02247             -14.60    32800.00
02248             -15.60    33600.00
02249             -15.00    33600.00
02250             -17.20    32800.00
02251             -19.80    32800.00
02252             -21.80    32000.00
02253             -21.40    32000.00
02254             -11.00    32800.00
02255              -8.60    32000.00
02256             -13.40    31200.00
02257             -10.00    32000.00
02258              -8.40    32000.00
02259              -8.60    31200.00
02260              -7.40    31200.00
02261              -7.00    31200.00
02262              -5.20    30400.00
02263              -6.00    30400.00
02264              -5.40    30400.00
02265              -3.00    30400.00
02266              -4.60    29600.00
02267              -4.60    28800.00
02268              -2.20    28800.00
02269              -2.80    28800.00
02270              -3.60    28800.00
02271              -2.00    27200.00
02272              -1.80    28000.00
02273              -3.00    27200.00
02274              -1.20    27200.00
02275              -1.40    27200.00
02276              -2.40    25600.00
02277              -0.80    25600.00
02278              -1.40    25600.00
02279              -1.80    24800.00
02280              -1.00    24800.00
02281              -1.80    24000.00
02282              -1.00    24000.00
02283              -0.60    23200.00
02284              -1.20    22400.00
02285              -0.60    22400.00
02286              -1.00    22400.00
02287              -1.20    21600.00
02288              -0.60    20800.00
02289              -1.00    20800.00
02290              -1.20    19200.00
02291              -1.00    19200.00
02292              -0.20    19200.00
02293              -1.00    18400.00
02294              -0.60    17600.00
02295              -0.60    17600.00
02296              -1.20    17600.00
02297              -0.20    16000.00
02298              -1.00    16000.00
02299              -1.20    15200.00
02300              -0.40    15200.00
02301              -1.00    14400.00
02302              -0.80    12800.00
02303              -0.60    12800.00
02304              -1.00    12800.00
02305              -0.60    12000.00
02306              -0.60    11200.00
02307              -0.60    11200.00
02308              -1.40     9600.00
02309              -0.20     9600.00
02310               0.40     8800.00
02311              -1.20     8800.00
02312              -0.20     8000.00
02313              -0.60     7200.00
02314              -1.00     6400.00
02315              -0.20     6400.00
02316              -0.40     5600.00
02317              -0.80     4800.00
02318              -0.60     4000.00
02319               0.20     3200.00
02320              -0.60     3200.00
02321              -1.00     2400.00
02322              -0.60     1600.00
02323              -0.20      800.00
02324              -0.40        0.00
02325               0.20        0.00
02326               0.40     -800.00
02327               2.80    -1600.00
02328               1.00    -1600.00
02329              -1.80    -2400.00
02330               1.00    -3200.00
02331               1.20    -3200.00
02332              -0.40    -3200.00
02333               0.60    -4000.00
02334              11.40    -4800.00
02335              25.00    -6400.00
02336             -21.20    -7200.00
02337             -25.00    -8000.00
02338              18.00    -8000.00
02339              14.80    -9600.00
02340             -25.00    -8000.00
02341               6.80    -8800.00
02342              25.00   -11200.00
02343             -25.00   -10400.00
02344              -0.60   -11200.00
02345              25.00   -12800.00
02346             -25.00   -12000.00
02347              14.20   -12800.00
02348              10.00   -13600.00
02349              -8.00   -13600.00
02350              19.00   -14400.00
02351             -25.00   -15200.00
02352              25.00   -16000.00
02353               9.00   -16000.00
02354             -25.00   -16800.00
02355              25.00   -17600.00
02356              12.20   -17600.00
02357             -25.00   -18400.00
02358               6.20   -18400.00
02359              23.40   -19200.00
02360             -25.00   -19200.00
02361              11.00   -20800.00
02362              16.60   -20800.00
02363             -18.80   -20800.00
02364              10.80   -22400.00
02365              -1.80   -22400.00
02366              -6.80   -23200.00
02367               6.80   -24000.00
02368               0.20   -23200.00
02369              -2.60   -24000.00
02370               9.80   -24000.00
02371              -5.80   -25600.00
02372              -3.20   -25600.00
02373              10.60   -25600.00
02374              -9.20   -26400.00
02375               2.60   -26400.00
02376               6.80   -27200.00
02377              -5.00   -27200.00
02378               1.40   -27200.00
02379               4.20   -28000.00
02380              -2.80   -28800.00
02381               1.40   -28800.00
02382               3.80   -28800.00
02383              -2.20   -29600.00
02384               1.40   -29600.00
02385               2.80   -29600.00
02386              -1.40   -29600.00
02387               2.60   -29600.00
02388               2.80   -30400.00
02389              -0.60   -30400.00
02390               3.60   -30400.00
02391               0.60   -32000.00
02392               0.40   -31200.00
02393               3.60   -31200.00
02394               0.80   -32000.00
02395               2.60   -32000.00
02396               4.20   -32800.00
02397               1.00   -32000.00
02398               2.60   -32800.00
02399               4.00   -32000.00
02400               2.80   -32800.00
02401               3.80   -32800.00
02402               5.60   -32800.00
02403               5.00   -32800.00
02404               5.20   -32800.00
02405               7.40   -32800.00
02406               6.20   -32800.00
02407               8.20   -32800.00
02408               9.00   -32000.00
02409               9.20   -32800.00
02410              12.20   -32800.00
02411              10.60   -32800.00
02412              12.20   -32800.00
02413              14.60   -32800.00
02414              13.20   -32000.00
02415              14.80   -32800.00
02416              16.20   -32800.00
02417              16.60   -32800.00
02418              20.20   -32800.00
02419              23.40   -32000.00
02420              15.60   -32000.00
02421               7.40   -32000.00
02422              11.80   -32000.00
02423              11.40   -32000.00
02424               6.80   -31200.00
02425               7.40   -30400.00
02426               7.80   -30400.00
02427               7.00   -30400.00
02428               4.80   -30400.00
02429               5.00   -30400.00
02430               6.00   -29600.00
02431               3.40   -29600.00
02432               3.00   -29600.00
02433               4.60   -28800.00
02434               2.00   -28800.00
02435               2.20   -28800.00
02436               3.00   -28800.00
02437               1.80   -28000.00
02438               1.00   -27200.00
02439               1.80   -27200.00
02440               1.20   -27200.00
02441               0.80   -26400.00
02442               0.60   -26400.00
02443               0.60   -25600.00
02444               1.00   -25600.00
02445               0.80   -24800.00
02446               0.40   -24800.00
02447               0.60   -24000.00
02448               0.40   -24000.00
02449               0.20   -24000.00
02450               0.40   -23200.00
02451               0.40   -22400.00
02452               0.40   -21600.00
02453              -0.40   -21600.00
02454               0.20   -20800.00
02455               0.40   -20800.00
02456              -0.40   -20000.00
02457               0.00   -19200.00
02458               0.40   -18400.00
02459              -0.20   -18400.00
02460              -0.20   -17600.00
02461               0.20   -17600.00
02462              -0.20   -16800.00
02463              -0.20   -16800.00
02464               0.20   -16000.00
02465               0.00   -15200.00
02466              -0.40   -14400.00
02467              -0.20   -14400.00
02468              -0.20   -14400.00
02469              -0.40   -13600.00
02470              -0.20   -12800.00
02471              -0.60   -12800.00
02472               0.00   -11200.00
02473               0.20   -11200.00
02474              -0.60   -10400.00
02475              -0.20    -9600.00
02476              -0.20    -9600.00
02477              -0.60    -8800.00
02478              -0.20    -8000.00
02479              -0.40    -8000.00
02480              -0.20    -7200.00
02481              -0.20    -6400.00
02482              -0.40    -4800.00
02483              -0.60    -4800.00
02484              -0.40    -4000.00
02485               0.20    -4000.00
02486              -0.60    -3200.00
02487              -0.40    -2400.00
02488              -0.20    -1600.00
02489              -1.00    -1600.00
02490              -0.40     -800.00
02491              -0.20        0.00
02492              -0.60        0.00
02493               0.40      800.00
02494               3.40     1600.00
02495              -0.40     1600.00
02496              -2.20     2400.00
02497               1.20     3200.00
02498               1.00     4000.00
02499              -1.40     3200.00
02500               7.60     4800.00
02501              25.00     6400.00
02502             -13.20     7200.00
02503             -25.00     7200.00
02504              15.60     8000.00
02505              16.20     8000.00
02506             -25.00     8800.00
02507              25.00     9600.00
02508              25.00     9600.00
02509             -25.00    10400.00
02510              25.00    11200.00
02511              -8.20    11200.00
02512             -25.00    12000.00
02513              25.00    12800.00
02514             -25.00    12800.00
02515              25.00    14400.00
02516              -5.20    14400.00
02517             -25.00    15200.00
02518              25.00    15200.00
02519             -25.00    16000.00
02520             -14.80    16800.00
02521              25.00    17600.00
02522             -24.20    17600.00
02523             -22.00    18400.00
02524              25.00    19200.00
02525              -2.20    19200.00
02526             -25.00    20000.00
02527              25.00    20800.00
02528             -17.20    20800.00
02529              -1.00    21600.00
02530              14.60    21600.00
02531             -25.00    22400.00
02532              13.40    23200.00
02533              -0.40    23200.00
02534             -13.20    24000.00
02535              10.80    24000.00
02536               5.80    24800.00
02537             -20.20    24800.00
02538              13.20    25600.00
02539              -0.20    25600.00
02540             -16.20    26400.00
02541              14.20    27200.00
02542              -4.60    27200.00
02543              -5.60    27200.00
02544               5.40    28000.00
02545              -3.60    28000.00
02546              -5.00    28000.00
02547               3.80    28800.00
02548              -3.40    28800.00
02549              -4.60    28800.00
02550               2.60    28800.00
02551              -3.80    30400.00
02552              -3.80    30400.00
02553               3.40    30400.00
02554              -4.00    30400.00
02555              -2.20    31200.00
02556               0.60    31200.00
02557              -5.20    31200.00
02558              -0.40    31200.00
02559              -2.80    32000.00
02560              -4.60    32000.00
02561               1.00    32000.00
02562              -4.20    32800.00
02563              -3.80    32000.00
02564              -1.20    32800.00
02565              -6.00    32800.00
02566              -4.60    32800.00
02567              -2.20    32000.00
02568              -5.20    32800.00
02569              -6.80    32800.00
02570              -3.40    33600.00
02571              -6.20    33600.00
02572              -9.40    32800.00
02573              -5.80    32800.00
02574              -9.80    33600.00
02575              -9.80    33600.00
02576              -8.60    33600.00
02577             -13.00    32800.00
02578             -11.80    32800.00
02579             -12.80    32800.00
02580             -14.20    33600.00
02581             -14.80    33600.00
02582             -16.20    32800.00
02583             -16.40    32000.00
02584             -18.20    32800.00
02585             -21.40    32800.00
02586             -23.40    32000.00
02587             -14.20    32000.00
02588              -7.20    32000.00
02589             -12.60    32000.00
02590             -11.40    32000.00
02591              -7.60    32000.00
02592              -8.60    31200.00
02593              -8.20    31200.00
02594              -7.00    31200.00
02595              -5.20    31200.00
02596              -6.00    30400.00
02597              -6.20    30400.00
02598              -3.20    30400.00
02599              -4.20    29600.00
02600              -5.20    28800.00
02601              -2.80    28800.00
02602              -2.60    28800.00
02603              -3.80    28800.00
02604              -2.00    28800.00
02605              -1.20    27200.00
02606              -3.00    27200.00
02607              -1.40    27200.00
02608              -0.80    27200.00
02609              -2.80    26400.00
02610              -1.40    25600.00
02611              -0.60    25600.00
02612              -2.00    24800.00
02613              -1.20    24800.00
02614              -1.20    24800.00
02615              -1.20    24000.00
02616              -0.60    24000.00
02617              -0.60    23200.00
02618              -1.00    22400.00
02619              -1.20    22400.00
02620              -0.60    21600.00
02621              -0.60    20800.00
02622              -1.20    20000.00
02623              -1.20    20800.00
02624              -1.20    20000.00
02625              -0.60    19200.00
02626              -1.00    18400.00
02627              -1.20    17600.00
02628              -0.60    18400.00
02629              -1.00    16800.00
02630              -0.60    16000.00
02631              -0.60    16000.00
02632              -1.00    15200.00
02633              -0.60    15200.00
02634              -0.40    14400.00
02635              -0.60    14400.00
02636              -1.20    13600.00
02637              -0.60    12800.00
02638              -0.60    12000.00
02639              -0.80    11200.00
02640              -0.80    11200.00
02641              -1.00    10400.00
02642              -1.00     9600.00
02643               0.20     8800.00
02644              -1.20     8800.00
02645              -0.60     8000.00
02646              -0.40     8000.00
02647              -0.60     6400.00
02648              -0.60     6400.00
02649              -0.40     5600.00
02650              -0.80     5600.00
02651              -0.40     4000.00
02652              -0.60     3200.00
02653              -0.40     3200.00
02654              -0.60     1600.00
02655              -1.20     1600.00
02656              -0.60      800.00
02657              -0.40        0.00
02658              -0.40        0.00
02659              -0.20     -800.00
02660               2.00    -1600.00
02661               3.00    -1600.00
02662              -2.00    -2400.00
02663               0.60    -3200.00
02664               1.40    -3200.00
02665               0.20    -3200.00
02666              -0.20    -4000.00
02667               7.00    -4800.00
02668              24.20    -5600.00
02669               5.00    -7200.00
02670             -25.00    -8000.00
02671              -2.00    -8000.00
02672              25.00    -8800.00
02673             -25.00    -8800.00
02674             -24.60    -8800.00
02675              25.00   -10400.00
02676              -8.20   -10400.00
02677             -25.00   -11200.00
02678              25.00   -11200.00
02679             -25.00   -12800.00
02680             -25.00   -12800.00
02681              25.00   -12800.00
02682             -21.20   -13600.00
02683              23.80   -14400.00
02684             -25.00   -14400.00
02685               3.80   -15200.00
02686              25.00   -16000.00
02687             -25.00   -16800.00
02688               6.60   -16800.00
02689              25.00   -17600.00
02690             -23.40   -17600.00
02691             -11.60   -18400.00
02692              25.00   -19200.00
02693             -17.00   -20000.00
02694             -10.60   -20000.00
02695              25.00   -20000.00
02696             -14.80   -20800.00
02697               0.40   -22400.00
02698               7.80   -22400.00
02699             -10.20   -23200.00
02700               4.20   -23200.00
02701               3.00   -23200.00
02702              -4.40   -24000.00
02703               6.40   -24000.00
02704               0.80   -24000.00
02705              -8.60   -25600.00
02706              11.00   -25600.00
02707              -3.60   -26400.00
02708              -5.40   -26400.00
02709              10.00   -27200.00
02710              -3.00   -27200.00
02711              -1.60   -28800.00
02712               5.20   -27200.00
02713              -0.60   -28000.00
02714              -1.20   -28800.00
02715               4.20   -28800.00
02716              -0.60   -29600.00
02717              -0.60   -29600.00
02718               3.40   -29600.00
02719              -1.00   -30400.00
02720               1.40   -29600.00
02721               3.40   -30400.00
02722              -0.20   -30400.00
02723               2.20   -30400.00
02724               2.60   -31200.00
02725               0.20   -31200.00
02726               3.40   -32000.00
02727               2.20   -32000.00
02728               1.80   -32000.00
02729               4.00   -32000.00
02730               1.80   -32000.00
02731               2.00   -32000.00
02732               3.60   -32000.00
02733               3.40   -32800.00
02734               3.60   -32800.00
02735               4.60   -32800.00
02736               5.40   -32800.00
02737               5.20   -32800.00
02738               6.80   -32800.00
02739               6.40   -32800.00
02740               7.00   -32000.00
02741               9.20   -32800.00
02742               8.40   -32800.00
02743              11.40   -33600.00
02744              11.60   -32800.00
02745              11.60   -32800.00
02746              14.00   -32800.00
02747              13.40   -32800.00
02748              14.60   -32800.00
02749              15.40   -32800.00
02750              16.40   -32800.00
02751              19.20   -32800.00
02752              22.60   -32000.00
02753              19.40   -32000.00
02754               9.20   -32000.00
02755               9.40   -32000.00
02756              13.00   -32000.00
02757               8.40   -31200.00
02758               6.60   -30400.00
02759               8.40   -30400.00
02760               7.40   -30400.00
02761               5.00   -31200.00
02762               4.60   -30400.00
02763               6.00   -29600.00
02764               3.80   -29600.00
02765               2.60   -29600.00
02766               4.20   -28800.00
02767               2.80   -28800.00
02768               1.40   -28800.00
02769               3.00   -28800.00
02770               2.60   -28000.00
02771               0.40   -27200.00
02772               1.40   -27200.00
02773               1.80   -27200.00
02774               0.60   -26400.00
02775               1.20   -26400.00
02776               1.00   -25600.00
02777               0.20   -25600.00
02778               1.00   -25600.00
02779               0.60   -24800.00
02780               0.40   -24800.00
02781               0.60   -24000.00
02782               0.40   -23200.00
02783               0.40   -23200.00
02784               0.20   -22400.00
02785               0.20   -22400.00
02786               0.40   -21600.00
02787               0.20   -20800.00
02788               0.20   -20800.00
02789               0.20   -20000.00
02790               0.20   -20000.00
02791               0.00   -18400.00
02792               0.20   -19200.00
02793               0.20   -17600.00
02794              -0.20   -18400.00
02795              -0.20   -17600.00
02796              -0.40   -17600.00
02797              -0.40   -16000.00
02798              -0.20   -16000.00
02799              -0.20   -15200.00
02800              -0.20   -14400.00
02801               0.00   -14400.00
02802               0.20   -12800.00
02803               0.20   -12800.00
02804              -0.20   -12800.00
02805              -0.40   -11200.00
02806               0.20   -10400.00
02807              -0.60   -11200.00
02808              -0.60   -10400.00
02809              -0.40    -9600.00
02810              -1.00    -8800.00
02811               0.20    -8000.00
02812               0.20    -7200.00
02813               0.20    -7200.00
02814               1.00    -6400.00
02815              -0.20    -6400.00
02816               0.00    -4800.00
02817              -0.40    -4800.00
02818              -1.20    -4000.00
02819              -1.20    -3200.00
02820              -1.20    -3200.00
02821              -1.00    -1600.00
02822               0.20    -1600.00
02823               0.40     -800.00
02824               1.00        0.00
02825               0.40        0.00
02826              -0.40        0.00
02827               1.00     1600.00
02828               1.20     1600.00
02829              -4.40     2400.00
02830              -0.60     3200.00
02831               2.20     3200.00
02832              -0.60     4800.00
02833               4.40     4800.00
02834              25.00     6400.00
02835              15.80     7200.00
02836             -25.00     8000.00
02837              -7.60     8000.00
02838              25.00     8000.00
02839             -25.00     8800.00
02840              -3.60     8800.00
02841              25.00    10400.00
02842             -25.00     9600.00
02843              25.00    11200.00
02844              25.00    12000.00
02845             -25.00    12000.00
02846              25.00    12800.00
02847             -25.00    12800.00
02848               9.40    14400.00
02849              25.00    14400.00
02850             -25.00    15200.00
02851              25.00    16000.00
02852              14.40    16000.00
02853             -25.00    16800.00
02854              25.00    16800.00
02855               2.00    17600.00
02856             -25.00    18400.00
02857              12.40    18400.00
02858              21.40    19200.00
02859             -25.00    20000.00
02860              20.40    20800.00
02861              11.60    21600.00
02862             -20.40    21600.00
02863              23.40    22400.00
02864             -21.80    22400.00
02865              -1.40    22400.00
02866               9.40    24000.00
02867             -13.00    24000.00
02868               3.40    24000.00
02869              14.80    24800.00
02870             -16.20    24800.00
02871              -0.20    25600.00
02872              12.20    25600.00
02873             -21.00    25600.00
02874               6.80    27200.00
02875               4.20    27200.00
02876             -10.60    27200.00
02877               4.60    28000.00
02878               0.60    27200.00
02879              -5.80    28800.00
02880               1.40    28000.00
02881               0.40    28800.00
02882              -6.00    29600.00
02883               0.40    28800.00
02884              -1.20    30400.00
02885              -5.00    29600.00
02886               3.00    30400.00
02887              -1.80    30400.00
02888              -4.20    31200.00
02889               2.20    31200.00
02890              -5.60    31200.00
02891              -3.80    31200.00
02892               0.40    32000.00
02893              -6.20    32800.00
02894              -1.00    32000.00
02895              -0.20    32800.00
02896              -5.00    32800.00
02897              -2.60    32800.00
02898              -3.80    32000.00
02899              -5.00    32800.00
02900              -4.40    32800.00
02901              -4.40    32800.00
02902              -6.00    32000.00
02903              -5.40    32800.00
02904              -4.60    33600.00
02905              -8.40    32800.00
02906              -6.40    32800.00
02907              -8.60    32800.00
02908             -10.60    33600.00
02909              -7.60    33600.00
02910             -12.60    33600.00
02911             -12.60    32800.00
02912             -11.60    33600.00
02913             -14.20    32800.00
02914             -14.20    32000.00
02915             -15.40    33600.00
02916             -16.60    32800.00
02917             -18.00    32800.00
02918             -20.40    32800.00
02919             -23.40    32000.00
02920             -18.80    32800.00
02921              -7.80    32000.00
02922             -10.60    32000.00
02923             -12.40    31200.00
02924              -8.20    31200.00
02925              -8.00    31200.00
02926              -8.60    31200.00
02927              -7.80    31200.00
02928              -5.40    31200.00
02929              -5.40    30400.00
02930              -6.60    30400.00
02931              -3.60    29600.00
02932              -3.40    29600.00
02933              -5.80    28800.00
02934              -3.20    28800.00
02935              -2.40    28800.00
02936              -3.60    28000.00
02937              -2.40    28000.00
02938              -1.80    28000.00
02939              -2.60    27200.00
02940              -1.80    27200.00
02941              -0.80    27200.00
02942              -2.20    26400.00
02943              -2.20    26400.00
02944              -1.00    25600.00
02945              -1.40    25600.00
02946              -1.20    24800.00
02947              -1.20    24800.00
02948              -1.20    24000.00
02949              -0.60    24000.00
02950              -1.20    23200.00
02951              -1.00    22400.00
02952              -1.00    21600.00
02953              -1.40    21600.00
02954              -0.60    21600.00
02955              -1.20    20800.00
02956              -1.20    20800.00
02957              -1.20    19200.00
02958              -0.60    19200.00
02959              -0.60    19200.00
02960              -1.20    18400.00
02961              -0.60    17600.00
02962              -1.00    17600.00
02963              -1.00    16000.00
02964              -0.40    16000.00
02965              -1.20    16000.00
02966              -0.60    15200.00
02967              -1.00    15200.00
02968              -0.60    14400.00
02969              -1.00    13600.00
02970              -1.00    12800.00
02971              -0.40    12000.00
02972              -0.60    11200.00
02973              -0.40    11200.00
02974              -0.60    10400.00
02975              -1.20     9600.00
02976              -0.40     9600.00
02977              -0.20     8800.00
02978              -1.20     8000.00
02979              -1.00     8000.00
02980              -1.00     7200.00
02981              -0.80     6400.00
02982              -0.40     5600.00
02983              -0.60     5600.00
02984              -0.60     4800.00
02985              -0.40     4000.00
02986              -0.60     3200.00
02987               0.20     3200.00
02988              -0.40     1600.00
02989              -1.00     1600.00
02990               0.00        0.00
02991               0.00        0.00
02992              -0.40     -800.00
02993               1.00     -800.00
02994               4.20     -800.00
02995              -1.00    -1600.00
02996              -1.20    -1600.00
02997               1.80    -3200.00
02998               0.80    -3200.00
02999              -0.60    -4000.00
03000               4.20    -4800.00
03001              17.20    -5600.00
03002              22.80    -7200.00
03003             -25.00    -8000.00
03004             -24.20    -8000.00
03005              25.00    -8000.00
03006              -5.40    -8800.00
03007             -25.00    -8800.00
03008              25.00    -9600.00
03009              25.00   -10400.00
03010             -25.00   -10400.00
03011              25.00   -12000.00
03012              25.00   -11200.00
03013             -25.00   -12800.00
03014              25.00   -12800.00
03015             -13.40   -13600.00
03016              11.00   -14400.00
03017              -1.60   -14400.00
03018             -25.00   -15200.00
03019              25.00   -16000.00
03020             -20.60   -16000.00
03021             -18.20   -17600.00
03022              25.00   -16800.00
03023              -7.80   -17600.00
03024             -25.00   -18400.00
03025              21.80   -18400.00
03026               6.20   -19200.00
03027             -25.00   -20000.00
03028              25.00   -20000.00
03029              -0.20   -20800.00
03030             -11.80   -20800.00
03031              13.00   -22400.00
03032              -8.20   -22400.00
03033              -0.60   -22400.00
03034               5.00   -23200.00
03035              -3.60   -24000.00
03036               2.20   -24000.00
03037               7.60   -24800.00
03038             -10.20   -24800.00
03039               5.00   -25600.00
03040               5.00   -25600.00
03041             -10.80   -26400.00
03042               8.40   -27200.00
03043               1.80   -26400.00
03044              -4.60   -27200.00
03045               4.40   -28000.00
03046               2.00   -28000.00
03047              -2.80   -28800.00
03048               3.40   -28800.00
03049               1.60   -28800.00
03050              -2.60   -28800.00
03051               3.40   -29600.00
03052               1.00   -29600.00
03053              -0.60   -29600.00
03054               3.80   -30400.00
03055               1.00   -30400.00
03056               0.40   -30400.00
03057               3.80   -30400.00
03058              -0.40   -30400.00
03059               1.80   -32000.00
03060               3.00   -32000.00
03061               0.80   -32000.00
03062               4.20   -32000.00
03063               2.60   -32000.00
03064               1.60   -32800.00
03065               3.60   -32000.00
03066               3.40   -32000.00
03067               3.40   -32000.00
03068               4.40   -32800.00
03069               5.20   -32000.00
03070               5.00   -32800.00
03071               6.20   -32800.00
03072               6.60   -32800.00
03073               6.00   -32800.00
03074               9.00   -32800.00
03075               8.40   -32800.00
03076              10.00   -32800.00
03077              12.20   -32800.00
03078              11.00   -32800.00
03079              13.40   -32800.00
03080              14.20   -32800.00
03081              14.00   -32800.00
03082              15.20   -32800.00
03083              15.80   -32800.00
03084              18.00   -32000.00
03085              21.20   -32000.00
03086              21.80   -32000.00
03087              11.80   -32000.00
03088               7.40   -31200.00
03089              12.40   -31200.00
03090              10.00   -31200.00
03091               6.20   -31200.00
03092               7.80   -30400.00
03093               8.00   -30400.00
03094               6.20   -30400.00
03095               4.40   -30400.00
03096               5.80   -29600.00
03097               5.00   -29600.00
03098               2.20   -29600.00
03099               3.60   -29600.00
03100               4.20   -28800.00
03101               1.20   -28800.00
03102               2.00   -28000.00
03103               2.60   -28000.00
03104               1.00   -27200.00
03105               1.20   -27200.00
03106               2.60   -27200.00
03107               1.20   -27200.00
03108               0.60   -26400.00
03109               1.40   -26400.00
03110               0.40   -25600.00
03111               0.40   -24800.00
03112               1.00   -25600.00
03113               0.40   -24000.00
03114               0.40   -24000.00
03115               0.20   -24000.00
03116               0.40   -22400.00
03117               0.40   -22400.00
03118               0.00   -22400.00
03119               0.40   -21600.00
03120               0.40   -20800.00
03121               0.20   -20800.00
03122               0.40   -20000.00
03123              -0.20   -20000.00
03124               0.20   -18400.00
03125               0.60   -19200.00
03126               0.40   -17600.00
03127               0.40   -17600.00
03128               0.20   -17600.00
03129              -0.20   -16800.00
03130              -0.20   -16000.00
03131               0.20   -16000.00
03132               0.20   -14400.00
03133              -0.40   -14400.00
03134              -0.20   -13600.00
03135               0.20   -13600.00
03136              -0.20   -12800.00
03137               0.20   -12800.00
03138              -0.40   -12000.00
03139               0.20   -11200.00
03140              -0.20   -11200.00
03141              -0.40   -10400.00
03142               0.20    -9600.00
03143              -0.40    -9600.00
03144              -0.60    -8000.00
03145              -0.20    -8000.00
03146              -0.40    -7200.00
03147              -0.20    -7200.00
03148              -0.40    -6400.00
03149              -0.20    -4800.00
03150              -0.40    -4800.00
03151              -0.60    -4000.00
03152              -0.20    -3200.00
03153              -0.20    -3200.00
03154              -0.60    -1600.00
03155              -0.40    -1600.00
03156              -0.60    -1600.00
03157              -0.60     -800.00
03158               0.20        0.00
03159              -0.20      800.00
03160               0.40     1600.00
03161               4.00     1600.00
03162              -2.20     2400.00
03163              -1.40     3200.00
03164               1.80     3200.00
03165              -0.60     3200.00
03166              -0.40     4800.00
03167              14.60     4800.00
03168              25.00     7200.00
03169             -25.00     7200.00
03170             -25.00     8000.00
03171              25.00     8000.00
03172              -7.00     8000.00
03173             -25.00     9600.00
03174              25.00     9600.00
03175             -16.60     9600.00
03176             -25.00    11200.00
03177              25.00    11200.00
03178             -25.00    12000.00
03179              15.00    12800.00
03180              15.40    12800.00
03181             -25.00    13600.00
03182              25.00    14400.00
03183             -25.00    14400.00
03184               5.80    15200.00
03185              25.00    16000.00
03186             -25.00    16000.00
03187              25.00    16800.00
03188              25.00    17600.00
03189             -25.00    18400.00
03190              -7.40    19200.00
03191              25.00    19200.00
03192             -25.00    19200.00
03193              -6.20    20000.00
03194              25.00    20800.00
03195             -25.00    21600.00
03196              16.60    22400.00
03197              -5.20    22400.00
03198             -15.60    23200.00
03199              17.00    24000.00
03200              -9.00    24000.00
03201              -5.20    24000.00
03202              15.80    24000.00
03203              -6.60    24800.00
03204             -13.40    24800.00
03205              18.00    25600.00
03206             -14.00    25600.00
03207              -4.80    26400.00
03208              13.00    27200.00
03209             -10.80    27200.00
03210              -0.20    27200.00
03211               4.20    28000.00
03212              -6.00    28000.00
03213              -1.80    28000.00
03214               3.40    28800.00
03215              -5.40    28800.00
03216              -1.80    29600.00
03217               1.20    29600.00
03218              -5.80    30400.00
03219               0.40    30400.00
03220               1.40    30400.00
03221              -6.00    31200.00
03222               1.00    31200.00
03223              -2.20    31200.00
03224              -6.60    31200.00
03225               1.20    31200.00
03226              -4.60    32000.00
03227              -3.40    32000.00
03228               1.00    32000.00
03229              -4.60    32800.00
03230              -3.80    32800.00
03231              -2.60    32800.00
03232              -5.20    33600.00
03233              -4.40    32000.00
03234              -3.40    32800.00
03235              -5.40    33600.00
03236              -6.40    32800.00
03237              -3.80    32800.00
03238              -8.00    33600.00
03239              -7.40    33600.00
03240              -6.40    33600.00
03241             -10.80    33600.00
03242              -7.80    33600.00
03243             -10.40    32800.00
03244             -14.00    32800.00
03245             -11.00    33600.00
03246             -13.60    33600.00
03247             -14.60    32800.00
03248             -14.80    33600.00
03249             -15.80    32800.00
03250             -17.00    32800.00
03251             -19.00    32000.00
03252             -22.20    32800.00
03253             -21.80    32800.00
03254             -10.80    32000.00
03255              -8.60    32000.00
03256             -12.80    32000.00
03257              -9.60    32000.00
03258              -8.20    31200.00
03259              -8.40    31200.00
03260              -7.60    31200.00
03261              -6.80    31200.00
03262              -4.60    30400.00
03263              -6.20    30400.00
03264              -5.20    30400.00
03265              -2.80    29600.00
03266              -4.60    28800.00
03267              -4.40    28800.00
03268              -2.20    28800.00
03269              -3.00    28800.00
03270              -2.80    28000.00
03271              -2.00    28000.00
03272              -2.20    27200.00
03273              -2.80    27200.00
03274              -1.40    27200.00
03275              -1.80    27200.00
03276              -2.60    25600.00
03277              -1.00    25600.00
03278              -1.20    25600.00
03279              -1.20    24800.00
03280              -1.00    24800.00
03281              -1.40    24000.00
03282              -0.80    24000.00
03283              -1.40    24000.00
03284              -1.40    23200.00
03285              -0.60    22400.00
03286              -2.00    21600.00
03287              -1.00    20800.00
03288              -0.60    20800.00
03289              -1.40    20800.00
03290              -1.00    19200.00
03291              -0.60    19200.00
03292              -0.60    19200.00
03293              -0.60    18400.00
03294              -1.20    17600.00
03295              -0.60    17600.00
03296              -0.60    16800.00
03297              -1.00    16000.00
03298              -1.00    15200.00
03299              -1.00    16000.00
03300              -1.00    14400.00
03301              -1.00    14400.00
03302              -0.60    13600.00
03303              -1.20    12800.00
03304              -1.00    12800.00
03305              -0.40    12000.00
03306              -0.40    12000.00
03307              -0.60    11200.00
03308              -0.80     9600.00
03309              -0.40     9600.00
03310              -0.40     8800.00
03311              -1.00     8800.00
03312              -0.40     8000.00
03313              -1.00     7200.00
03314              -0.60     6400.00
03315              -0.40     6400.00
03316              -0.60     5600.00
03317              -0.40     4800.00
03318              -0.40     4800.00
03319              -0.60     3200.00
03320               0.20     2400.00
03321              -0.40     2400.00
03322              -0.60     1600.00
03323               0.20      800.00
03324              -0.20        0.00
03325               0.20        0.00
03326               0.60     -800.00
03327               2.80     -800.00
03328               1.00    -1600.00
03329              -1.80    -1600.00
03330               1.00    -3200.00
03331               1.40    -3200.00
03332              -0.40    -4000.00
03333               1.20    -4000.00
03334              11.00    -4800.00
03335              25.00    -6400.00
03336             -19.40    -7200.00
03337             -25.00    -8000.00
03338              17.20    -8000.00
03339              15.80    -8000.00
03340             -25.00    -9600.00
03341               4.40    -9600.00
03342              25.00   -10400.00
03343             -25.00   -10400.00
03344              -3.80   -11200.00
03345              25.00   -11200.00
03346             -25.00   -12000.00
03347              11.80   -13600.00
03348              11.80   -13600.00
03349              -8.60   -13600.00
03350              19.40   -14400.00
03351             -25.00   -15200.00
03352              25.00   -16000.00
03353              10.20   -16000.00
03354             -25.00   -16800.00
03355              25.00   -16800.00
03356              13.00   -18400.00
03357             -25.00   -18400.00
03358               5.20   -18400.00
03359              24.20   -19200.00
03360             -25.00   -20000.00
03361               9.80   -20800.00
03362              17.20   -20000.00
03363             -18.60   -21600.00
03364              10.00   -22400.00
03365              -1.40   -22400.00
03366              -6.40   -22400.00
03367               6.40   -23200.00
03368              -0.60   -24000.00
03369              -2.20   -24000.00
03370               9.80   -24000.00
03371              -5.80   -24800.00
03372              -3.00   -24800.00
03373              10.80   -25600.00
03374              -9.40   -25600.00
03375               2.60   -26400.00
03376               7.60   -26400.00
03377              -5.60   -27200.00
03378               1.40   -27200.00
03379               4.20   -27200.00
03380              -2.80   -28800.00
03381               1.00   -28800.00
03382               3.80   -28800.00
03383              -1.80   -29600.00
03384               1.40   -29600.00
03385               3.00   -29600.00
03386              -1.20   -30400.00
03387               2.80   -30400.00
03388               2.80   -30400.00
03389              -0.60   -30400.00
03390               3.60   -30400.00
03391               0.60   -31200.00
03392               0.40   -31200.00
03393               3.60   -31200.00
03394               0.60   -32000.00
03395               3.00   -32000.00
03396               3.80   -32000.00
03397               1.20   -32000.00
03398               3.40   -32000.00
03399               3.60   -32000.00
03400               3.40   -32000.00
03401               4.20   -32000.00
03402               5.20   -32800.00
03403               5.00   -32800.00
03404               5.40   -32800.00
03405               6.80   -32000.00
03406               5.80   -32800.00
03407               8.20   -32800.00
03408               9.00   -32800.00
03409               8.40   -33600.00
03410              11.80   -32800.00
03411              11.20   -32800.00
03412              12.20   -32800.00
03413              14.60   -32800.00
03414              13.80   -32800.00
03415              14.80   -32800.00
03416              15.40   -32000.00
03417              17.00   -32800.00
03418              19.80   -32000.00
03419              22.60   -32000.00
03420              15.80   -32000.00
03421               7.00   -32000.00
03422              11.00   -32000.00
03423              11.60   -32000.00
03424               6.80   -30400.00
03425               7.20   -30400.00
03426               8.00   -30400.00
03427               7.00   -30400.00
03428               4.40   -30400.00
03429               5.20   -30400.00
03430               5.60   -29600.00
03431               3.00   -28800.00
03432               3.40   -29600.00
03433               4.40   -28800.00
03434               1.40   -28800.00
03435               1.80   -28800.00
03436               3.00   -28000.00
03437               1.80   -28800.00
03438               1.40   -27200.00
03439               1.80   -27200.00
03440               1.00   -27200.00
03441               1.00   -26400.00
03442               1.20   -25600.00
03443               0.80   -25600.00
03444               0.80   -25600.00
03445               1.00   -25600.00
03446               1.00   -24800.00
03447              -0.20   -24000.00
03448               1.20   -24000.00
03449               0.60   -24000.00
03450              -0.40   -23200.00
03451               0.40   -22400.00
03452               1.20   -21600.00
03453               0.00   -22400.00
03454               0.20   -20800.00
03455               0.40   -20000.00
03456               0.20   -20000.00
03457              -0.40   -19200.00
03458               0.20   -18400.00
03459               1.20   -18400.00
03460              -0.60   -17600.00
03461              -0.40   -17600.00
03462               1.00   -16800.00
03463              -0.40   -16000.00
03464               0.20   -16000.00
03465               0.20   -15200.00
03466               0.80   -14400.00
03467              -0.40   -13600.00
03468              -0.60   -14400.00
03469               0.40   -13600.00
03470               0.20   -12800.00
03471              -1.40   -12000.00
03472               0.40   -12000.00
03473               1.00   -11200.00
03474              -1.80   -10400.00
03475               0.20   -10400.00
03476               0.40    -9600.00
03477              -1.20    -8800.00
03478              -0.20    -8000.00
03479               0.40    -8000.00
03480              -1.20    -6400.00
03481              -0.40    -6400.00
03482               0.20    -6400.00
03483              -1.00    -4800.00
03484              -1.00    -4000.00
03485              -0.20    -3200.00
03486              -1.00    -3200.00
03487              -0.40    -3200.00
03488              -0.40    -1600.00
03489              -1.20    -1600.00
03490               0.40     -800.00
03491              -0.20        0.00
03492              -1.20        0.00
03493               1.20      800.00
03494               3.40     1600.00
03495              -1.20     2400.00
03496              -1.20     2400.00
03497               0.60     3200.00
03498              -0.20     3200.00
03499              -1.20     3200.00
03500               7.60     4800.00
03501              25.00     6400.00
03502             -12.60     7200.00
03503             -25.00     8000.00
03504              15.60     8000.00
03505              17.20     8800.00
03506             -25.00     8800.00
03507              25.00    10400.00
03508              25.00     9600.00
03509             -25.00    10400.00
03510              25.00    11200.00
03511              -5.20    11200.00
03512             -25.00    12800.00
03513              25.00    12800.00
03514             -25.00    13600.00
03515              25.00    14400.00
03516              -0.60    14400.00
03517             -25.00    15200.00
03518              25.00    15200.00
03519             -25.00    16000.00
03520             -17.40    16800.00
03521              25.00    17600.00
03522             -22.00    17600.00
03523             -22.80    17600.00
03524              25.00    19200.00
03525              -0.20    19200.00
03526             -25.00    20800.00
03527              25.00    20800.00
03528             -15.00    20800.00
03529              -2.20    21600.00
03530              15.20    22400.00
03531             -24.60    22400.00
03532              13.40    22400.00
03533               0.20    24000.00
03534             -12.60    24000.00
03535              10.60    24000.00
03536               5.80    24800.00
03537             -20.40    24800.00
03538              12.60    25600.00
03539               0.80    25600.00
03540             -16.40    26400.00
03541              14.20    26400.00
03542              -4.00    27200.00
03543              -6.20    27200.00
03544               4.60    27200.00
03545              -3.20    27200.00
03546              -5.20    28000.00
03547               2.60    28800.00
03548              -2.20    28800.00
03549              -3.80    28800.00
03550               2.00    28800.00
03551              -3.40    29600.00
03552              -3.00    30400.00
03553               2.40    30400.00
03554              -5.20    30400.00
03555              -2.00    30400.00
03556               1.00    31200.00
03557              -6.80    31200.00
03558              -0.20    31200.00
03559              -1.40    32000.00
03560              -5.40    32000.00
03561               0.40    32000.00
03562              -3.00    32000.00
03563              -5.40    32800.00
03564              -3.00    32800.00
03565              -4.40    32800.00
03566              -4.40    32800.00
03567              -3.80    32800.00
03568              -3.80    32800.00
03569              -6.00    32800.00
03570              -5.00    32800.00
03571              -6.20    32800.00
03572              -8.40    32800.00
03573              -6.00    33600.00
03574             -10.00    32800.00
03575              -8.60    33600.00
03576              -8.60    33600.00
03577             -13.80    33600.00
03578             -11.60    32800.00
03579             -13.00    32800.00
03580             -15.00    32800.00
03581             -14.40    33600.00
03582             -15.80    32800.00
03583             -16.40    32800.00
03584             -17.80    32800.00
03585             -20.60    32000.00
03586             -23.00    32800.00
03587             -14.60    32000.00
03588              -7.40    32800.00
03589             -12.60    32000.00
03590             -11.40    31200.00
03591              -7.60    32000.00
03592              -8.60    31200.00
03593              -8.60    31200.00
03594              -6.80    31200.00
03595              -5.40    31200.00
03596              -5.80    30400.00
03597              -5.60    30400.00
03598              -3.40    30400.00
03599              -3.80    30400.00
03600              -4.60    28800.00
03601              -2.60    28800.00
03602              -2.40    28800.00
03603              -3.60    28800.00
03604              -2.20    28000.00
03605              -1.80    27200.00
03606              -3.40    27200.00
03607              -1.80    27200.00
03608              -1.00    27200.00
03609              -3.00    25600.00
03610              -1.40    25600.00
03611              -1.00    25600.00
03612              -1.80    25600.00
03613              -1.20    24800.00
03614              -1.80    24800.00
03615              -0.60    24000.00
03616              -1.20    24000.00
03617              -1.80    23200.00
03618              -0.40    22400.00
03619              -1.80    22400.00
03620              -1.80    21600.00
03621              -0.40    21600.00
03622              -1.40    20800.00
03623              -1.80    20000.00
03624              -0.80    19200.00
03625              -1.00    19200.00
03626              -1.00    18400.00
03627              -0.60    17600.00
03628              -0.80    17600.00
03629              -0.80    17600.00
03630              -0.60    16000.00
03631              -0.80    16000.00
03632              -0.60    15200.00
03633              -0.60    14400.00
03634              -1.20    14400.00
03635              -0.60    14400.00
03636              -1.00    12800.00
03637              -1.00    12800.00
03638              -0.20    12000.00
03639              -0.40    11200.00
03640              -0.80    11200.00
03641              -0.60    10400.00
03642              -0.60     9600.00
03643              -0.20     8800.00
03644              -1.20     8800.00
03645              -0.40     8000.00
03646              -0.40     8000.00
03647              -0.60     6400.00
03648               0.20     6400.00
03649              -0.20     5600.00
03650              -1.00     4800.00
03651               0.20     4800.00
03652              -0.60     4000.00
03653              -0.20     3200.00
03654              -0.40     2400.00
03655              -0.60     1600.00
03656              -0.60     1600.00
03657               0.40      800.00
03658              -0.20        0.00
03659               0.20        0.00
03660               2.00     -800.00
03661               3.00    -1600.00
03662              -1.40    -1600.00
03663               0.60    -2400.00
03664               1.80    -3200.00
03665               0.40    -3200.00
03666              -0.20    -4000.00
03667               6.80    -4000.00
03668              23.80    -5600.00
03669               6.20    -7200.00
03670             -25.00    -7200.00
03671              -3.00    -8000.00
03672              25.00    -8800.00
03673             -25.00    -8800.00
03674             -25.00    -8800.00
03675              25.00    -9600.00
03676              -4.80   -10400.00
03677             -25.00   -10400.00
03678              25.00   -12000.00
03679             -22.60   -12000.00
03680             -25.00   -12800.00
03681              25.00   -13600.00
03682             -21.40   -13600.00
03683              22.80   -14400.00
03684             -25.00   -14400.00
03685               2.00   -16000.00
03686              25.00   -16000.00
03687             -25.00   -16000.00
03688               5.20   -16800.00
03689              25.00   -17600.00
03690             -22.60   -18400.00
03691             -12.80   -18400.00
03692              25.00   -19200.00
03693             -15.20   -20000.00
03694             -11.40   -20000.00
03695              25.00   -20800.00
03696             -14.00   -20800.00
03697              -0.60   -22400.00
03698               7.40   -22400.00
03699             -10.20   -23200.00
03700               4.60   -23200.00
03701               2.60   -24000.00
03702              -4.40   -24000.00
03703               7.00   -24000.00
03704               1.80   -24800.00
03705              -9.20   -25600.00
03706              11.20   -25600.00
03707              -2.60   -25600.00
03708              -5.80   -26400.00
03709              10.60   -26400.00
03710              -3.40   -27200.00
03711              -2.20   -27200.00
03712               5.80   -27200.00
03713              -0.60   -28000.00
03714              -1.20   -28800.00
03715               4.40   -28800.00
03716              -0.40   -28800.00
03717              -1.20   -29600.00
03718               3.80   -29600.00
03719              -0.40   -29600.00
03720               1.40   -29600.00
03721               4.20   -29600.00
03722              -0.60   -30400.00
03723               2.60   -30400.00
03724               2.60   -30400.00
03725              -0.60   -31200.00
03726               3.00   -32000.00
03727               2.20   -31200.00
03728               1.60   -32000.00
03729               4.20   -32000.00
03730               1.80   -32000.00
03731               2.20   -32000.00
03732               3.60   -32000.00
03733               3.00   -32000.00
03734               4.20   -32800.00
03735               4.40   -32800.00
03736               5.20   -32800.00
03737               5.00   -32800.00
03738               6.60   -32800.00
03739               6.00   -32800.00
03740               7.00   -32800.00
03741               9.20   -32800.00
03742               8.20   -32800.00
03743              10.80   -32000.00
03744              11.60   -32800.00
03745              11.20   -32000.00
03746              14.00   -32800.00
03747              13.80   -32800.00
03748              14.00   -32800.00
03749              15.00   -32800.00
03750              16.40   -32800.00
03751              18.80   -32800.00
03752              22.00   -32000.00
03753              19.60   -32000.00
03754               9.00   -32000.00
03755               8.60   -32000.00
03756              13.00   -32000.00
03757               8.20   -32000.00
03758               6.40   -31200.00
03759               8.20   -31200.00
03760               7.40   -30400.00
03761               5.40   -30400.00
03762               4.20   -29600.00
03763               5.80   -30400.00
03764               3.60   -29600.00
03765               2.20   -29600.00
03766               4.20   -28800.00
03767               3.40   -28800.00
03768               1.20   -28800.00
03769               2.60   -28000.00
03770               2.60   -28000.00
03771               1.00   -27200.00
03772               1.80   -27200.00
03773               2.20   -27200.00
03774               0.40   -27200.00
03775               1.40   -26400.00
03776               0.80   -25600.00
03777               0.20   -25600.00
03778               1.20   -25600.00
03779               1.00   -24800.00
03780               0.40   -24000.00
03781               0.60   -24000.00
03782               0.40   -23200.00
03783               0.60   -23200.00
03784               0.60   -23200.00
03785               0.40   -22400.00
03786               0.40   -22400.00
03787               0.40   -20800.00
03788               0.40   -20800.00
03789               0.00   -20000.00
03790              -0.20   -19200.00
03791               0.20   -18400.00
03792               0.20   -18400.00
03793               0.20   -17600.00
03794              -0.20   -17600.00
03795               0.20   -17600.00
03796               0.40   -16800.00
03797              -0.20   -16000.00
03798               0.40   -16000.00
03799               0.20   -14400.00
03800              -0.40   -14400.00
03801               0.40   -13600.00
03802              -0.20   -12800.00
03803              -0.40   -12800.00
03804              -0.40   -12800.00
03805              -0.40   -11200.00
03806               0.00   -11200.00
03807              -0.20   -10400.00
03808              -0.60    -9600.00
03809               0.20    -9600.00
03810              -0.60    -8800.00
03811              -0.40    -8000.00
03812              -0.20    -8000.00
03813              -0.40    -7200.00
03814              -0.40    -6400.00
03815              -0.60    -6400.00
03816              -0.60    -4800.00
03817              -0.40    -4800.00
03818              -0.60    -4000.00
03819              -0.60    -3200.00
03820              -0.40    -3200.00
03821              -0.60    -3200.00
03822              -0.60    -1600.00
03823              -0.60     -800.00
03824              -0.40        0.00
03825               0.20        0.00
03826              -0.20      800.00
03827               2.00     1600.00
03828               2.20     1600.00
03829              -2.80     2400.00
03830              -0.20     2400.00
03831               1.20     3200.00
03832              -1.40     3200.00
03833               3.40     4800.00
03834              24.40     5600.00
03835              17.00     7200.00
03836             -25.00     8000.00
03837              -7.80     8000.00
03838              25.00     8000.00
03839             -25.00     8800.00
03840              -5.80     9600.00
03841              25.00     9600.00
03842             -25.00    10400.00
03843              21.00    11200.00
03844              25.00    11200.00
03845             -25.00    12000.00
03846              25.00    12800.00
03847             -25.00    12800.00
03848               6.60    13600.00
03849              25.00    14400.00
03850             -25.00    14400.00
03851              25.00    16000.00
03852              16.00    16000.00
03853             -25.00    16000.00
03854              25.00    17600.00
03855               3.80    17600.00
03856             -25.00    18400.00
03857              11.80    19200.00
03858              21.80    19200.00
03859             -25.00    20800.00
03860              18.20    21600.00
03861              11.00    20800.00
03862             -21.00    20800.00
03863              23.80    21600.00
03864             -20.80    22400.00
03865              -0.40    22400.00
03866              10.60    23200.00
03867             -14.00    24000.00
03868               2.80    24000.00
03869              14.20    24800.00
03870             -17.20    24800.00
03871              -1.20    25600.00
03872              13.20    24800.00
03873             -21.00    26400.00
03874               7.00    26400.00
03875               5.80    27200.00
03876             -10.80    27200.00
03877               3.80    28000.00
03878               0.40    28000.00
03879              -6.60    28800.00
03880               1.00    28000.00
03881               1.00    28800.00
03882              -5.60    28800.00
03883               0.20    28800.00
03884              -1.40    28800.00
03885              -5.20    30400.00
03886               2.00    30400.00
03887              -2.00    30400.00
03888              -4.40    30400.00
03889               2.20    31200.00
03890              -5.00    32000.00
03891              -3.20    31200.00
03892               0.80    32000.00
03893              -6.00    32000.00
03894              -1.20    32000.00
03895              -1.00    32000.00
03896              -5.20    32800.00
03897              -3.00    32800.00
03898              -3.80    32800.00
03899              -4.60    32800.00
03900              -3.80    32800.00
03901              -3.80    33600.00
03902              -5.60    32800.00
03903              -5.20    33600.00
03904              -4.60    32800.00
03905              -8.60    32800.00
03906              -6.40    33600.00
03907              -7.80    32800.00
03908             -10.60    33600.00
03909              -7.00    32800.00
03910             -12.40    33600.00
03911             -13.00    33600.00
03912             -11.60    33600.00
03913             -14.80    32800.00
03914             -14.40    33600.00
03915             -15.20    33600.00
03916             -16.20    32800.00
03917             -17.40    32800.00
03918             -19.40    32000.00
03919             -23.00    32000.00
03920             -19.40    32800.00
03921              -6.80    32000.00
03922             -11.00    32000.00
03923             -13.00    32000.00
03924              -7.40    31200.00
03925              -9.00    31200.00
03926              -8.40    31200.00
03927              -7.00    31200.00
03928              -7.60    32000.00
03929              -3.40    30400.00
03930              -6.20    30400.00
03931              -6.00    30400.00
03932              -0.40    29600.00
03933              -6.20    29600.00
03934              -6.00    28800.00
03935               0.40    28800.00
03936              -4.40    28000.00
03937              -4.60    28000.00
03938               1.80    28000.00
03939              -3.40    27200.00
03940              -4.60    27200.00
03941               2.00    27200.00
03942              -3.60    26400.00
03943              -3.60    25600.00
03944               1.40    25600.00
03945              -2.80    25600.00
03946              -1.60    24800.00
03947              -0.20    24000.00
03948              -3.40    24000.00
03949              -0.60    24000.00
03950               0.20    24000.00
03951              -2.60    22400.00
03952              -1.00    22400.00
03953              -0.80    22400.00
03954              -2.20    21600.00
03955               0.20    20800.00
03956              -0.20    20800.00
03957              -2.20    20000.00
03958               0.40    18400.00
03959              -1.20    19200.00
03960              -2.20    18400.00
03961               0.20    17600.00
03962              -1.20    17600.00
03963              -1.60    16800.00
03964               0.60    16000.00
03965              -1.20    16000.00
03966              -1.20    15200.00
03967              -0.20    14400.00
03968              -1.00    14400.00
03969              -0.40    13600.00
03970              -0.60    12800.00
03971              -0.80    12800.00
03972               0.00    12000.00
03973              -0.60    11200.00
03974              -1.20    10400.00
03975               0.20     9600.00
03976              -1.00     8800.00
03977              -1.00     8800.00
03978               0.20     8800.00
03979              -1.40     8000.00
03980              -1.00     6400.00
03981               0.60     6400.00
03982              -0.40     6400.00
03983              -0.60     4800.00
03984               0.80     4800.00
03985              -1.00     3200.00
03986              -0.40     3200.00
03987               0.20     2400.00
03988              -1.00     2400.00
03989              -0.40     1600.00
03990               0.40      800.00
03991              -0.60        0.00
03992              -0.20        0.00
03993               1.00     -800.00
03994               3.80    -1600.00
03995              -0.40    -1600.00
03996              -1.00    -2400.00
03997               1.80    -3200.00
03998               1.00    -3200.00
03999              -1.00    -4000.00
04000               3.60    -4800.00
04001              17.60    -5600.00
04002              22.80    -6400.00
04003             -25.00    -8000.00
04004             -25.00    -8000.00
04005              25.00    -8000.00
04006              -4.40    -9600.00
04007             -25.00    -8800.00
04008              25.00    -9600.00
04009              25.00   -10400.00
04010             -25.00   -10400.00
04011              25.00   -11200.00
04012              25.00   -11200.00
04013             -25.00   -12800.00
04014              25.00   -13600.00
04015             -12.40   -13600.00
04016              10.60   -14400.00
04017              -0.40   -14400.00
04018             -25.00   -15200.00
04019              25.00   -16000.00
04020             -19.60   -16000.00
04021             -19.60   -16800.00
04022              25.00   -17600.00
04023              -7.00   -18400.00
04024             -25.00   -18400.00
04025              21.00   -19200.00
04026               7.80   -20000.00
04027             -25.00   -20000.00
04028              24.60   -20000.00
04029               1.00   -20800.00
04030             -12.40   -22400.00
04031              13.00   -22400.00
04032              -8.20   -22400.00
04033              -0.20   -23200.00
04034               5.40   -23200.00
04035              -3.60   -24000.00
04036               2.60   -24000.00
04037               7.80   -24000.00
04038             -10.20   -24800.00
04039               5.20   -25600.00
04040               5.40   -25600.00
04041             -10.80   -26400.00
04042               9.00   -26400.00
04043               2.00   -27200.00
04044              -4.80   -27200.00
04045               4.60   -27200.00
04046               2.00   -28000.00
04047              -2.80   -28800.00
04048               3.60   -28800.00
04049               2.00   -28800.00
04050              -2.20   -28800.00
04051               3.60   -29600.00
04052               1.00   -29600.00
04053              -0.60   -29600.00
04054               3.80   -30400.00
04055               1.00   -30400.00
04056               0.40   -30400.00
04057               3.80   -31200.00
04058              -0.40   -31200.00
04059               2.00   -31200.00
04060               3.40   -32000.00
04061               1.00   -32000.00
04062               4.40   -32000.00
04063               2.80   -32800.00
04064               1.60   -32000.00
04065               3.60   -32000.00
04066               3.00   -32000.00
04067               3.20   -32800.00
04068               4.20   -32800.00
04069               5.20   -32800.00
04070               4.60   -32800.00
04071               6.20   -32800.00
04072               6.20   -32800.00
04073               6.20   -32800.00
04074               9.20   -32800.00
04075               8.40   -32800.00
04076               9.80   -32800.00
04077              12.40   -32800.00
04078              11.00   -32800.00
04079              13.00   -32000.00
04080              14.00   -32800.00
04081              13.40   -32800.00
04082              14.80   -32800.00
04083              15.80   -32800.00
04084              17.20   -32000.00
04085              21.00   -32000.00
04086              21.80   -32000.00
04087              12.20   -32800.00
04088               7.60   -32000.00
04089              12.40   -32000.00
04090              10.00   -32000.00
04091               6.80   -31200.00
04092               7.60   -30400.00
04093               7.80   -30400.00
04094               6.20   -30400.00
04095               4.20   -30400.00
04096               5.40   -29600.00
04097               4.60   -29600.00
04098               2.60   -29600.00
04099               3.40   -28800.00
04100               4.20   -28800.00
04101               1.20   -28800.00
04102               2.20   -28800.00
04103               3.00   -28000.00
04104               1.40   -27200.00
04105               1.40   -27200.00
04106               2.60   -27200.00
04107               1.00   -27200.00
04108               0.60   -26400.00
04109               1.40   -26400.00
04110               0.60   -25600.00
04111               0.60   -24800.00
04112               1.00   -24000.00
04113               0.40   -24000.00
04114               0.60   -24000.00
04115               0.40   -23200.00
04116               0.40   -23200.00
04117               0.40   -23200.00
04118               0.40   -23200.00
04119               0.60   -21600.00
04120               0.20   -21600.00
04121               0.40   -20800.00
04122               0.40   -20000.00
04123               0.20   -20000.00
04124              -0.40   -18400.00
04125               0.20   -19200.00
04126               0.60   -18400.00
04127               0.40   -17600.00
04128              -0.60   -17600.00
04129               0.40   -16800.00
04130              -0.20   -16000.00
04131              -0.20   -16000.00
04132              -0.20   -15200.00
04133               0.20   -14400.00
04134              -0.20   -14400.00
04135              -0.60   -13600.00
04136               0.00   -12800.00
04137              -0.20   -12800.00
04138              -0.60   -12800.00
04139               0.00   -11200.00
04140               0.40   -11200.00
04141              -1.20   -10400.00
04142              -0.60    -9600.00
04143               0.20    -9600.00
04144              -0.60    -8000.00
04145              -0.60    -8000.00
04146              -0.20    -8000.00
04147               0.00    -7200.00
04148              -1.00    -5600.00
04149              -0.60    -4800.00
04150               0.20    -4800.00
04151              -1.00    -4000.00
04152              -0.60    -3200.00
04153               0.20    -3200.00
04154              -0.40    -1600.00
04155              -0.20    -1600.00
04156              -0.20     -800.00
04157              -0.40     -800.00
04158               0.20        0.00
04159               0.20        0.00
04160               0.40     1600.00
04161               3.40     1600.00
04162              -2.20     2400.00
04163              -1.40     2400.00
04164               1.60     3200.00
04165              -0.20     3200.00
04166              -0.20     4800.00
04167              14.80     5600.00
04168              25.00     7200.00
04169             -25.00     8000.00
04170             -25.00     8000.00
04171              25.00     8000.00
04172              -5.80     8800.00
04173             -25.00     8800.00
04174              25.00     9600.00
04175             -13.40     9600.00
04176             -25.00    11200.00
04177              25.00    12000.00
04178             -25.00    11200.00
04179              12.60    12800.00
04180              19.40    12800.00
04181             -25.00    13600.00
04182              25.00    13600.00
04183             -25.00    14400.00
04184               1.60    15200.00
04185              25.00    15200.00
04186             -25.00    16000.00
04187              25.00    16000.00
04188              25.00    17600.00
04189             -25.00    17600.00
04190              -8.40    18400.00
04191              25.00    19200.00
04192             -24.40    19200.00
04193              -7.80    20800.00
04194              25.00    20800.00
04195             -25.00    20800.00
04196              15.40    21600.00
04197              -3.80    22400.00
04198             -16.40    22400.00
04199              16.80    22400.00
04200              -9.00    24000.00
04201              -6.20    24000.00
04202              15.40    24000.00
04203              -6.20    24800.00
04204             -14.60    24800.00
04205              18.00    25600.00
04206             -13.00    26400.00
04207              -5.80    25600.00
04208              13.00    27200.00
04209             -10.40    27200.00
04210              -1.00    27200.00
04211               4.20    28000.00
04212              -5.80    28000.00
04213              -2.20    28000.00
04214               3.00    28800.00
04215              -5.00    28800.00
04216              -2.20    28800.00
04217               1.00    29600.00
04218              -5.40    29600.00
04219              -0.60    30400.00
04220               1.20    30400.00
04221              -6.20    30400.00
04222               0.60    31200.00
04223              -1.40    31200.00
04224              -6.60    32000.00
04225               1.20    32000.00
04226              -3.80    32000.00
04227              -3.60    32000.00
04228               0.60    32800.00
04229              -4.40    32800.00
04230              -4.20    32000.00
04231              -2.80    32800.00
04232              -4.80    32800.00
04233              -3.80    32800.00
04234              -3.40    32800.00
04235              -5.20    32800.00
04236              -6.00    32800.00
04237              -4.20    32800.00
04238              -7.60    33600.00
04239              -7.20    32800.00
04240              -6.60    32800.00
04241             -10.80    32800.00
04242              -7.60    33600.00
04243             -10.20    33600.00
04244             -13.80    32800.00
04245             -11.00    33600.00
04246             -14.00    33600.00
04247             -14.60    33600.00
04248             -14.80    32800.00
04249             -16.00    32800.00
04250             -16.80    32800.00
04251             -18.80    32000.00
04252             -22.20    32800.00
04253             -21.80    32000.00
04254             -10.80    32800.00
04255              -8.60    32800.00
04256             -13.40    31200.00
04257              -9.80    32000.00
04258              -7.60    31200.00
04259              -8.60    31200.00
04260              -7.60    31200.00
04261              -6.20    30400.00
04262              -5.20    31200.00
04263              -6.20    30400.00
04264              -5.20    30400.00
04265              -3.00    29600.00
04266              -4.60    29600.00
04267              -4.60    28800.00
04268              -2.60    28800.00
04269              -3.00    28800.00
04270              -3.60    28000.00
04271              -2.00    28800.00
04272              -2.20    28000.00
04273              -3.00    27200.00
04274              -1.20    27200.00
04275              -1.20    26400.00
04276              -3.00    25600.00
04277              -1.20    25600.00
04278              -1.20    25600.00
04279              -2.00    25600.00
04280              -1.80    24800.00
04281              -1.20    24800.00
04282              -1.60    24000.00
04283              -1.40    23200.00
04284              -1.00    22400.00
04285              -1.20    22400.00
04286              -1.40    22400.00
04287              -0.40    21600.00
04288              -0.80    20800.00
04289              -1.00    20800.00
04290              -1.00    20000.00
04291              -1.00    19200.00
04292              -0.60    18400.00
04293              -1.20    18400.00
04294              -1.00    17600.00
04295              -1.00    17600.00
04296              -1.20    16800.00
04297              -0.80    16000.00
04298              -0.60    16000.00
04299              -1.00    15200.00
04300              -0.60    14400.00
04301              -0.60    14400.00
04302              -0.40    13600.00
04303              -1.00    12800.00
04304              -0.60    12800.00
04305              -0.20    12000.00
04306              -0.60    11200.00
04307              -0.60    11200.00
04308              -0.60    10400.00
04309              -0.60     9600.00
04310              -0.40     8800.00
04311              -1.00     8000.00
04312              -0.40     8000.00
04313              -0.60     8000.00
04314              -0.60     7200.00
04315              -0.20     6400.00
04316              -0.60     5600.00
04317              -0.20     4800.00
04318              -0.40     4800.00
04319              -0.20     3200.00
04320               0.20     3200.00
04321              -0.60     2400.00
04322              -0.60     1600.00
04323               0.20     1600.00
04324              -0.40     1600.00
04325               0.20     -800.00
04326               0.40        0.00
04327               2.60     -800.00
04328               1.60    -1600.00
04329              -1.80    -2400.00
04330               1.00    -3200.00
04331               1.40    -3200.00
04332              -0.40    -3200.00
04333               1.20    -4000.00
04334              10.60    -4800.00
04335              25.00    -6400.00
04336             -18.00    -8000.00
04337             -25.00    -8000.00
04338              15.80    -8000.00
04339              16.60    -8000.00
04340             -25.00    -8800.00
04341               2.20    -8800.00
04342              25.00   -11200.00
04343             -25.00   -10400.00
04344              -7.60   -11200.00
04345              25.00   -12000.00
04346             -25.00   -12000.00
04347               9.80   -13600.00
04348              13.20   -12800.00
04349             -10.00   -13600.00
04350              20.20   -14400.00
04351             -25.00   -14400.00
04352              25.00   -16000.00
04353              12.40   -16000.00
04354             -25.00   -16800.00
04355              25.00   -17600.00
04356              14.40   -17600.00
04357             -25.00   -19200.00
04358               4.20   -18400.00
04359              25.00   -19200.00
04360             -25.00   -19200.00
04361               8.40   -20000.00
04362              18.60   -20800.00
04363             -18.60   -21600.00
04364               9.80   -21600.00
04365              -0.40   -22400.00
04366              -6.60   -23200.00
04367               6.20   -23200.00
04368               0.20   -23200.00
04369              -2.00   -24000.00
04370               9.80   -24000.00
04371              -5.40   -25600.00
04372              -3.80   -24800.00
04373              11.00   -25600.00
04374              -9.80   -26400.00
04375               2.00   -26400.00
04376               8.00   -26400.00
04377              -5.40   -26400.00
04378               1.40   -27200.00
04379               4.60   -27200.00
04380              -2.60   -28000.00
04381               1.40   -28800.00
04382               4.20   -28800.00
04383              -1.80   -28800.00
04384               1.40   -29600.00
04385               2.80   -29600.00
04386              -1.00   -29600.00
04387               2.60   -29600.00
04388               2.60   -30400.00
04389              -0.80   -30400.00
04390               3.00   -31200.00
04391               1.00   -30400.00
04392               0.40   -31200.00
04393               3.40   -32000.00
04394               1.00   -32000.00
04395               3.00   -32000.00
04396               4.20   -32000.00
04397               1.20   -32000.00
04398               3.00   -32000.00
04399               3.60   -32000.00
04400               3.00   -32000.00
04401               3.60   -32000.00
04402               4.80   -32000.00
04403               5.00   -32800.00
04404               5.20   -32800.00
04405               6.20   -32800.00
04406               6.00   -32800.00
04407               8.20   -32800.00
04408               8.60   -32800.00
04409               8.80   -32800.00
04410              12.00   -32800.00
04411              10.80   -32800.00
04412              12.20   -32800.00
04413              14.20   -32800.00
04414              13.80   -32800.00
04415              14.40   -32800.00
04416              15.40   -32800.00
04417              17.00   -32000.00
04418              19.80   -32000.00
04419              22.60   -32000.00
04420              16.20   -32000.00
04421               7.40   -32000.00
04422              11.00   -32000.00
04423              11.80   -32000.00
04424               7.00   -32000.00
04425               7.40   -30400.00
04426               8.20   -30400.00
04427               6.80   -30400.00
04428               4.40   -29600.00
04429               5.20   -30400.00
04430               6.00   -29600.00
04431               3.40   -29600.00
04432               2.80   -29600.00
04433               4.60   -28800.00
04434               2.20   -28800.00
04435               1.40   -28800.00
04436               3.40   -28000.00
04437               2.20   -28000.00
04438               0.40   -27200.00
04439               2.00   -27200.00
04440               1.40   -26400.00
04441               0.60   -26400.00
04442               1.80   -26400.00
04443               1.20   -25600.00
04444               0.20   -25600.00
04445               2.00   -24800.00
04446               0.20   -24000.00
04447              -0.20   -24000.00
04448               1.80   -24000.00
04449               0.40   -23200.00
04450              -0.40   -23200.00
04451               0.20   -22400.00
04452               1.20   -22400.00
04453              -0.40   -20800.00
04454              -0.60   -20800.00
04455               1.00   -20000.00
04456               0.60   -20000.00
04457              -1.00   -19200.00
04458              -0.20   -18400.00
04459               1.40   -19200.00
04460              -0.60   -17600.00
04461              -0.60   -17600.00
04462               1.80   -16800.00
04463              -0.40   -16000.00
04464              -2.00   -16000.00
04465               1.20   -15200.00
04466              -0.20   -14400.00
04467              -2.20   -14400.00
04468               1.00   -13600.00
04469               0.60   -13600.00
04470              -1.80   -12800.00
04471              -0.40   -12000.00
04472               0.60   -11200.00
04473              -0.60   -10400.00
04474              -0.60   -10400.00
04475               0.40    -9600.00
04476              -0.20    -9600.00
04477              -0.60    -9600.00
04478              -0.40    -8000.00
04479              -0.40    -7200.00
04480              -0.60    -7200.00
04481              -0.60    -6400.00
04482              -0.40    -6400.00
04483              -0.60    -4800.00
04484              -1.20    -4800.00
04485              -0.40    -4000.00
04486               0.40    -3200.00
04487              -0.60    -1600.00
04488              -0.40    -1600.00
04489               0.00    -1600.00
04490              -0.80     -800.00
04491              -0.60        0.00
04492               0.40      800.00
04493               0.20     1600.00
04494               3.00     1600.00
04495               0.40     1600.00
04496              -2.40     2400.00
04497               1.00     3200.00
04498               0.80     3200.00
04499              -2.20     4000.00
04500               7.80     4800.00
04501              25.00     6400.00
04502             -11.00     7200.00
04503             -25.00     8000.00
04504              14.60     8000.00
04505              17.60     8000.00
04506             -25.00     8000.00
04507              25.00     9600.00
04508              25.00     9600.00
04509             -25.00     9600.00
04510              25.00    11200.00
04511              -1.40    12000.00
04512             -25.00    12000.00
04513              25.00    12800.00
04514             -25.00    12800.00
04515              25.00    14400.00
04516               3.60    14400.00
04517             -25.00    15200.00
04518              25.00    16000.00
04519             -25.00    16000.00
04520             -21.00    16000.00
04521              25.00    16800.00
04522             -21.40    17600.00
04523             -24.60    18400.00
04524              25.00    18400.00
04525               2.00    19200.00
04526             -25.00    19200.00
04527              25.00    20800.00
04528             -13.80    21600.00
04529              -4.20    21600.00
04530              15.80    22400.00
04531             -25.00    22400.00
04532              12.20    23200.00
04533               0.60    23200.00
04534             -13.20    23200.00
04535              10.20    24000.00
04536               6.20    24800.00
04537             -20.00    24800.00
04538              12.20    25600.00
04539               1.40    25600.00
04540             -17.40    25600.00
04541              14.00    27200.00
04542              -3.80    27200.00
04543              -7.00    27200.00
04544               5.20    28000.00
04545              -2.80    28000.00
04546              -5.60    28000.00
04547               2.60    28800.00
04548              -1.80    28800.00
04549              -4.60    29600.00
04550               1.80    28800.00
04551              -3.00    30400.00
04552              -3.20    30400.00
04553               2.60    30400.00
04554              -4.60    30400.00
04555              -2.00    31200.00
04556               1.20    30400.00
04557              -6.80    31200.00
04558              -0.40    31200.00
04559              -1.40    32000.00
04560              -5.80    32000.00
04561               0.40    32800.00
04562              -2.60    32000.00
04563              -5.20    32800.00
04564              -2.40    32800.00
04565              -4.00    32800.00
04566              -4.20    32800.00
04567              -3.60    32800.00
04568              -4.00    32800.00
04569              -6.00    33600.00
04570              -4.60    33600.00
04571              -6.00    32800.00
04572              -8.40    32800.00
04573              -6.20    32800.00
04574             -10.00    32800.00
04575              -9.20    33600.00
04576              -8.60    32800.00
04577             -13.40    33600.00
04578             -11.40    32800.00
04579             -12.60    33600.00
04580             -14.60    33600.00
04581             -14.20    33600.00
04582             -15.60    33600.00
04583             -16.40    32800.00
04584             -18.00    32800.00
04585             -20.60    32000.00
04586             -23.20    32800.00
04587             -15.00    32800.00
04588              -7.60    32800.00
04589             -12.60    32000.00
04590             -11.60    31200.00
04591              -7.80    31200.00
04592              -8.60    31200.00
04593              -8.20    32000.00
04594              -7.00    31200.00
04595              -5.80    30400.00
04596              -6.00    30400.00
04597              -6.00    30400.00
04598              -3.40    30400.00
04599              -4.40    29600.00
04600              -5.40    28800.00
04601              -2.60    28800.00
04602              -2.80    28800.00
04603              -4.20    28800.00
04604              -2.20    28000.00
04605              -1.80    28000.00
04606              -3.60    27200.00
04607              -1.20    27200.00
04608              -0.60    27200.00
04609              -3.40    26400.00
04610              -1.40    25600.00
04611              -0.60    25600.00
04612              -2.60    25600.00
04613              -1.20    24800.00
04614              -1.20    24000.00
04615              -1.80    24000.00
04616              -1.20    23200.00
04617              -1.20    22400.00
04618              -0.60    22400.00
04619              -1.20    22400.00
04620              -1.40    21600.00
04621              -0.40    20800.00
04622              -1.20    20800.00
04623              -1.80    20800.00
04624              -0.60    19200.00
04625              -0.40    19200.00
04626              -1.20    18400.00
04627              -0.60    17600.00
04628              -0.40    17600.00
04629              -1.80    16800.00
04630              -0.60    16000.00
04631              -0.40    16000.00
04632              -1.20    15200.00
04633              -0.40    15200.00
04634              -0.60    14400.00
04635              -0.60    13600.00
04636              -0.60    12800.00
04637              -1.00    12800.00
04638              -0.20    12800.00
04639              -0.60    12000.00
04640              -0.80    11200.00
04641              -0.40    11200.00
04642              -0.60     9600.00
04643              -0.20     9600.00
04644              -0.60     8800.00
04645              -0.60     8000.00
04646              -0.60     7200.00
04647              -0.40     7200.00
04648              -0.60     6400.00
04649              -0.60     5600.00
04650              -0.40     4800.00
04651              -0.60     4800.00
04652              -0.60     3200.00
04653              -0.40     3200.00
04654              -0.60     2400.00
04655              -0.60     1600.00
04656              -0.40      800.00
04657              -0.60        0.00
04658               0.00        0.00
04659               0.40     -800.00
04660               1.40     -800.00
04661               3.40    -1600.00
04662              -1.40    -2400.00
04663              -0.40    -3200.00
04664               1.40    -3200.00
04665               0.40    -3200.00
04666              -1.00    -4800.00
04667               6.20    -4800.00
04668              23.80    -6400.00
04669               7.40    -7200.00
04670             -25.00    -8000.00
04671              -4.20    -8000.00
04672              25.00    -9600.00
04673             -25.00    -8800.00
04674             -25.00    -8000.00
04675              25.00    -9600.00
04676              -1.00   -10400.00
04677             -25.00   -11200.00
04678              25.00   -12000.00
04679             -18.60   -11200.00
04680             -25.00   -12800.00
04681              25.00   -12800.00
04682             -21.60   -14400.00
04683              23.00   -14400.00
04684             -25.00   -15200.00
04685               0.00   -15200.00
04686              25.00   -16000.00
04687             -25.00   -16000.00
04688               4.20   -17600.00
04689              25.00   -17600.00
04690             -22.00   -18400.00
04691             -14.00   -18400.00
04692              25.00   -19200.00
04693             -13.40   -19200.00
04694             -13.20   -20000.00
04695              25.00   -20800.00
04696             -13.20   -21600.00
04697              -1.40   -22400.00
04698               8.20   -22400.00
04699              -9.60   -22400.00
04700               4.40   -23200.00
04701               3.00   -23200.00
04702              -4.20   -24000.00
04703               6.80   -24000.00
04704               2.00   -24800.00
04705              -9.20   -24800.00
04706              10.60   -25600.00
04707              -2.40   -25600.00
04708              -5.80   -26400.00
04709              10.60   -26400.00
04710              -3.00   -27200.00
04711              -2.20   -27200.00
04712               6.00   -27200.00
04713              -0.60   -28000.00
04714              -1.20   -28000.00
04715               5.00   -28800.00
04716              -0.40   -29600.00
04717              -1.40   -28800.00
04718               4.20   -29600.00
04719              -0.60   -29600.00
04720               1.00   -29600.00
04721               4.00   -30400.00
04722              -0.60   -30400.00
04723               2.00   -30400.00
04724               2.20   -31200.00
04725              -0.60   -31200.00
04726               3.20   -32000.00
04727               2.20   -32000.00
04728               1.00   -32000.00
04729               4.40   -32000.00
04730               2.00   -32000.00
04731               1.60   -32000.00
04732               3.80   -32800.00
04733               3.40   -32800.00
04734               3.00   -32000.00
04735               4.40   -32000.00
04736               5.40   -32800.00
04737               4.60   -32800.00
04738               6.60   -32800.00
04739               6.40   -32800.00
04740               7.00   -32800.00
04741               9.20   -32800.00
04742               7.80   -32800.00
04743              11.00   -32800.00
04744              11.80   -32800.00
04745              10.80   -32800.00
04746              13.80   -32000.00
04747              14.60   -32800.00
04748              14.00   -32800.00
04749              14.80   -32800.00
04750              16.60   -32800.00
04751              18.80   -32000.00
04752              21.80   -32000.00
04753              19.60   -32000.00
04754               9.80   -32000.00
04755               8.40   -32000.00
04756              12.80   -32000.00
04757               9.00   -31200.00
04758               5.80   -31200.00
04759               7.40   -31200.00
04760               8.20   -30400.00
04761               5.20   -30400.00
04762               4.20   -30400.00
04763               6.20   -29600.00
04764               4.60   -29600.00
04765               2.60   -29600.00
04766               3.80   -29600.00
04767               4.20   -28800.00
04768               1.80   -28800.00
04769               2.00   -28800.00
04770               2.60   -28000.00
04771               1.40   -28000.00
04772               0.40   -27200.00
04773               2.00   -26400.00
04774               2.00   -26400.00
04775              -0.20   -26400.00
04776               1.00   -25600.00
04777               1.80   -26400.00
04778               0.00   -24800.00
04779               0.60   -24000.00
04780               2.00   -24000.00
04781               0.20   -24000.00
04782              -0.20   -23200.00
04783               1.00   -23200.00
04784              -0.40   -22400.00
04785              -0.40   -22400.00
04786               1.00   -21600.00
04787              -0.20   -20800.00
04788              -0.40   -20800.00
04789               0.60   -20000.00
04790              -0.60   -20000.00
04791              -1.00   -18400.00
04792               0.80   -18400.00
04793               0.60   -17600.00
04794              -0.80   -17600.00
04795               0.20   -16800.00
04796               0.60   -16000.00
04797              -1.00   -16000.00
04798               0.20   -16000.00
04799               0.20   -15200.00
04800              -1.00   -14400.00
04801              -0.60   -13600.00
04802              -0.20   -13600.00
04803              -0.20   -12800.00
04804              -0.60   -12800.00
04805              -0.40   -12800.00
04806               0.60   -11200.00
04807              -0.60   -10400.00
04808              -0.60   -10400.00
04809               0.20    -9600.00
04810              -0.20    -8800.00
04811              -0.60    -8000.00
04812              -0.20    -8000.00
04813              -0.20    -7200.00
04814              -0.60    -7200.00
04815              -0.60    -5600.00
04816               0.20    -4800.00
04817              -0.80    -4800.00
04818              -1.00    -4000.00
04819               0.20    -4000.00
04820              -0.20    -3200.00
04821              -0.60    -2400.00
04822              -0.20    -1600.00
04823              -0.20     -800.00
04824              -0.40        0.00
04825               0.00        0.00
04826               0.40      800.00
04827               1.60     1600.00
04828               2.40     2400.00
04829              -2.80     1600.00
04830              -0.20     2400.00
04831               1.80     3200.00
04832              -1.20     3200.00
04833               3.40     4800.00
04834              23.80     6400.00
04835              18.20     7200.00
04836             -25.00     8000.00
04837              -9.60     8000.00
04838              25.00     8000.00
04839             -25.00     8800.00
04840              -8.20     8800.00
04841              25.00     9600.00
04842             -25.00     9600.00
04843              17.00    11200.00
04844              25.00    11200.00
04845             -25.00    11200.00
04846              25.00    12800.00
04847             -25.00    12800.00
04848               2.20    13600.00
04849              25.00    14400.00
04850             -25.00    14400.00
04851              25.00    15200.00
04852              20.40    16000.00
04853             -25.00    16000.00
04854              25.00    16800.00
04855               7.40    17600.00
04856             -25.00    18400.00
04857              14.00    19200.00
04858              22.80    19200.00
04859             -25.00    19200.00
04860              22.00    20800.00
04861              13.40    20800.00
04862             -15.80    21600.00
04863              20.20    21600.00
04864             -22.80    22400.00
04865               2.20    23200.00
04866               6.00    22400.00
04867             -15.20    24000.00
04868               3.40    24000.00
04869              13.00    24000.00
04870             -12.40    24800.00
04871              -3.60    25600.00
04872              16.60    25600.00
04873             -19.60    26400.00
04874               5.80    25600.00
04875               7.60    27200.00
04876             -15.00    27200.00
04877               2.20    27200.00
04878               0.80    28000.00
04879              -5.40    28000.00
04880              -0.20    28800.00
04881               4.20    28800.00
04882              -2.60    28800.00
04883              -3.40    28800.00
04884              -0.60    29600.00
04885              -5.00    30400.00
04886               0.40    29600.00
04887              -3.40    30400.00
04888              -3.80    31200.00
04889               4.40    31200.00
04890              -3.00    31200.00
04891              -3.40    31200.00
04892               1.00    32000.00
04893              -6.20    32000.00
04894              -3.40    32000.00
04895              -1.00    32800.00
04896              -4.40    32000.00
04897              -4.60    32800.00
04898              -2.80    32800.00
04899              -1.80    32800.00
04900              -3.80    32800.00
04901              -3.60    32800.00
04902              -5.00    33600.00
04903              -7.00    32800.00
04904              -6.00    33600.00
04905              -8.60    33600.00
04906              -6.20    33600.00
04907              -7.60    33600.00
04908              -9.20    32800.00
04909              -7.40    33600.00
04910             -12.60    32800.00
04911             -13.40    33600.00
04912             -12.80    32800.00
04913             -15.00    32800.00
04914             -14.20    32800.00
04915             -15.20    32800.00
04916             -15.60    32800.00
04917             -17.00    32000.00
04918             -19.40    32800.00
04919             -22.80    32000.00
04920             -19.80    32000.00
04921              -9.40    32800.00
04922             -10.80    32000.00
04923             -12.60    31200.00
04924              -8.40    31200.00
04925              -8.20    32000.00
04926              -8.40    31200.00
04927              -7.60    30400.00
04928              -5.80    31200.00
04929              -6.00    30400.00
04930              -7.00    30400.00
04931              -4.20    30400.00
04932              -3.40    29600.00
04933              -5.40    28800.00
04934              -3.00    28800.00
04935              -2.00    28800.00
04936              -3.20    28800.00
04937              -3.00    28800.00
04938              -2.00    28000.00
04939              -2.20    27200.00
04940              -2.80    27200.00
04941              -1.00    27200.00
04942              -2.00    26400.00
04943              -2.20    25600.00
04944              -1.00    25600.00
04945              -1.60    24800.00
04946              -2.00    24800.00
04947              -1.20    24000.00
04948              -1.40    24000.00
04949              -1.20    23200.00
04950              -1.00    24000.00
04951              -0.60    22400.00
04952              -1.00    22400.00
04953              -1.20    21600.00
04954              -1.00    21600.00
04955              -1.00    20800.00
04956              -1.20    20000.00
04957              -1.40    19200.00
04958              -0.60    19200.00
04959              -0.60    18400.00
04960              -1.20    17600.00
04961              -0.40    17600.00
04962              -1.00    17600.00
04963              -1.00    16800.00
04964               0.20    16000.00
04965              -1.00    15200.00
04966              -0.60    15200.00
04967              -0.40    14400.00
04968              -0.40    14400.00
04969              -0.40    12800.00
04970              -1.00    12800.00
04971              -1.00    12000.00
04972              -0.60    12000.00
04973              -0.60    11200.00
04974              -1.00    11200.00
04975              -0.60    10400.00
04976              -0.20     9600.00
04977              -1.00     8800.00
04978              -0.40     8000.00
04979               0.00     8000.00
04980              -1.00     7200.00
04981              -0.60     6400.00
04982              -0.40     5600.00
04983              -1.00     4800.00
04984              -0.40     4000.00
04985              -0.40     4000.00
04986              -0.40     2400.00
04987              -0.40     3200.00
04988              -0.60     2400.00
04989              -0.60     1600.00
04990              -0.20      800.00
04991              -0.20        0.00
04992               0.20     -800.00
04993               1.20     -800.00
04994               3.80    -1600.00
04995              -0.60    -2400.00
04996              -1.20    -1600.00
04997               1.80    -3200.00
04998               1.00    -3200.00
04999              -1.00    -4000.00
05000               3.00    -4800.00
