Unit:(mV)
                     CH1         CH2
Frequency              ?  98.317 kHz
00001             240.00    -1160.00
00002             200.00    -1160.00
00003             240.00    -1200.00
00004             200.00    -1200.00
00005             200.00    -1240.00
00006             240.00    -1280.00
00007             240.00    -1280.00
00008             240.00    -1320.00
00009             240.00    -1320.00
00010             280.00    -1360.00
00011             240.00    -1360.00
00012             240.00    -1360.00
00013             280.00    -1440.00
00014             280.00    -1440.00
00015             240.00    -1480.00
00016             320.00    -1520.00
00017             280.00    -1520.00
00018             360.00    -1560.00
00019             360.00    -1560.00
00020             320.00    -1600.00
00021             320.00    -1640.00
00022             360.00    -1640.00
00023             360.00    -1680.00
00024             360.00    -1680.00
00025             360.00    -1720.00
00026             360.00    -1760.00
00027             400.00    -1760.00
00028             360.00    -1800.00
00029             400.00    -1840.00
00030             360.00    -1800.00
00031             400.00    -1840.00
00032             360.00    -1840.00
00033             400.00    -1920.00
00034             400.00    -1920.00
00035             400.00    -1960.00
00036             360.00    -1960.00
00037             400.00    -2000.00
00038             400.00    -2000.00
00039             400.00    -2000.00
00040             440.00    -2040.00
00041             440.00    -2080.00
00042             440.00    -2120.00
00043             440.00    -2080.00
00044             440.00    -2120.00
00045             440.00    -2160.00
00046             480.00    -2160.00
00047             440.00    -2200.00
00048             480.00    -2160.00
00049             440.00    -2240.00
00050             440.00    -2280.00
00051             440.00    -2280.00
00052             520.00    -2280.00
00053             440.00    -2320.00
00054             480.00    -2360.00
00055             520.00    -2400.00
00056             520.00    -2400.00
00057             520.00    -2440.00
00058             520.00    -2440.00
00059             520.00    -2480.00
00060             520.00    -2480.00
00061             520.00    -2480.00
00062             520.00    -2520.00
00063             520.00    -2560.00
00064             520.00    -2560.00
00065             520.00    -2560.00
00066             560.00    -2600.00
00067             520.00    -2640.00
00068             520.00    -2640.00
00069             560.00    -2640.00
00070             520.00    -2680.00
00071             560.00    -2640.00
00072             560.00    -2680.00
00073             560.00    -2760.00
00074             560.00    -2760.00
00075             560.00    -2760.00
00076             600.00    -2800.00
00077             560.00    -2800.00
00078             600.00    -2840.00
00079             600.00    -2840.00
00080             640.00    -2880.00
00081             560.00    -2880.00
00082             600.00    -2880.00
00083             600.00    -2920.00
00084             600.00    -2920.00
00085             600.00    -2960.00
00086             600.00    -2960.00
00087             640.00    -2960.00
00088             680.00    -2960.00
00089             640.00    -3040.00
00090             680.00    -3040.00
00091             680.00    -3040.00
00092             680.00    -3080.00
00093             680.00    -3080.00
00094             680.00    -3120.00
00095             680.00    -3120.00
00096             680.00    -3120.00
00097             680.00    -3160.00
00098             680.00    -3200.00
00099             680.00    -3200.00
00100             680.00    -3200.00
00101             720.00    -3200.00
00102             720.00    -3240.00
00103             720.00    -3240.00
00104             720.00    -3240.00
00105             680.00    -3280.00
00106             720.00    -3280.00
00107             720.00    -3280.00
00108             720.00    -3320.00
00109             720.00    -3360.00
00110             720.00    -3360.00
00111             760.00    -3360.00
00112             720.00    -3400.00
00113             720.00    -3400.00
00114             720.00    -3400.00
00115             720.00    -3440.00
00116             760.00    -3440.00
00117             720.00    -3440.00
00118             720.00    -3480.00
00119             720.00    -3440.00
00120             760.00    -3520.00
00121             760.00    -3480.00
00122             760.00    -3520.00
00123             720.00    -3480.00
00124             760.00    -3560.00
00125             720.00    -3520.00
00126             760.00    -3560.00
00127             760.00    -3560.00
00128             760.00    -3600.00
00129             760.00    -3600.00
00130             760.00    -3600.00
00131             800.00    -3600.00
00132             760.00    -3600.00
00133             760.00    -3640.00
00134             800.00    -3640.00
00135             800.00    -3680.00
00136             760.00    -3680.00
00137             800.00    -3680.00
00138             760.00    -3720.00
00139             840.00    -3720.00
00140             760.00    -3720.00
00141             800.00    -3720.00
00142             840.00    -3720.00
00143             840.00    -3720.00
00144             840.00    -3760.00
00145             840.00    -3760.00
00146             840.00    -3760.00
00147             840.00    -3800.00
00148             840.00    -3800.00
00149             840.00    -3800.00
00150             840.00    -3800.00
00151             840.00    -3840.00
00152             840.00    -3840.00
00153             840.00    -3840.00
00154             840.00    -3840.00
00155             880.00    -3880.00
00156             840.00    -3880.00
00157             840.00    -3880.00
00158             880.00    -3880.00
00159             840.00    -3880.00
00160             840.00    -3920.00
00161             840.00    -3920.00
00162             880.00    -3920.00
00163             880.00    -3920.00
00164             880.00    -3920.00
00165             880.00    -3920.00
00166             840.00    -3960.00
00167             880.00    -3920.00
00168             880.00    -3960.00
00169             880.00    -4000.00
00170             880.00    -4000.00
00171             880.00    -3960.00
00172             880.00    -3960.00
00173             880.00    -4000.00
00174             880.00    -4000.00
00175             880.00    -4000.00
00176             880.00    -4000.00
00177             880.00    -4000.00
00178             880.00    -4000.00
00179             880.00    -4000.00
00180             880.00    -4000.00
00181             880.00    -4040.00
00182             880.00    -4040.00
00183             880.00    -4040.00
00184             840.00    -4040.00
00185             880.00    -4040.00
00186             880.00    -4040.00
00187             920.00    -4080.00
00188             880.00    -4040.00
00189             880.00    -4040.00
00190             880.00    -4040.00
00191             920.00    -4080.00
00192             880.00    -4040.00
00193             920.00    -4040.00
00194             880.00    -4040.00
00195             880.00    -4040.00
00196             920.00    -4080.00
00197             880.00    -4040.00
00198             920.00    -4040.00
00199             920.00    -4040.00
00200             920.00    -4080.00
00201             920.00    -4080.00
00202             880.00    -4040.00
00203             880.00    -4080.00
00204             880.00    -4080.00
00205             880.00    -4080.00
00206             880.00    -4080.00
00207             920.00    -4080.00
00208             880.00    -4080.00
00209             920.00    -4080.00
00210             920.00    -4080.00
00211             920.00    -4080.00
00212             880.00    -4080.00
00213             920.00    -4080.00
00214             920.00    -4080.00
00215             920.00    -4080.00
00216             880.00    -4080.00
00217             920.00    -4080.00
00218             920.00    -4080.00
00219             880.00    -4040.00
00220             920.00    -4040.00
00221             920.00    -4040.00
00222             920.00    -4040.00
00223             920.00    -4040.00
00224             920.00    -4080.00
00225             920.00    -4040.00
00226             920.00    -4080.00
00227             880.00    -4040.00
00228             920.00    -4040.00
00229             920.00    -4040.00
00230             920.00    -4000.00
00231             920.00    -4040.00
00232             920.00    -4040.00
00233             920.00    -4040.00
00234             920.00    -4000.00
00235             920.00    -4000.00
00236             880.00    -4000.00
00237             880.00    -4000.00
00238             920.00    -4000.00
00239             880.00    -4000.00
00240             920.00    -4000.00
00241             880.00    -3960.00
00242             880.00    -4000.00
00243             920.00    -4000.00
00244             880.00    -3960.00
00245             920.00    -4000.00
00246             880.00    -4000.00
00247             880.00    -3920.00
00248             880.00    -3920.00
00249             880.00    -3920.00
00250             880.00    -3920.00
00251             880.00    -3920.00
00252             880.00    -3920.00
00253             840.00    -3920.00
00254             880.00    -3920.00
00255             880.00    -3920.00
00256             880.00    -3880.00
00257             880.00    -3880.00
00258             880.00    -3880.00
00259             840.00    -3880.00
00260             880.00    -3880.00
00261             880.00    -3880.00
00262             880.00    -3840.00
00263             840.00    -3840.00
00264             840.00    -3840.00
00265             880.00    -3800.00
00266             880.00    -3840.00
00267             880.00    -3800.00
00268             840.00    -3800.00
00269             880.00    -3840.00
00270             840.00    -3760.00
00271             840.00    -3760.00
00272             840.00    -3760.00
00273             840.00    -3760.00
00274             880.00    -3760.00
00275             840.00    -3720.00
00276             880.00    -3720.00
00277             840.00    -3720.00
00278             840.00    -3720.00
00279             840.00    -3680.00
00280             840.00    -3680.00
00281             840.00    -3680.00
00282             840.00    -3680.00
00283             840.00    -3680.00
00284             880.00    -3600.00
00285             840.00    -3640.00
00286             840.00    -3600.00
00287             840.00    -3600.00
00288             840.00    -3600.00
00289             840.00    -3560.00
00290             840.00    -3560.00
00291             840.00    -3560.00
00292             840.00    -3560.00
00293             840.00    -3560.00
00294             840.00    -3480.00
00295             800.00    -3520.00
00296             840.00    -3480.00
00297             840.00    -3440.00
00298             800.00    -3440.00
00299             840.00    -3440.00
00300             800.00    -3440.00
00301             760.00    -3400.00
00302             840.00    -3440.00
00303             840.00    -3360.00
00304             760.00    -3400.00
00305             760.00    -3360.00
00306             760.00    -3360.00
00307             760.00    -3360.00
00308             760.00    -3320.00
00309             760.00    -3280.00
00310             720.00    -3320.00
00311             760.00    -3240.00
00312             720.00    -3280.00
00313             720.00    -3240.00
00314             720.00    -3240.00
00315             760.00    -3240.00
00316             720.00    -3200.00
00317             760.00    -3200.00
00318             720.00    -3200.00
00319             720.00    -3160.00
00320             720.00    -3160.00
00321             720.00    -3120.00
00322             720.00    -3120.00
00323             720.00    -3080.00
00324             720.00    -3080.00
00325             680.00    -3080.00
00326             720.00    -3040.00
00327             680.00    -3040.00
00328             720.00    -3000.00
00329             680.00    -3000.00
00330             680.00    -2960.00
00331             680.00    -2960.00
00332             680.00    -2960.00
00333             680.00    -2920.00
00334             720.00    -2880.00
00335             680.00    -2880.00
00336             680.00    -2880.00
00337             680.00    -2880.00
00338             680.00    -2840.00
00339             680.00    -2800.00
00340             680.00    -2800.00
00341             680.00    -2760.00
00342             680.00    -2760.00
00343             640.00    -2720.00
00344             680.00    -2720.00
00345             600.00    -2720.00
00346             640.00    -2680.00
00347             640.00    -2640.00
00348             600.00    -2640.00
00349             600.00    -2640.00
00350             600.00    -2600.00
00351             600.00    -2560.00
00352             600.00    -2560.00
00353             600.00    -2560.00
00354             600.00    -2520.00
00355             600.00    -2480.00
00356             600.00    -2480.00
00357             600.00    -2480.00
00358             560.00    -2480.00
00359             600.00    -2440.00
00360             560.00    -2400.00
00361             600.00    -2400.00
00362             560.00    -2400.00
00363             560.00    -2320.00
00364             560.00    -2320.00
00365             560.00    -2320.00
00366             560.00    -2280.00
00367             560.00    -2280.00
00368             560.00    -2200.00
00369             520.00    -2200.00
00370             560.00    -2200.00
00371             520.00    -2160.00
00372             520.00    -2160.00
00373             560.00    -2160.00
00374             520.00    -2120.00
00375             520.00    -2120.00
00376             520.00    -2080.00
00377             520.00    -2080.00
00378             520.00    -2040.00
00379             520.00    -2000.00
00380             480.00    -2000.00
00381             480.00    -1960.00
00382             440.00    -1920.00
00383             520.00    -1920.00
00384             440.00    -1880.00
00385             440.00    -1880.00
00386             440.00    -1840.00
00387             440.00    -1840.00
00388             440.00    -1800.00
00389             440.00    -1800.00
00390             440.00    -1760.00
00391             400.00    -1760.00
00392             400.00    -1720.00
00393             400.00    -1680.00
00394             440.00    -1680.00
00395             400.00    -1680.00
00396             400.00    -1640.00
00397             400.00    -1600.00
00398             400.00    -1600.00
00399             360.00    -1520.00
00400             400.00    -1560.00
00401             360.00    -1520.00
00402             400.00    -1480.00
00403             360.00    -1480.00
00404             360.00    -1480.00
00405             360.00    -1440.00
00406             360.00    -1400.00
00407             360.00    -1360.00
00408             400.00    -1360.00
00409             360.00    -1320.00
00410             360.00    -1320.00
00411             360.00    -1280.00
00412             320.00    -1280.00
00413             280.00    -1280.00
00414             320.00    -1200.00
00415             360.00    -1200.00
00416             320.00    -1160.00
00417             280.00    -1160.00
00418             280.00    -1120.00
00419             320.00    -1120.00
00420             280.00    -1040.00
00421             280.00    -1000.00
00422             280.00    -1000.00
00423             240.00    -1000.00
00424             280.00     -960.00
00425             240.00     -920.00
00426             280.00     -880.00
00427             240.00     -880.00
00428             280.00     -880.00
00429             280.00     -840.00
00430             240.00     -840.00
00431             240.00     -800.00
00432             240.00     -720.00
00433             240.00     -720.00
00434             200.00     -720.00
00435             240.00     -720.00
00436             200.00     -680.00
00437             200.00     -640.00
00438             200.00     -640.00
00439             200.00     -640.00
00440             200.00     -560.00
00441             200.00     -560.00
00442             120.00     -520.00
00443             200.00     -520.00
00444             120.00     -480.00
00445             120.00     -480.00
00446             120.00     -440.00
00447             120.00     -400.00
00448             120.00     -400.00
00449             120.00     -360.00
00450              80.00     -320.00
00451             120.00     -320.00
00452             120.00     -280.00
00453              80.00     -280.00
00454             120.00     -240.00
00455              80.00     -240.00
00456              80.00     -160.00
00457              80.00     -160.00
00458              80.00     -120.00
00459              80.00     -160.00
00460              80.00      -80.00
00461              80.00      -80.00
00462              80.00      -40.00
00463              40.00        0.00
00464              40.00        0.00
00465              40.00       40.00
00466              40.00       40.00
00467              40.00       80.00
00468              40.00       80.00
00469              80.00      120.00
00470              40.00      160.00
00471              40.00      160.00
00472               0.00      200.00
00473              40.00      240.00
00474              40.00      320.00
00475              40.00      360.00
00476             -40.00      320.00
00477             -80.00      240.00
00478             -80.00      360.00
00479             -40.00      400.00
00480             -80.00      440.00
00481             -40.00      480.00
00482             -40.00      440.00
00483             -40.00      520.00
00484             -80.00      480.00
00485             -80.00      560.00
00486             -40.00      600.00
00487             -80.00      600.00
00488             -80.00      600.00
00489             -80.00      640.00
00490             -80.00      680.00
00491            -120.00      720.00
00492             -80.00      720.00
00493            -120.00      720.00
00494            -120.00      720.00
00495            -120.00      800.00
00496            -120.00      840.00
00497            -120.00      840.00
00498            -120.00      880.00
00499            -120.00      880.00
00500            -120.00      920.00
00501            -160.00      960.00
00502            -120.00      960.00
00503            -120.00     1000.00
00504            -160.00     1000.00
00505            -200.00     1040.00
00506            -200.00     1080.00
00507            -200.00     1120.00
00508            -200.00     1120.00
00509            -200.00     1120.00
00510            -240.00     1200.00
00511            -240.00     1200.00
00512            -240.00     1200.00
00513            -240.00     1240.00
00514            -240.00     1280.00
00515            -240.00     1280.00
00516            -240.00     1320.00
00517            -240.00     1360.00
00518            -240.00     1360.00
00519            -280.00     1360.00
00520            -240.00     1400.00
00521            -240.00     1400.00
00522            -280.00     1480.00
00523            -240.00     1480.00
00524            -280.00     1520.00
00525            -280.00     1520.00
00526            -280.00     1560.00
00527            -320.00     1600.00
00528            -360.00     1600.00
00529            -360.00     1640.00
00530            -360.00     1680.00
00531            -320.00     1680.00
00532            -360.00     1680.00
00533            -360.00     1720.00
00534            -400.00     1760.00
00535            -360.00     1760.00
00536            -360.00     1760.00
00537            -360.00     1800.00
00538            -360.00     1800.00
00539            -400.00     1840.00
00540            -360.00     1880.00
00541            -360.00     1880.00
00542            -400.00     1920.00
00543            -400.00     1920.00
00544            -400.00     2000.00
00545            -400.00     2000.00
00546            -400.00     2000.00
00547            -400.00     2000.00
00548            -400.00     2040.00
00549            -440.00     2080.00
00550            -400.00     2080.00
00551            -400.00     2120.00
00552            -440.00     2160.00
00553            -440.00     2160.00
00554            -440.00     2160.00
00555            -440.00     2200.00
00556            -440.00     2200.00
00557            -440.00     2240.00
00558            -440.00     2240.00
00559            -440.00     2240.00
00560            -480.00     2320.00
00561            -440.00     2320.00
00562            -480.00     2360.00
00563            -480.00     2360.00
00564            -440.00     2360.00
00565            -480.00     2400.00
00566            -520.00     2480.00
00567            -480.00     2480.00
00568            -520.00     2480.00
00569            -520.00     2480.00
00570            -520.00     2520.00
00571            -520.00     2520.00
00572            -520.00     2560.00
00573            -560.00     2560.00
00574            -560.00     2600.00
00575            -560.00     2640.00
00576            -560.00     2640.00
00577            -560.00     2640.00
00578            -560.00     2680.00
00579            -560.00     2680.00
00580            -560.00     2680.00
00581            -560.00     2720.00
00582            -560.00     2720.00
00583            -600.00     2720.00
00584            -600.00     2800.00
00585            -600.00     2800.00
00586            -600.00     2840.00
00587            -600.00     2840.00
00588            -600.00     2840.00
00589            -600.00     2920.00
00590            -600.00     2920.00
00591            -600.00     2920.00
00592            -600.00     2920.00
00593            -640.00     2960.00
00594            -600.00     2960.00
00595            -680.00     3000.00
00596            -600.00     3000.00
00597            -680.00     3000.00
00598            -680.00     3040.00
00599            -600.00     3040.00
00600            -600.00     3120.00
00601            -640.00     3080.00
00602            -640.00     3120.00
00603            -680.00     3120.00
00604            -680.00     3160.00
00605            -680.00     3120.00
00606            -680.00     3160.00
00607            -680.00     3160.00
00608            -680.00     3200.00
00609            -720.00     3200.00
00610            -680.00     3240.00
00611            -680.00     3240.00
00612            -720.00     3280.00
00613            -680.00     3280.00
00614            -680.00     3320.00
00615            -720.00     3320.00
00616            -720.00     3320.00
00617            -720.00     3360.00
00618            -720.00     3360.00
00619            -720.00     3360.00
00620            -720.00     3360.00
00621            -720.00     3400.00
00622            -720.00     3400.00
00623            -720.00     3440.00
00624            -760.00     3440.00
00625            -720.00     3440.00
00626            -720.00     3480.00
00627            -720.00     3480.00
00628            -760.00     3480.00
00629            -760.00     3520.00
00630            -720.00     3480.00
00631            -760.00     3520.00
00632            -760.00     3520.00
00633            -760.00     3560.00
00634            -760.00     3560.00
00635            -760.00     3600.00
00636            -760.00     3600.00
00637            -760.00     3600.00
00638            -760.00     3600.00
00639            -760.00     3640.00
00640            -800.00     3640.00
00641            -760.00     3640.00
00642            -800.00     3640.00
00643            -760.00     3680.00
00644            -840.00     3680.00
00645            -840.00     3680.00
00646            -760.00     3760.00
00647            -760.00     3720.00
00648            -840.00     3760.00
00649            -840.00     3760.00
00650            -840.00     3760.00
00651            -800.00     3760.00
00652            -840.00     3800.00
00653            -840.00     3760.00
00654            -840.00     3800.00
00655            -840.00     3800.00
00656            -840.00     3840.00
00657            -840.00     3800.00
00658            -840.00     3840.00
00659            -840.00     3800.00
00660            -840.00     3840.00
00661            -880.00     3840.00
00662            -840.00     3840.00
00663            -840.00     3840.00
00664            -880.00     3880.00
00665            -840.00     3880.00
00666            -880.00     3880.00
00667            -840.00     3920.00
00668            -840.00     3920.00
00669            -840.00     3920.00
00670            -840.00     3920.00
00671            -880.00     3960.00
00672            -880.00     3920.00
00673            -880.00     3920.00
00674            -880.00     3960.00
00675            -880.00     3960.00
00676            -880.00     4000.00
00677            -880.00     3960.00
00678            -840.00     3960.00
00679            -880.00     3960.00
00680            -880.00     3960.00
00681            -880.00     3960.00
00682            -880.00     4000.00
00683            -880.00     4000.00
00684            -880.00     4000.00
00685            -880.00     4000.00
00686            -880.00     4000.00
00687            -880.00     4000.00
00688            -880.00     4000.00
00689            -880.00     4040.00
00690            -880.00     4000.00
00691            -880.00     4040.00
00692            -880.00     4000.00
00693            -880.00     4000.00
00694            -880.00     4080.00
00695            -880.00     4040.00
00696            -880.00     4080.00
00697            -880.00     4080.00
00698            -880.00     4040.00
00699            -920.00     4080.00
00700            -880.00     4080.00
00701            -920.00     4080.00
00702            -880.00     4080.00
00703            -880.00     4080.00
00704            -880.00     4080.00
00705            -920.00     4080.00
00706            -920.00     4080.00
00707            -880.00     4080.00
00708            -880.00     4080.00
00709            -920.00     4080.00
00710            -880.00     4080.00
00711            -920.00     4080.00
00712            -920.00     4080.00
00713            -920.00     4080.00
00714            -920.00     4080.00
00715            -920.00     4120.00
00716            -920.00     4120.00
00717            -920.00     4080.00
00718            -880.00     4120.00
00719            -920.00     4080.00
00720            -920.00     4080.00
00721            -920.00     4120.00
00722            -880.00     4080.00
00723            -880.00     4080.00
00724            -880.00     4080.00
00725            -920.00     4080.00
00726            -880.00     4080.00
00727            -880.00     4080.00
00728            -920.00     4080.00
00729            -920.00     4080.00
00730            -920.00     4080.00
00731            -880.00     4040.00
00732            -920.00     4080.00
00733            -880.00     4080.00
00734            -880.00     4080.00
00735            -880.00     4080.00
00736            -920.00     4040.00
00737            -880.00     4040.00
00738            -920.00     4040.00
00739            -880.00     4000.00
00740            -880.00     4040.00
00741            -920.00     4000.00
00742            -880.00     4000.00
00743            -880.00     4080.00
00744            -880.00     4000.00
00745            -880.00     4000.00
00746            -880.00     4000.00
00747            -880.00     4000.00
00748            -880.00     4000.00
00749            -880.00     4000.00
00750            -880.00     4000.00
00751            -880.00     4000.00
00752            -880.00     3960.00
00753            -880.00     4000.00
00754            -880.00     3960.00
00755            -880.00     3960.00
00756            -880.00     3960.00
00757            -880.00     3960.00
00758            -880.00     3960.00
00759            -880.00     3920.00
00760            -880.00     3920.00
00761            -880.00     3960.00
00762            -880.00     3920.00
00763            -880.00     3920.00
00764            -880.00     3920.00
00765            -880.00     3920.00
00766            -880.00     3880.00
00767            -880.00     3920.00
00768            -880.00     3880.00
00769            -880.00     3840.00
00770            -880.00     3840.00
00771            -880.00     3840.00
00772            -880.00     3840.00
00773            -880.00     3840.00
00774            -880.00     3840.00
00775            -880.00     3840.00
00776            -880.00     3800.00
00777            -880.00     3800.00
00778            -880.00     3800.00
00779            -840.00     3760.00
00780            -880.00     3760.00
00781            -880.00     3760.00
00782            -880.00     3760.00
00783            -880.00     3760.00
00784            -840.00     3760.00
00785            -840.00     3760.00
00786            -880.00     3720.00
00787            -840.00     3720.00
00788            -840.00     3680.00
00789            -840.00     3680.00
00790            -840.00     3680.00
00791            -880.00     3680.00
00792            -840.00     3640.00
00793            -880.00     3640.00
00794            -840.00     3680.00
00795            -800.00     3600.00
00796            -840.00     3560.00
00797            -840.00     3600.00
00798            -840.00     3560.00
00799            -840.00     3600.00
00800            -800.00     3520.00
00801            -800.00     3560.00
00802            -840.00     3520.00
00803            -760.00     3520.00
00804            -840.00     3520.00
00805            -760.00     3480.00
00806            -760.00     3480.00
00807            -800.00     3480.00
00808            -800.00     3440.00
00809            -760.00     3440.00
00810            -760.00     3440.00
00811            -800.00     3400.00
00812            -760.00     3400.00
00813            -760.00     3400.00
00814            -760.00     3360.00
00815            -760.00     3360.00
00816            -760.00     3360.00
00817            -760.00     3320.00
00818            -760.00     3320.00
00819            -760.00     3320.00
00820            -760.00     3280.00
00821            -760.00     3280.00
00822            -760.00     3280.00
00823            -760.00     3240.00
00824            -720.00     3200.00
00825            -720.00     3200.00
00826            -720.00     3200.00
00827            -760.00     3160.00
00828            -720.00     3160.00
00829            -720.00     3160.00
00830            -720.00     3120.00
00831            -720.00     3120.00
00832            -720.00     3120.00
00833            -720.00     3080.00
00834            -720.00     3080.00
00835            -720.00     3040.00
00836            -720.00     3000.00
00837            -720.00     3000.00
00838            -720.00     2960.00
00839            -720.00     2960.00
00840            -720.00     2960.00
00841            -720.00     2920.00
00842            -680.00     2920.00
00843            -720.00     2920.00
00844            -680.00     2880.00
00845            -680.00     2840.00
00846            -680.00     2880.00
00847            -680.00     2840.00
00848            -640.00     2840.00
00849            -680.00     2800.00
00850            -680.00     2800.00
00851            -680.00     2760.00
00852            -680.00     2720.00
00853            -680.00     2720.00
00854            -680.00     2720.00
00855            -680.00     2680.00
00856            -680.00     2680.00
00857            -600.00     2640.00
00858            -600.00     2640.00
00859            -600.00     2600.00
00860            -600.00     2560.00
00861            -600.00     2560.00
00862            -600.00     2560.00
00863            -600.00     2520.00
00864            -600.00     2520.00
00865            -600.00     2480.00
00866            -560.00     2480.00
00867            -600.00     2440.00
00868            -600.00     2440.00
00869            -600.00     2400.00
00870            -600.00     2400.00
00871            -560.00     2400.00
00872            -560.00     2360.00
00873            -560.00     2360.00
00874            -560.00     2320.00
00875            -560.00     2280.00
00876            -520.00     2240.00
00877            -520.00     2240.00
00878            -560.00     2240.00
00879            -560.00     2200.00
00880            -520.00     2200.00
00881            -520.00     2160.00
00882            -520.00     2120.00
00883            -480.00     2080.00
00884            -520.00     2080.00
00885            -520.00     2080.00
00886            -440.00     2040.00
00887            -440.00     2040.00
00888            -480.00     2000.00
00889            -480.00     2000.00
00890            -520.00     2000.00
00891            -440.00     1920.00
00892            -480.00     1920.00
00893            -440.00     1920.00
00894            -440.00     1840.00
00895            -440.00     1840.00
00896            -440.00     1840.00
00897            -440.00     1840.00
00898            -440.00     1760.00
00899            -440.00     1760.00
00900            -440.00     1760.00
00901            -440.00     1720.00
00902            -400.00     1680.00
00903            -440.00     1680.00
00904            -400.00     1680.00
00905            -440.00     1640.00
00906            -400.00     1600.00
00907            -400.00     1640.00
00908            -400.00     1560.00
00909            -400.00     1520.00
00910            -400.00     1520.00
00911            -400.00     1480.00
00912            -400.00     1440.00
00913            -400.00     1440.00
00914            -360.00     1440.00
00915            -360.00     1400.00
00916            -400.00     1360.00
00917            -360.00     1360.00
00918            -360.00     1320.00
00919            -360.00     1320.00
00920            -280.00     1280.00
00921            -360.00     1240.00
00922            -360.00     1240.00
00923            -320.00     1200.00
00924            -360.00     1200.00
00925            -280.00     1200.00
00926            -280.00     1160.00
00927            -280.00     1120.00
00928            -280.00     1080.00
00929            -280.00     1080.00
00930            -280.00     1040.00
00931            -240.00     1040.00
00932            -240.00     1000.00
00933            -240.00      960.00
00934            -240.00      960.00
00935            -240.00      920.00
00936            -240.00      880.00
00937            -240.00      880.00
00938            -240.00      840.00
00939            -240.00      800.00
00940            -200.00      800.00
00941            -240.00      760.00
00942            -240.00      760.00
00943            -240.00      760.00
00944            -200.00      720.00
00945            -200.00      680.00
00946            -200.00      640.00
00947            -200.00      640.00
00948            -120.00      600.00
00949            -200.00      600.00
00950            -120.00      560.00
00951            -120.00      520.00
00952            -120.00      480.00
00953            -120.00      480.00
00954            -120.00      440.00
00955            -120.00      440.00
00956            -120.00      400.00
00957            -120.00      400.00
00958            -120.00      320.00
00959             -80.00      360.00
00960            -120.00      280.00
00961            -120.00      320.00
00962            -120.00      240.00
00963            -120.00      200.00
00964            -120.00      200.00
00965             -80.00      200.00
00966            -120.00      160.00
00967             -80.00      120.00
00968            -120.00       80.00
00969             -80.00       80.00
00970             -80.00       80.00
00971             -80.00       40.00
00972             -80.00        0.00
00973             -40.00      -40.00
00974             -40.00      -40.00
00975             -40.00      -40.00
00976             -40.00      -80.00
00977             -40.00      -80.00
00978             -40.00     -160.00
00979               0.00     -160.00
00980             -40.00     -200.00
00981              40.00     -200.00
00982               0.00     -240.00
00983              40.00     -240.00
00984              40.00     -280.00
00985              40.00     -360.00
00986             -40.00     -400.00
00987             -40.00     -360.00
00988              40.00     -360.00
00989              80.00     -400.00
00990              40.00     -400.00
00991              80.00     -480.00
00992              80.00     -480.00
00993              40.00     -560.00
00994              80.00     -520.00
00995              80.00     -560.00
00996              80.00     -560.00
00997              80.00     -640.00
00998              80.00     -680.00
00999             120.00     -680.00
01000              80.00     -720.00
01001             120.00     -720.00
01002             120.00     -720.00
01003              80.00     -800.00
01004             120.00     -800.00
01005             120.00     -840.00
01006             160.00     -840.00
01007             160.00     -880.00
01008             120.00     -880.00
01009             200.00     -920.00
01010             160.00     -920.00
01011             200.00     -960.00
01012             200.00     -960.00
01013             200.00    -1000.00
01014             200.00    -1040.00
01015             200.00    -1040.00
01016             240.00    -1080.00
01017             200.00    -1120.00
01018             200.00    -1160.00
01019             200.00    -1200.00
01020             240.00    -1160.00
01021             240.00    -1200.00
01022             240.00    -1200.00
01023             240.00    -1240.00
01024             240.00    -1280.00
01025             240.00    -1320.00
01026             240.00    -1320.00
01027             240.00    -1320.00
01028             280.00    -1360.00
01029             280.00    -1360.00
01030             280.00    -1440.00
01031             240.00    -1440.00
01032             280.00    -1480.00
01033             280.00    -1480.00
01034             280.00    -1560.00
01035             280.00    -1520.00
01036             280.00    -1600.00
01037             280.00    -1600.00
01038             280.00    -1640.00
01039             360.00    -1640.00
01040             320.00    -1640.00
01041             360.00    -1680.00
01042             360.00    -1680.00
01043             360.00    -1760.00
01044             360.00    -1760.00
01045             360.00    -1800.00
01046             360.00    -1800.00
01047             360.00    -1800.00
01048             360.00    -1840.00
01049             400.00    -1880.00
01050             400.00    -1920.00
01051             400.00    -1920.00
01052             360.00    -1960.00
01053             400.00    -1960.00
01054             400.00    -1960.00
01055             400.00    -2000.00
01056             400.00    -2000.00
01057             400.00    -2080.00
01058             440.00    -2080.00
01059             400.00    -2120.00
01060             440.00    -2120.00
01061             440.00    -2160.00
01062             440.00    -2160.00
01063             480.00    -2160.00
01064             440.00    -2160.00
01065             440.00    -2240.00
01066             440.00    -2200.00
01067             440.00    -2280.00
01068             520.00    -2280.00
01069             480.00    -2320.00
01070             520.00    -2320.00
01071             480.00    -2360.00
01072             520.00    -2360.00
01073             520.00    -2400.00
01074             520.00    -2400.00
01075             520.00    -2440.00
01076             520.00    -2480.00
01077             520.00    -2440.00
01078             520.00    -2480.00
01079             520.00    -2480.00
01080             520.00    -2520.00
01081             560.00    -2560.00
01082             520.00    -2560.00
01083             560.00    -2560.00
01084             560.00    -2600.00
01085             560.00    -2640.00
01086             560.00    -2640.00
01087             560.00    -2680.00
01088             560.00    -2680.00
01089             560.00    -2720.00
01090             560.00    -2720.00
01091             560.00    -2760.00
01092             560.00    -2760.00
01093             600.00    -2760.00
01094             560.00    -2800.00
01095             600.00    -2800.00
01096             560.00    -2840.00
01097             600.00    -2840.00
01098             600.00    -2880.00
01099             600.00    -2880.00
01100             600.00    -2920.00
01101             600.00    -2920.00
01102             600.00    -2960.00
01103             600.00    -2960.00
01104             600.00    -3000.00
01105             680.00    -3040.00
01106             600.00    -3040.00
01107             640.00    -3040.00
01108             600.00    -3080.00
01109             680.00    -3040.00
01110             640.00    -3080.00
01111             680.00    -3120.00
01112             680.00    -3120.00
01113             680.00    -3120.00
01114             680.00    -3160.00
01115             680.00    -3200.00
01116             680.00    -3200.00
01117             680.00    -3200.00
01118             680.00    -3200.00
01119             680.00    -3240.00
01120             720.00    -3240.00
01121             720.00    -3200.00
01122             720.00    -3280.00
01123             720.00    -3280.00
01124             720.00    -3280.00
01125             720.00    -3320.00
01126             720.00    -3360.00
01127             720.00    -3360.00
01128             720.00    -3360.00
01129             720.00    -3400.00
01130             720.00    -3400.00
01131             760.00    -3400.00
01132             720.00    -3440.00
01133             720.00    -3440.00
01134             760.00    -3440.00
01135             760.00    -3440.00
01136             760.00    -3440.00
01137             760.00    -3480.00
01138             760.00    -3520.00
01139             760.00    -3480.00
01140             760.00    -3520.00
01141             760.00    -3560.00
01142             760.00    -3560.00
01143             760.00    -3560.00
01144             760.00    -3560.00
01145             760.00    -3560.00
01146             760.00    -3600.00
01147             800.00    -3600.00
01148             800.00    -3640.00
01149             840.00    -3600.00
01150             800.00    -3680.00
01151             760.00    -3680.00
01152             840.00    -3680.00
01153             800.00    -3680.00
01154             840.00    -3680.00
01155             840.00    -3720.00
01156             840.00    -3680.00
01157             840.00    -3760.00
01158             840.00    -3760.00
01159             840.00    -3760.00
01160             840.00    -3760.00
01161             840.00    -3760.00
01162             840.00    -3760.00
01163             840.00    -3760.00
01164             840.00    -3760.00
01165             840.00    -3800.00
01166             840.00    -3840.00
01167             840.00    -3840.00
01168             840.00    -3840.00
01169             840.00    -3840.00
01170             840.00    -3840.00
01171             840.00    -3880.00
01172             840.00    -3880.00
01173             840.00    -3880.00
01174             840.00    -3880.00
01175             840.00    -3880.00
01176             840.00    -3880.00
01177             880.00    -3880.00
01178             840.00    -3880.00
01179             840.00    -3920.00
01180             840.00    -3920.00
01181             840.00    -3920.00
01182             880.00    -3920.00
01183             840.00    -3960.00
01184             840.00    -3960.00
01185             840.00    -3920.00
01186             880.00    -3960.00
01187             880.00    -4000.00
01188             880.00    -3960.00
01189             840.00    -4000.00
01190             880.00    -4000.00
01191             880.00    -4000.00
01192             880.00    -4000.00
01193             880.00    -4000.00
01194             880.00    -4000.00
01195             880.00    -4000.00
01196             880.00    -4000.00
01197             880.00    -4000.00
01198             880.00    -4040.00
01199             880.00    -4000.00
01200             880.00    -4040.00
01201             840.00    -4040.00
01202             880.00    -4040.00
01203             880.00    -4040.00
01204             880.00    -4040.00
01205             880.00    -4040.00
01206             880.00    -4040.00
01207             920.00    -4040.00
01208             920.00    -4040.00
01209             920.00    -4040.00
01210             920.00    -4080.00
01211             880.00    -4040.00
01212             880.00    -4080.00
01213             920.00    -4080.00
01214             880.00    -4040.00
01215             920.00    -4040.00
01216             920.00    -4040.00
01217             920.00    -4080.00
01218             920.00    -4080.00
01219             920.00    -4040.00
01220             920.00    -4040.00
01221             920.00    -4080.00
01222             920.00    -4080.00
01223             880.00    -4040.00
01224             880.00    -4080.00
01225             920.00    -4080.00
01226             880.00    -4040.00
01227             880.00    -4080.00
01228             880.00    -4080.00
01229             880.00    -4040.00
01230             880.00    -4080.00
01231             880.00    -4080.00
01232             880.00    -4040.00
01233             880.00    -4040.00
01234             920.00    -4040.00
01235             880.00    -4080.00
01236             880.00    -4040.00
01237             880.00    -4080.00
01238             880.00    -4040.00
01239             880.00    -4080.00
01240             920.00    -4040.00
01241             880.00    -4080.00
01242             880.00    -4040.00
01243             880.00    -4040.00
01244             880.00    -4040.00
01245             880.00    -4040.00
01246             880.00    -4040.00
01247             880.00    -4040.00
01248             880.00    -4040.00
01249             920.00    -4040.00
01250             880.00    -4040.00
01251             920.00    -4000.00
01252             880.00    -4040.00
01253             880.00    -4000.00
01254             920.00    -4040.00
01255             880.00    -4000.00
01256             920.00    -4000.00
01257             880.00    -3960.00
01258             880.00    -4000.00
01259             880.00    -3960.00
01260             880.00    -4000.00
01261             880.00    -3920.00
01262             920.00    -4000.00
01263             920.00    -3920.00
01264             880.00    -3960.00
01265             880.00    -3920.00
01266             920.00    -3960.00
01267             920.00    -3920.00
01268             920.00    -3920.00
01269             880.00    -3920.00
01270             920.00    -3920.00
01271             880.00    -3920.00
01272             880.00    -3880.00
01273             880.00    -3880.00
01274             920.00    -3880.00
01275             880.00    -3880.00
01276             880.00    -3880.00
01277             880.00    -3880.00
01278             840.00    -3840.00
01279             880.00    -3880.00
01280             880.00    -3840.00
01281             880.00    -3840.00
01282             880.00    -3840.00
01283             840.00    -3800.00
01284             880.00    -3840.00
01285             840.00    -3800.00
01286             880.00    -3760.00
01287             840.00    -3760.00
01288             880.00    -3760.00
01289             840.00    -3760.00
01290             880.00    -3760.00
01291             840.00    -3760.00
01292             840.00    -3760.00
01293             880.00    -3720.00
01294             840.00    -3680.00
01295             840.00    -3720.00
01296             840.00    -3680.00
01297             840.00    -3680.00
01298             840.00    -3680.00
01299             840.00    -3640.00
01300             840.00    -3680.00
01301             840.00    -3600.00
01302             840.00    -3640.00
01303             840.00    -3640.00
01304             840.00    -3600.00
01305             840.00    -3560.00
01306             840.00    -3560.00
01307             840.00    -3560.00
01308             840.00    -3560.00
01309             840.00    -3560.00
01310             840.00    -3480.00
01311             840.00    -3520.00
01312             840.00    -3480.00
01313             800.00    -3480.00
01314             840.00    -3480.00
01315             840.00    -3440.00
01316             760.00    -3440.00
01317             760.00    -3440.00
01318             760.00    -3440.00
01319             760.00    -3400.00
01320             800.00    -3360.00
01321             800.00    -3360.00
01322             760.00    -3360.00
01323             760.00    -3360.00
01324             760.00    -3360.00
01325             760.00    -3320.00
01326             760.00    -3280.00
01327             760.00    -3280.00
01328             760.00    -3280.00
01329             760.00    -3280.00
01330             760.00    -3240.00
01331             760.00    -3280.00
01332             760.00    -3200.00
01333             760.00    -3200.00
01334             760.00    -3200.00
01335             720.00    -3200.00
01336             720.00    -3160.00
01337             720.00    -3120.00
01338             720.00    -3120.00
01339             720.00    -3120.00
01340             720.00    -3080.00
01341             760.00    -3040.00
01342             720.00    -3080.00
01343             720.00    -3040.00
01344             720.00    -3040.00
01345             720.00    -3000.00
01346             720.00    -3040.00
01347             720.00    -2960.00
01348             720.00    -2960.00
01349             720.00    -2960.00
01350             680.00    -2880.00
01351             680.00    -2920.00
01352             680.00    -2880.00
01353             680.00    -2880.00
01354             680.00    -2880.00
01355             680.00    -2840.00
01356             640.00    -2800.00
01357             680.00    -2800.00
01358             600.00    -2760.00
01359             680.00    -2760.00
01360             680.00    -2760.00
01361             640.00    -2720.00
01362             600.00    -2720.00
01363             640.00    -2720.00
01364             640.00    -2640.00
01365             600.00    -2640.00
01366             600.00    -2640.00
01367             600.00    -2600.00
01368             600.00    -2600.00
01369             600.00    -2560.00
01370             600.00    -2560.00
01371             560.00    -2560.00
01372             600.00    -2480.00
01373             600.00    -2520.00
01374             560.00    -2480.00
01375             600.00    -2440.00
01376             600.00    -2440.00
01377             560.00    -2400.00
01378             560.00    -2400.00
01379             560.00    -2400.00
01380             560.00    -2360.00
01381             520.00    -2320.00
01382             560.00    -2280.00
01383             560.00    -2280.00
01384             560.00    -2240.00
01385             520.00    -2200.00
01386             520.00    -2240.00
01387             520.00    -2200.00
01388             520.00    -2160.00
01389             520.00    -2160.00
01390             520.00    -2120.00
01391             520.00    -2120.00
01392             520.00    -2120.00
01393             520.00    -2080.00
01394             520.00    -2040.00
01395             520.00    -2000.00
01396             520.00    -2000.00
01397             520.00    -2000.00
01398             520.00    -1960.00
01399             480.00    -1960.00
01400             440.00    -1920.00
01401             440.00    -1920.00
01402             480.00    -1880.00
01403             440.00    -1880.00
01404             520.00    -1840.00
01405             440.00    -1840.00
01406             480.00    -1800.00
01407             440.00    -1760.00
01408             440.00    -1760.00
01409             440.00    -1720.00
01410             440.00    -1680.00
01411             440.00    -1680.00
01412             440.00    -1680.00
01413             400.00    -1640.00
01414             400.00    -1600.00
01415             400.00    -1600.00
01416             400.00    -1600.00
01417             400.00    -1560.00
01418             440.00    -1480.00
01419             400.00    -1480.00
01420             400.00    -1480.00
01421             360.00    -1440.00
01422             360.00    -1440.00
01423             360.00    -1400.00
01424             360.00    -1360.00
01425             360.00    -1360.00
01426             360.00    -1360.00
01427             360.00    -1320.00
01428             360.00    -1280.00
01429             320.00    -1280.00
01430             360.00    -1240.00
01431             280.00    -1200.00
01432             280.00    -1200.00
01433             280.00    -1160.00
01434             280.00    -1120.00
01435             280.00    -1120.00
01436             280.00    -1120.00
01437             280.00    -1080.00
01438             280.00    -1040.00
01439             240.00    -1000.00
01440             280.00    -1000.00
01441             280.00     -960.00
01442             280.00     -920.00
01443             240.00     -960.00
01444             240.00     -880.00
01445             240.00     -880.00
01446             240.00     -840.00
01447             240.00     -840.00
01448             200.00     -800.00
01449             200.00     -800.00
01450             240.00     -760.00
01451             200.00     -720.00
01452             200.00     -720.00
01453             240.00     -680.00
01454             200.00     -680.00
01455             200.00     -640.00
01456             240.00     -600.00
01457             200.00     -600.00
01458             200.00     -560.00
01459             200.00     -560.00
01460             120.00     -520.00
01461             160.00     -480.00
01462             200.00     -440.00
01463             120.00     -440.00
01464             200.00     -400.00
01465             160.00     -400.00
01466             120.00     -360.00
01467             120.00     -320.00
01468             120.00     -320.00
01469             120.00     -320.00
01470             120.00     -240.00
01471             120.00     -240.00
01472              80.00     -200.00
01473              80.00     -160.00
01474              80.00     -160.00
01475              80.00     -160.00
01476              80.00      -80.00
01477              80.00      -80.00
01478              80.00      -80.00
01479              80.00      -40.00
01480              80.00        0.00
01481              80.00        0.00
01482              80.00       80.00
01483              40.00       40.00
01484              80.00       80.00
01485              40.00       80.00
01486              40.00      160.00
01487              40.00      160.00
01488              40.00      160.00
01489              40.00      240.00
01490             -40.00      240.00
01491              40.00      320.00
01492              40.00      360.00
01493             -40.00      320.00
01494             -80.00      280.00
01495             -80.00      360.00
01496             -40.00      400.00
01497             -40.00      440.00
01498             -40.00      440.00
01499             -40.00      480.00
01500             -80.00      520.00
01501            -120.00      480.00
01502             -80.00      560.00
01503             -40.00      560.00
01504             -80.00      600.00
01505            -120.00      600.00
01506            -120.00      640.00
01507            -120.00      680.00
01508             -80.00      720.00
01509            -120.00      720.00
01510            -120.00      760.00
01511            -120.00      760.00
01512            -120.00      800.00
01513            -120.00      800.00
01514            -120.00      880.00
01515            -120.00      840.00
01516            -120.00      880.00
01517            -120.00      920.00
01518            -160.00      920.00
01519            -200.00      960.00
01520            -120.00     1000.00
01521            -200.00     1040.00
01522            -200.00     1040.00
01523            -200.00     1040.00
01524            -200.00     1080.00
01525            -200.00     1120.00
01526            -200.00     1120.00
01527            -200.00     1160.00
01528            -240.00     1200.00
01529            -200.00     1200.00
01530            -200.00     1240.00
01531            -240.00     1240.00
01532            -240.00     1280.00
01533            -240.00     1280.00
01534            -240.00     1360.00
01535            -240.00     1360.00
01536            -240.00     1400.00
01537            -240.00     1400.00
01538            -280.00     1440.00
01539            -240.00     1440.00
01540            -280.00     1480.00
01541            -280.00     1520.00
01542            -280.00     1520.00
01543            -280.00     1560.00
01544            -280.00     1560.00
01545            -280.00     1600.00
01546            -280.00     1640.00
01547            -280.00     1640.00
01548            -320.00     1680.00
01549            -320.00     1680.00
01550            -360.00     1680.00
01551            -280.00     1720.00
01552            -360.00     1760.00
01553            -400.00     1760.00
01554            -360.00     1800.00
01555            -400.00     1840.00
01556            -360.00     1840.00
01557            -400.00     1840.00
01558            -400.00     1880.00
01559            -400.00     1920.00
01560            -400.00     1920.00
01561            -400.00     1920.00
01562            -440.00     2000.00
01563            -400.00     2000.00
01564            -440.00     2040.00
01565            -400.00     2040.00
01566            -440.00     2040.00
01567            -440.00     2080.00
01568            -440.00     2080.00
01569            -440.00     2120.00
01570            -440.00     2160.00
01571            -440.00     2160.00
01572            -440.00     2160.00
01573            -440.00     2240.00
01574            -440.00     2240.00
01575            -520.00     2240.00
01576            -440.00     2280.00
01577            -520.00     2280.00
01578            -520.00     2360.00
01579            -440.00     2360.00
01580            -520.00     2360.00
01581            -520.00     2400.00
01582            -480.00     2400.00
01583            -520.00     2400.00
01584            -520.00     2480.00
01585            -440.00     2480.00
01586            -520.00     2480.00
01587            -520.00     2520.00
01588            -520.00     2520.00
01589            -520.00     2520.00
01590            -520.00     2560.00
01591            -520.00     2600.00
01592            -560.00     2600.00
01593            -560.00     2640.00
01594            -560.00     2640.00
01595            -560.00     2680.00
01596            -560.00     2680.00
01597            -560.00     2680.00
01598            -560.00     2720.00
01599            -560.00     2760.00
01600            -560.00     2760.00
01601            -560.00     2800.00
01602            -560.00     2800.00
01603            -560.00     2840.00
01604            -600.00     2840.00
01605            -560.00     2840.00
01606            -560.00     2880.00
01607            -600.00     2920.00
01608            -600.00     2920.00
01609            -600.00     2960.00
01610            -600.00     2960.00
01611            -600.00     2960.00
01612            -600.00     3000.00
01613            -600.00     3000.00
01614            -600.00     3040.00
01615            -640.00     3040.00
01616            -680.00     3080.00
01617            -640.00     3040.00
01618            -680.00     3120.00
01619            -680.00     3080.00
01620            -680.00     3120.00
01621            -680.00     3160.00
01622            -680.00     3160.00
01623            -680.00     3160.00
01624            -680.00     3200.00
01625            -720.00     3200.00
01626            -720.00     3200.00
01627            -680.00     3200.00
01628            -720.00     3240.00
01629            -720.00     3280.00
01630            -680.00     3280.00
01631            -720.00     3280.00
01632            -720.00     3320.00
01633            -720.00     3360.00
01634            -760.00     3320.00
01635            -720.00     3360.00
01636            -720.00     3360.00
01637            -720.00     3360.00
01638            -760.00     3400.00
01639            -720.00     3360.00
01640            -720.00     3440.00
01641            -760.00     3440.00
01642            -720.00     3440.00
01643            -720.00     3480.00
01644            -720.00     3480.00
01645            -760.00     3480.00
01646            -760.00     3480.00
01647            -760.00     3520.00
01648            -760.00     3520.00
01649            -760.00     3520.00
01650            -760.00     3520.00
01651            -760.00     3560.00
01652            -760.00     3600.00
01653            -760.00     3600.00
01654            -760.00     3600.00
01655            -760.00     3640.00
01656            -760.00     3600.00
01657            -760.00     3640.00
01658            -760.00     3640.00
01659            -760.00     3680.00
01660            -760.00     3680.00
01661            -760.00     3680.00
01662            -760.00     3680.00
01663            -840.00     3680.00
01664            -760.00     3720.00
01665            -760.00     3720.00
01666            -800.00     3760.00
01667            -840.00     3760.00
01668            -840.00     3760.00
01669            -800.00     3800.00
01670            -800.00     3760.00
01671            -840.00     3800.00
01672            -760.00     3800.00
01673            -800.00     3800.00
01674            -840.00     3840.00
01675            -840.00     3800.00
01676            -840.00     3840.00
01677            -760.00     3840.00
01678            -800.00     3840.00
01679            -840.00     3840.00
01680            -840.00     3840.00
01681            -880.00     3880.00
01682            -840.00     3880.00
01683            -880.00     3920.00
01684            -840.00     3920.00
01685            -880.00     3920.00
01686            -880.00     3920.00
01687            -880.00     3920.00
01688            -880.00     3920.00
01689            -880.00     3920.00
01690            -880.00     3960.00
01691            -880.00     3960.00
01692            -880.00     3920.00
01693            -880.00     3960.00
01694            -880.00     3960.00
01695            -880.00     3960.00
01696            -880.00     4000.00
01697            -880.00     4000.00
01698            -880.00     3960.00
01699            -880.00     4000.00
01700            -880.00     4000.00
01701            -880.00     4000.00
01702            -880.00     4000.00
01703            -880.00     4000.00
01704            -880.00     4000.00
01705            -880.00     4000.00
01706            -880.00     4000.00
01707            -880.00     4040.00
01708            -880.00     4040.00
01709            -880.00     4000.00
01710            -880.00     4000.00
01711            -880.00     4080.00
01712            -880.00     4040.00
01713            -880.00     4040.00
01714            -880.00     4080.00
01715            -880.00     4080.00
01716            -880.00     4080.00
01717            -880.00     4080.00
01718            -880.00     4120.00
01719            -880.00     4080.00
01720            -880.00     4080.00
01721            -880.00     4080.00
01722            -880.00     4080.00
01723            -880.00     4120.00
01724            -880.00     4080.00
01725            -880.00     4080.00
01726            -880.00     4120.00
01727            -880.00     4080.00
01728            -880.00     4080.00
01729            -880.00     4120.00
01730            -880.00     4080.00
01731            -920.00     4120.00
01732            -880.00     4080.00
01733            -920.00     4120.00
01734            -880.00     4080.00
01735            -880.00     4080.00
01736            -920.00     4120.00
01737            -880.00     4080.00
01738            -920.00     4080.00
01739            -880.00     4080.00
01740            -920.00     4080.00
01741            -880.00     4120.00
01742            -880.00     4120.00
01743            -880.00     4080.00
01744            -880.00     4080.00
01745            -920.00     4080.00
01746            -920.00     4080.00
01747            -920.00     4080.00
01748            -920.00     4080.00
01749            -920.00     4080.00
01750            -920.00     4080.00
01751            -880.00     4080.00
01752            -920.00     4080.00
01753            -920.00     4080.00
01754            -880.00     4080.00
01755            -920.00     4040.00
01756            -920.00     4000.00
01757            -880.00     4040.00
01758            -920.00     4040.00
01759            -920.00     4040.00
01760            -920.00     4000.00
01761            -880.00     4040.00
01762            -880.00     4000.00
01763            -920.00     4000.00
01764            -880.00     4000.00
01765            -880.00     4000.00
01766            -920.00     4000.00
01767            -880.00     4000.00
01768            -880.00     4000.00
01769            -920.00     4000.00
01770            -880.00     4000.00
01771            -920.00     3960.00
01772            -880.00     3960.00
01773            -880.00     3960.00
01774            -880.00     3920.00
01775            -880.00     3960.00
01776            -880.00     3960.00
01777            -880.00     3920.00
01778            -880.00     3920.00
01779            -880.00     3920.00
01780            -880.00     3920.00
01781            -880.00     3920.00
01782            -880.00     3920.00
01783            -880.00     3920.00
01784            -880.00     3920.00
01785            -880.00     3880.00
01786            -880.00     3880.00
01787            -840.00     3840.00
01788            -880.00     3840.00
01789            -880.00     3840.00
01790            -880.00     3840.00
01791            -840.00     3840.00
01792            -880.00     3840.00
01793            -840.00     3800.00
01794            -840.00     3800.00
01795            -840.00     3800.00
01796            -880.00     3760.00
01797            -840.00     3800.00
01798            -880.00     3800.00
01799            -840.00     3760.00
01800            -880.00     3760.00
01801            -840.00     3760.00
01802            -840.00     3760.00
01803            -840.00     3680.00
01804            -840.00     3760.00
01805            -840.00     3680.00
01806            -800.00     3680.00
01807            -840.00     3680.00
01808            -840.00     3680.00
01809            -840.00     3640.00
01810            -840.00     3640.00
01811            -800.00     3640.00
01812            -840.00     3640.00
01813            -880.00     3600.00
01814            -840.00     3600.00
01815            -840.00     3600.00
01816            -840.00     3560.00
01817            -880.00     3520.00
01818            -840.00     3520.00
01819            -760.00     3520.00
01820            -840.00     3520.00
01821            -840.00     3480.00
01822            -840.00     3480.00
01823            -760.00     3480.00
01824            -760.00     3440.00
01825            -800.00     3480.00
01826            -800.00     3440.00
01827            -760.00     3440.00
01828            -760.00     3400.00
01829            -760.00     3400.00
01830            -760.00     3360.00
01831            -760.00     3360.00
01832            -760.00     3360.00
01833            -760.00     3320.00
01834            -760.00     3320.00
01835            -760.00     3320.00
01836            -760.00     3280.00
01837            -760.00     3280.00
01838            -760.00     3280.00
01839            -760.00     3280.00
01840            -720.00     3200.00
01841            -720.00     3240.00
01842            -760.00     3200.00
01843            -720.00     3200.00
01844            -720.00     3160.00
01845            -720.00     3160.00
01846            -760.00     3160.00
01847            -720.00     3120.00
01848            -720.00     3120.00
01849            -720.00     3080.00
01850            -720.00     3080.00
01851            -720.00     3080.00
01852            -720.00     3040.00
01853            -680.00     3040.00
01854            -720.00     3000.00
01855            -680.00     3000.00
01856            -680.00     2960.00
01857            -680.00     2960.00
01858            -680.00     2960.00
01859            -680.00     2960.00
01860            -680.00     2880.00
01861            -680.00     2920.00
01862            -600.00     2880.00
01863            -680.00     2880.00
01864            -640.00     2840.00
01865            -680.00     2840.00
01866            -680.00     2800.00
01867            -640.00     2800.00
01868            -600.00     2760.00
01869            -640.00     2720.00
01870            -600.00     2720.00
01871            -600.00     2720.00
01872            -600.00     2680.00
01873            -600.00     2680.00
01874            -600.00     2680.00
01875            -600.00     2640.00
01876            -600.00     2640.00
01877            -600.00     2600.00
01878            -600.00     2560.00
01879            -600.00     2520.00
01880            -600.00     2520.00
01881            -600.00     2520.00
01882            -600.00     2480.00
01883            -560.00     2480.00
01884            -560.00     2480.00
01885            -560.00     2400.00
01886            -560.00     2400.00
01887            -600.00     2400.00
01888            -560.00     2400.00
01889            -560.00     2320.00
01890            -560.00     2360.00
01891            -560.00     2320.00
01892            -560.00     2280.00
01893            -560.00     2240.00
01894            -560.00     2240.00
01895            -520.00     2240.00
01896            -560.00     2200.00
01897            -560.00     2200.00
01898            -520.00     2160.00
01899            -560.00     2160.00
01900            -520.00     2120.00
01901            -560.00     2080.00
01902            -560.00     2080.00
01903            -520.00     2040.00
01904            -520.00     2040.00
01905            -440.00     2000.00
01906            -440.00     2000.00
01907            -440.00     2000.00
01908            -440.00     1920.00
01909            -440.00     1920.00
01910            -440.00     1880.00
01911            -440.00     1880.00
01912            -440.00     1840.00
01913            -440.00     1840.00
01914            -440.00     1840.00
01915            -440.00     1800.00
01916            -440.00     1760.00
01917            -400.00     1760.00
01918            -400.00     1720.00
01919            -400.00     1720.00
01920            -400.00     1680.00
01921            -440.00     1680.00
01922            -400.00     1600.00
01923            -400.00     1600.00
01924            -400.00     1640.00
01925            -400.00     1560.00
01926            -400.00     1560.00
01927            -360.00     1520.00
01928            -360.00     1480.00
01929            -400.00     1440.00
01930            -400.00     1440.00
01931            -360.00     1440.00
01932            -360.00     1400.00
01933            -280.00     1360.00
01934            -360.00     1360.00
01935            -360.00     1360.00
01936            -280.00     1320.00
01937            -360.00     1280.00
01938            -360.00     1240.00
01939            -320.00     1280.00
01940            -280.00     1200.00
01941            -360.00     1200.00
01942            -280.00     1200.00
01943            -280.00     1160.00
01944            -280.00     1120.00
01945            -280.00     1120.00
01946            -280.00     1080.00
01947            -280.00     1040.00
01948            -280.00     1040.00
01949            -280.00      960.00
01950            -240.00      960.00
01951            -240.00      960.00
01952            -240.00      880.00
01953            -240.00      880.00
01954            -240.00      880.00
01955            -240.00      840.00
01956            -240.00      840.00
01957            -240.00      800.00
01958            -240.00      760.00
01959            -240.00      760.00
01960            -200.00      720.00
01961            -200.00      720.00
01962            -200.00      720.00
01963            -200.00      640.00
01964            -200.00      600.00
01965            -240.00      600.00
01966            -160.00      600.00
01967            -200.00      560.00
01968            -200.00      560.00
01969            -200.00      560.00
01970            -160.00      480.00
01971            -120.00      440.00
01972            -120.00      440.00
01973            -120.00      440.00
01974            -120.00      400.00
01975            -120.00      360.00
01976            -120.00      360.00
01977            -120.00      280.00
01978            -120.00      280.00
01979             -80.00      280.00
01980            -120.00      240.00
01981             -80.00      240.00
01982             -80.00      160.00
01983             -80.00      160.00
01984             -80.00      120.00
01985             -40.00       80.00
01986             -80.00      120.00
01987             -40.00       80.00
01988             -80.00       40.00
01989             -40.00        0.00
01990             -40.00        0.00
01991             -40.00      -40.00
01992             -40.00      -40.00
01993             -40.00      -80.00
01994               0.00     -120.00
01995              40.00     -120.00
01996               0.00     -160.00
01997               0.00     -160.00
01998              40.00     -200.00
01999              40.00     -200.00
02000              40.00     -240.00
02001              40.00     -280.00
02002              80.00     -360.00
02003             -40.00     -400.00
02004             -40.00     -360.00
02005              40.00     -400.00
02006              80.00     -440.00
02007              40.00     -400.00
02008              80.00     -440.00
02009              80.00     -480.00
02010              40.00     -560.00
02011              80.00     -520.00
02012              80.00     -520.00
02013              80.00     -560.00
02014              80.00     -640.00
02015              80.00     -680.00
02016             120.00     -680.00
02017              80.00     -720.00
02018              80.00     -720.00
02019             120.00     -720.00
02020             120.00     -800.00
02021              80.00     -800.00
02022             120.00     -800.00
02023             200.00     -840.00
02024              80.00     -840.00
02025             120.00     -920.00
02026             120.00     -880.00
02027             200.00     -960.00
02028             200.00     -960.00
02029             200.00    -1000.00
02030             200.00    -1040.00
02031             200.00    -1040.00
02032             240.00    -1080.00
02033             200.00    -1080.00
02034             240.00    -1120.00
02035             200.00    -1120.00
02036             200.00    -1200.00
02037             200.00    -1200.00
02038             240.00    -1240.00
02039             240.00    -1280.00
02040             240.00    -1280.00
02041             240.00    -1320.00
02042             240.00    -1320.00
02043             280.00    -1320.00
02044             280.00    -1360.00
02045             280.00    -1360.00
02046             280.00    -1400.00
02047             280.00    -1440.00
02048             280.00    -1440.00
02049             280.00    -1480.00
02050             280.00    -1480.00
02051             280.00    -1520.00
02052             320.00    -1520.00
02053             360.00    -1600.00
02054             360.00    -1600.00
02055             360.00    -1640.00
02056             360.00    -1680.00
02057             280.00    -1680.00
02058             360.00    -1680.00
02059             360.00    -1680.00
02060             360.00    -1760.00
02061             360.00    -1760.00
02062             360.00    -1760.00
02063             400.00    -1800.00
02064             360.00    -1800.00
02065             360.00    -1840.00
02066             400.00    -1880.00
02067             400.00    -1920.00
02068             360.00    -1920.00
02069             400.00    -1920.00
02070             400.00    -1960.00
02071             400.00    -2000.00
02072             400.00    -2000.00
02073             400.00    -2000.00
02074             400.00    -2080.00
02075             400.00    -2040.00
02076             400.00    -2080.00
02077             440.00    -2120.00
02078             400.00    -2120.00
02079             400.00    -2160.00
02080             400.00    -2160.00
02081             440.00    -2200.00
02082             440.00    -2240.00
02083             440.00    -2240.00
02084             520.00    -2280.00
02085             440.00    -2280.00
02086             440.00    -2280.00
02087             520.00    -2320.00
02088             440.00    -2320.00
02089             520.00    -2320.00
02090             480.00    -2400.00
02091             520.00    -2440.00
02092             520.00    -2440.00
02093             520.00    -2440.00
02094             520.00    -2480.00
02095             520.00    -2480.00
02096             520.00    -2480.00
02097             520.00    -2520.00
02098             520.00    -2560.00
02099             560.00    -2560.00
02100             520.00    -2600.00
02101             520.00    -2640.00
02102             560.00    -2640.00
02103             520.00    -2640.00
02104             560.00    -2640.00
02105             560.00    -2680.00
02106             560.00    -2680.00
02107             600.00    -2720.00
02108             600.00    -2760.00
02109             560.00    -2760.00
02110             600.00    -2760.00
02111             600.00    -2800.00
02112             600.00    -2840.00
02113             600.00    -2800.00
02114             600.00    -2840.00
02115             600.00    -2880.00
02116             600.00    -2880.00
02117             640.00    -2920.00
02118             600.00    -2920.00
02119             680.00    -2920.00
02120             680.00    -2960.00
02121             600.00    -2960.00
02122             680.00    -2960.00
02123             640.00    -3000.00
02124             680.00    -3040.00
02125             680.00    -3080.00
02126             680.00    -3080.00
02127             680.00    -3080.00
02128             680.00    -3080.00
02129             680.00    -3120.00
02130             680.00    -3120.00
02131             680.00    -3120.00
02132             680.00    -3160.00
02133             720.00    -3200.00
02134             680.00    -3200.00
02135             680.00    -3200.00
02136             680.00    -3200.00
02137             720.00    -3240.00
02138             680.00    -3280.00
02139             720.00    -3280.00
02140             720.00    -3280.00
02141             720.00    -3320.00
02142             720.00    -3320.00
02143             720.00    -3360.00
02144             720.00    -3360.00
02145             720.00    -3360.00
02146             720.00    -3360.00
02147             720.00    -3400.00
02148             720.00    -3400.00
02149             720.00    -3440.00
02150             720.00    -3440.00
02151             720.00    -3440.00
02152             720.00    -3440.00
02153             760.00    -3440.00
02154             760.00    -3440.00
02155             720.00    -3520.00
02156             760.00    -3480.00
02157             720.00    -3520.00
02158             720.00    -3560.00
02159             760.00    -3560.00
02160             720.00    -3560.00
02161             760.00    -3560.00
02162             760.00    -3560.00
02163             760.00    -3600.00
02164             720.00    -3600.00
02165             800.00    -3600.00
02166             840.00    -3640.00
02167             800.00    -3640.00
02168             840.00    -3680.00
02169             840.00    -3680.00
02170             800.00    -3680.00
02171             800.00    -3680.00
02172             840.00    -3720.00
02173             840.00    -3680.00
02174             840.00    -3720.00
02175             800.00    -3720.00
02176             840.00    -3720.00
02177             840.00    -3760.00
02178             840.00    -3760.00
02179             840.00    -3760.00
02180             840.00    -3760.00
02181             800.00    -3800.00
02182             840.00    -3840.00
02183             840.00    -3800.00
02184             880.00    -3800.00
02185             840.00    -3840.00
02186             840.00    -3840.00
02187             880.00    -3840.00
02188             840.00    -3840.00
02189             840.00    -3840.00
02190             840.00    -3840.00
02191             840.00    -3880.00
02192             880.00    -3880.00
02193             840.00    -3920.00
02194             880.00    -3920.00
02195             880.00    -3920.00
02196             880.00    -3920.00
02197             880.00    -3920.00
02198             880.00    -3920.00
02199             880.00    -3920.00
02200             880.00    -3920.00
02201             880.00    -3920.00
02202             880.00    -3920.00
02203             880.00    -3960.00
02204             880.00    -4000.00
02205             840.00    -3960.00
02206             880.00    -4000.00
02207             880.00    -4000.00
02208             840.00    -4000.00
02209             880.00    -4000.00
02210             880.00    -4040.00
02211             880.00    -4000.00
02212             880.00    -4000.00
02213             880.00    -4000.00
02214             880.00    -4040.00
02215             880.00    -4000.00
02216             880.00    -4040.00
02217             880.00    -4000.00
02218             920.00    -4040.00
02219             880.00    -4000.00
02220             880.00    -4000.00
02221             880.00    -4040.00
02222             880.00    -4040.00
02223             880.00    -4040.00
02224             880.00    -4080.00
02225             880.00    -4040.00
02226             880.00    -4040.00
02227             880.00    -4040.00
02228             920.00    -4080.00
02229             880.00    -4040.00
02230             880.00    -4040.00
02231             880.00    -4080.00
02232             920.00    -4080.00
02233             920.00    -4040.00
02234             920.00    -4080.00
02235             880.00    -4040.00
02236             920.00    -4080.00
02237             920.00    -4080.00
02238             920.00    -4080.00
02239             920.00    -4040.00
02240             920.00    -4080.00
02241             920.00    -4080.00
02242             920.00    -4080.00
02243             880.00    -4080.00
02244             920.00    -4080.00
02245             880.00    -4080.00
02246             920.00    -4080.00
02247             920.00    -4080.00
02248             920.00    -4080.00
02249             920.00    -4080.00
02250             920.00    -4080.00
02251             920.00    -4080.00
02252             880.00    -4040.00
02253             920.00    -4040.00
02254             880.00    -4040.00
02255             880.00    -4040.00
02256             880.00    -4040.00
02257             920.00    -4080.00
02258             920.00    -4040.00
02259             880.00    -4040.00
02260             880.00    -4040.00
02261             920.00    -4080.00
02262             920.00    -4040.00
02263             920.00    -4040.00
02264             880.00    -4040.00
02265             880.00    -4000.00
02266             920.00    -4000.00
02267             880.00    -4000.00
02268             920.00    -4040.00
02269             880.00    -4000.00
02270             880.00    -4040.00
02271             880.00    -4000.00
02272             880.00    -4000.00
02273             880.00    -4000.00
02274             880.00    -4000.00
02275             880.00    -4000.00
02276             880.00    -3960.00
02277             880.00    -4000.00
02278             880.00    -3960.00
02279             880.00    -4000.00
02280             880.00    -3960.00
02281             880.00    -3920.00
02282             880.00    -3960.00
02283             880.00    -3920.00
02284             840.00    -3920.00
02285             880.00    -3920.00
02286             880.00    -3920.00
02287             880.00    -3920.00
02288             880.00    -3920.00
02289             880.00    -3880.00
02290             880.00    -3880.00
02291             840.00    -3880.00
02292             880.00    -3880.00
02293             880.00    -3880.00
02294             880.00    -3840.00
02295             840.00    -3840.00
02296             880.00    -3880.00
02297             880.00    -3840.00
02298             880.00    -3840.00
02299             840.00    -3840.00
02300             880.00    -3800.00
02301             840.00    -3840.00
02302             840.00    -3800.00
02303             840.00    -3760.00
02304             880.00    -3760.00
02305             840.00    -3760.00
02306             840.00    -3760.00
02307             880.00    -3760.00
02308             880.00    -3720.00
02309             880.00    -3720.00
02310             840.00    -3720.00
02311             880.00    -3720.00
02312             880.00    -3680.00
02313             840.00    -3640.00
02314             880.00    -3720.00
02315             840.00    -3680.00
02316             840.00    -3680.00
02317             840.00    -3680.00
02318             880.00    -3640.00
02319             840.00    -3600.00
02320             840.00    -3600.00
02321             840.00    -3600.00
02322             840.00    -3560.00
02323             840.00    -3560.00
02324             840.00    -3560.00
02325             840.00    -3560.00
02326             840.00    -3480.00
02327             840.00    -3480.00
02328             840.00    -3480.00
02329             840.00    -3480.00
02330             840.00    -3480.00
02331             840.00    -3440.00
02332             840.00    -3440.00
02333             800.00    -3440.00
02334             840.00    -3440.00
02335             800.00    -3400.00
02336             760.00    -3400.00
02337             760.00    -3400.00
02338             760.00    -3360.00
02339             760.00    -3360.00
02340             760.00    -3360.00
02341             720.00    -3360.00
02342             760.00    -3360.00
02343             760.00    -3280.00
02344             760.00    -3280.00
02345             760.00    -3280.00
02346             720.00    -3280.00
02347             760.00    -3280.00
02348             760.00    -3240.00
02349             760.00    -3240.00
02350             720.00    -3200.00
02351             720.00    -3160.00
02352             760.00    -3200.00
02353             720.00    -3160.00
02354             720.00    -3120.00
02355             720.00    -3120.00
02356             720.00    -3120.00
02357             720.00    -3080.00
02358             720.00    -3080.00
02359             680.00    -3040.00
02360             720.00    -3040.00
02361             720.00    -3040.00
02362             720.00    -3000.00
02363             720.00    -3000.00
02364             720.00    -2960.00
02365             720.00    -2960.00
02366             720.00    -2960.00
02367             680.00    -2920.00
02368             720.00    -2920.00
02369             680.00    -2880.00
02370             680.00    -2880.00
02371             680.00    -2880.00
02372             680.00    -2840.00
02373             680.00    -2800.00
02374             680.00    -2800.00
02375             680.00    -2760.00
02376             680.00    -2760.00
02377             680.00    -2760.00
02378             680.00    -2720.00
02379             680.00    -2680.00
02380             600.00    -2640.00
02381             640.00    -2680.00
02382             680.00    -2640.00
02383             600.00    -2640.00
02384             600.00    -2600.00
02385             600.00    -2600.00
02386             640.00    -2600.00
02387             600.00    -2560.00
02388             600.00    -2560.00
02389             560.00    -2520.00
02390             600.00    -2480.00
02391             600.00    -2520.00
02392             560.00    -2440.00
02393             600.00    -2440.00
02394             600.00    -2400.00
02395             600.00    -2400.00
02396             600.00    -2400.00
02397             560.00    -2320.00
02398             560.00    -2320.00
02399             520.00    -2320.00
02400             560.00    -2280.00
02401             520.00    -2240.00
02402             560.00    -2280.00
02403             520.00    -2240.00
02404             520.00    -2200.00
02405             520.00    -2160.00
02406             520.00    -2160.00
02407             520.00    -2160.00
02408             520.00    -2120.00
02409             520.00    -2080.00
02410             520.00    -2080.00
02411             520.00    -2080.00
02412             520.00    -2040.00
02413             520.00    -2000.00
02414             480.00    -2000.00
02415             520.00    -1960.00
02416             440.00    -1960.00
02417             480.00    -1920.00
02418             440.00    -1920.00
02419             440.00    -1880.00
02420             440.00    -1840.00
02421             520.00    -1840.00
02422             440.00    -1800.00
02423             440.00    -1760.00
02424             440.00    -1760.00
02425             400.00    -1760.00
02426             400.00    -1760.00
02427             440.00    -1680.00
02428             440.00    -1680.00
02429             440.00    -1680.00
02430             400.00    -1640.00
02431             400.00    -1600.00
02432             360.00    -1600.00
02433             400.00    -1600.00
02434             400.00    -1600.00
02435             400.00    -1520.00
02436             400.00    -1480.00
02437             400.00    -1480.00
02438             400.00    -1440.00
02439             400.00    -1440.00
02440             360.00    -1400.00
02441             400.00    -1360.00
02442             360.00    -1320.00
02443             360.00    -1320.00
02444             360.00    -1320.00
02445             360.00    -1280.00
02446             360.00    -1280.00
02447             320.00    -1280.00
02448             360.00    -1200.00
02449             320.00    -1200.00
02450             360.00    -1200.00
02451             360.00    -1160.00
02452             280.00    -1120.00
02453             360.00    -1120.00
02454             280.00    -1080.00
02455             280.00    -1040.00
02456             320.00    -1040.00
02457             280.00    -1000.00
02458             240.00    -1000.00
02459             280.00     -920.00
02460             280.00     -920.00
02461             280.00     -880.00
02462             240.00     -880.00
02463             240.00     -840.00
02464             240.00     -800.00
02465             240.00     -840.00
02466             240.00     -800.00
02467             200.00     -760.00
02468             200.00     -720.00
02469             200.00     -720.00
02470             240.00     -680.00
02471             200.00     -680.00
02472             200.00     -640.00
02473             200.00     -640.00
02474             200.00     -560.00
02475             200.00     -560.00
02476             160.00     -520.00
02477             160.00     -520.00
02478             160.00     -480.00
02479             120.00     -480.00
02480             120.00     -480.00
02481             120.00     -440.00
02482             120.00     -400.00
02483             120.00     -360.00
02484              80.00     -360.00
02485             120.00     -320.00
02486              80.00     -280.00
02487              80.00     -240.00
02488              80.00     -240.00
02489              80.00     -200.00
02490              80.00     -160.00
02491              80.00     -160.00
02492              80.00     -160.00
02493              80.00     -120.00
02494              40.00      -80.00
02495              80.00      -80.00
02496              80.00      -40.00
02497              40.00      -40.00
02498              40.00        0.00
02499              80.00        0.00
02500              40.00       40.00
02501              40.00       80.00
02502              40.00      120.00
02503              40.00      120.00
02504              40.00      160.00
02505              40.00      200.00
02506               0.00      160.00
02507              40.00      280.00
02508              40.00      280.00
02509              40.00      360.00
02510              40.00      320.00
02511             -80.00      280.00
02512             -80.00      360.00
02513             -40.00      400.00
02514               0.00      400.00
02515             -40.00      440.00
02516             -40.00      480.00
02517             -40.00      520.00
02518             -40.00      480.00
02519             -80.00      560.00
02520             -40.00      600.00
02521             -40.00      600.00
02522             -80.00      600.00
02523             -80.00      640.00
02524            -120.00      680.00
02525            -120.00      680.00
02526            -120.00      720.00
02527             -80.00      760.00
02528            -120.00      760.00
02529            -120.00      760.00
02530            -200.00      800.00
02531            -120.00      880.00
02532            -120.00      880.00
02533            -160.00      920.00
02534            -120.00      880.00
02535            -200.00      960.00
02536            -200.00      960.00
02537            -160.00     1000.00
02538            -200.00     1040.00
02539            -200.00     1040.00
02540            -200.00     1040.00
02541            -200.00     1080.00
02542            -200.00     1120.00
02543            -200.00     1120.00
02544            -200.00     1160.00
02545            -240.00     1160.00
02546            -240.00     1200.00
02547            -240.00     1240.00
02548            -240.00     1240.00
02549            -240.00     1280.00
02550            -240.00     1280.00
02551            -280.00     1360.00
02552            -280.00     1360.00
02553            -240.00     1360.00
02554            -240.00     1400.00
02555            -280.00     1400.00
02556            -240.00     1480.00
02557            -240.00     1480.00
02558            -280.00     1520.00
02559            -280.00     1520.00
02560            -280.00     1560.00
02561            -280.00     1560.00
02562            -280.00     1600.00
02563            -280.00     1640.00
02564            -280.00     1640.00
02565            -320.00     1680.00
02566            -360.00     1680.00
02567            -360.00     1720.00
02568            -320.00     1720.00
02569            -320.00     1760.00
02570            -280.00     1800.00
02571            -360.00     1840.00
02572            -360.00     1840.00
02573            -360.00     1880.00
02574            -400.00     1880.00
02575            -360.00     1880.00
02576            -400.00     1920.00
02577            -400.00     1960.00
02578            -400.00     1920.00
02579            -400.00     2000.00
02580            -400.00     2000.00
02581            -400.00     2040.00
02582            -400.00     2040.00
02583            -400.00     2040.00
02584            -440.00     2080.00
02585            -400.00     2080.00
02586            -400.00     2120.00
02587            -400.00     2160.00
02588            -440.00     2160.00
02589            -440.00     2200.00
02590            -440.00     2200.00
02591            -440.00     2240.00
02592            -440.00     2240.00
02593            -480.00     2280.00
02594            -440.00     2320.00
02595            -440.00     2320.00
02596            -440.00     2360.00
02597            -520.00     2360.00
02598            -520.00     2400.00
02599            -520.00     2400.00
02600            -520.00     2440.00
02601            -560.00     2440.00
02602            -520.00     2480.00
02603            -520.00     2480.00
02604            -560.00     2520.00
02605            -520.00     2520.00
02606            -560.00     2520.00
02607            -560.00     2560.00
02608            -560.00     2600.00
02609            -560.00     2600.00
02610            -560.00     2640.00
02611            -560.00     2640.00
02612            -560.00     2640.00
02613            -560.00     2680.00
02614            -560.00     2680.00
02615            -560.00     2720.00
02616            -560.00     2720.00
02617            -560.00     2760.00
02618            -600.00     2800.00
02619            -600.00     2840.00
02620            -600.00     2840.00
02621            -600.00     2840.00
02622            -600.00     2840.00
02623            -600.00     2920.00
02624            -600.00     2880.00
02625            -600.00     2960.00
02626            -600.00     2960.00
02627            -600.00     2960.00
02628            -600.00     2960.00
02629            -640.00     2960.00
02630            -600.00     3000.00
02631            -600.00     3000.00
02632            -600.00     3040.00
02633            -640.00     3080.00
02634            -640.00     3080.00
02635            -600.00     3080.00
02636            -640.00     3080.00
02637            -680.00     3120.00
02638            -640.00     3160.00
02639            -640.00     3160.00
02640            -680.00     3160.00
02641            -680.00     3200.00
02642            -680.00     3200.00
02643            -680.00     3200.00
02644            -680.00     3200.00
02645            -680.00     3280.00
02646            -680.00     3280.00
02647            -720.00     3280.00
02648            -720.00     3280.00
02649            -720.00     3280.00
02650            -720.00     3320.00
02651            -680.00     3320.00
02652            -720.00     3360.00
02653            -720.00     3360.00
02654            -720.00     3360.00
02655            -720.00     3360.00
02656            -720.00     3400.00
02657            -720.00     3440.00
02658            -760.00     3440.00
02659            -760.00     3440.00
02660            -720.00     3480.00
02661            -760.00     3480.00
02662            -760.00     3480.00
02663            -760.00     3520.00
02664            -760.00     3520.00
02665            -760.00     3520.00
02666            -760.00     3520.00
02667            -760.00     3520.00
02668            -760.00     3600.00
02669            -760.00     3600.00
02670            -800.00     3600.00
02671            -760.00     3600.00
02672            -760.00     3640.00
02673            -800.00     3640.00
02674            -800.00     3640.00
02675            -840.00     3640.00
02676            -760.00     3680.00
02677            -840.00     3680.00
02678            -800.00     3680.00
02679            -800.00     3680.00
02680            -800.00     3680.00
02681            -760.00     3720.00
02682            -840.00     3760.00
02683            -840.00     3760.00
02684            -840.00     3760.00
02685            -840.00     3760.00
02686            -840.00     3760.00
02687            -840.00     3760.00
02688            -800.00     3800.00
02689            -840.00     3800.00
02690            -840.00     3800.00
02691            -840.00     3800.00
02692            -840.00     3840.00
02693            -840.00     3840.00
02694            -840.00     3840.00
02695            -840.00     3840.00
02696            -840.00     3880.00
02697            -840.00     3880.00
02698            -840.00     3880.00
02699            -840.00     3840.00
02700            -840.00     3920.00
02701            -840.00     3920.00
02702            -840.00     3920.00
02703            -880.00     3920.00
02704            -840.00     3920.00
02705            -840.00     3960.00
02706            -840.00     3920.00
02707            -840.00     3920.00
02708            -880.00     3960.00
02709            -840.00     3960.00
02710            -840.00     3960.00
02711            -840.00     3960.00
02712            -840.00     4000.00
02713            -880.00     3960.00
02714            -840.00     3960.00
02715            -880.00     3960.00
02716            -880.00     4000.00
02717            -880.00     4000.00
02718            -880.00     4000.00
02719            -840.00     4000.00
02720            -880.00     4000.00
02721            -880.00     4040.00
02722            -880.00     4000.00
02723            -880.00     4040.00
02724            -880.00     4000.00
02725            -880.00     4000.00
02726            -880.00     4040.00
02727            -880.00     4040.00
02728            -880.00     4080.00
02729            -920.00     4040.00
02730            -880.00     4040.00
02731            -880.00     4040.00
02732            -880.00     4080.00
02733            -920.00     4080.00
02734            -880.00     4080.00
02735            -920.00     4040.00
02736            -920.00     4080.00
02737            -880.00     4080.00
02738            -920.00     4040.00
02739            -880.00     4080.00
02740            -880.00     4080.00
02741            -920.00     4080.00
02742            -920.00     4080.00
02743            -880.00     4080.00
02744            -920.00     4080.00
02745            -920.00     4080.00
02746            -920.00     4080.00
02747            -920.00     4120.00
02748            -920.00     4080.00
02749            -920.00     4080.00
02750            -920.00     4080.00
02751            -920.00     4080.00
02752            -920.00     4080.00
02753            -880.00     4080.00
02754            -880.00     4080.00
02755            -880.00     4080.00
02756            -880.00     4080.00
02757            -920.00     4080.00
02758            -880.00     4080.00
02759            -880.00     4080.00
02760            -920.00     4080.00
02761            -880.00     4120.00
02762            -880.00     4080.00
02763            -880.00     4080.00
02764            -920.00     4080.00
02765            -880.00     4120.00
02766            -880.00     4080.00
02767            -880.00     4080.00
02768            -920.00     4080.00
02769            -880.00     4080.00
02770            -880.00     4080.00
02771            -880.00     4040.00
02772            -880.00     4000.00
02773            -880.00     4040.00
02774            -880.00     4040.00
02775            -880.00     4000.00
02776            -880.00     4000.00
02777            -880.00     4000.00
02778            -880.00     4040.00
02779            -880.00     4000.00
02780            -880.00     4040.00
02781            -920.00     4000.00
02782            -880.00     4000.00
02783            -880.00     4000.00
02784            -880.00     4000.00
02785            -880.00     4000.00
02786            -880.00     4000.00
02787            -880.00     4000.00
02788            -880.00     3960.00
02789            -920.00     3960.00
02790            -880.00     3960.00
02791            -880.00     3960.00
02792            -920.00     3960.00
02793            -880.00     3960.00
02794            -920.00     3960.00
02795            -880.00     3920.00
02796            -880.00     3920.00
02797            -880.00     3920.00
02798            -880.00     3880.00
02799            -880.00     3920.00
02800            -880.00     3920.00
02801            -880.00     3880.00
02802            -880.00     3920.00
02803            -880.00     3880.00
02804            -880.00     3840.00
02805            -880.00     3840.00
02806            -880.00     3840.00
02807            -880.00     3840.00
02808            -880.00     3840.00
02809            -880.00     3840.00
02810            -880.00     3800.00
02811            -880.00     3800.00
02812            -880.00     3800.00
02813            -880.00     3760.00
02814            -880.00     3800.00
02815            -880.00     3760.00
02816            -840.00     3760.00
02817            -880.00     3760.00
02818            -840.00     3760.00
02819            -840.00     3760.00
02820            -840.00     3680.00
02821            -840.00     3720.00
02822            -840.00     3720.00
02823            -840.00     3680.00
02824            -840.00     3680.00
02825            -880.00     3640.00
02826            -840.00     3680.00
02827            -840.00     3680.00
02828            -800.00     3640.00
02829            -840.00     3640.00
02830            -760.00     3600.00
02831            -840.00     3600.00
02832            -840.00     3600.00
02833            -840.00     3520.00
02834            -800.00     3560.00
02835            -840.00     3560.00
02836            -840.00     3520.00
02837            -760.00     3520.00
02838            -760.00     3480.00
02839            -800.00     3480.00
02840            -760.00     3480.00
02841            -760.00     3480.00
02842            -760.00     3480.00
02843            -840.00     3440.00
02844            -760.00     3440.00
02845            -760.00     3440.00
02846            -760.00     3440.00
02847            -760.00     3360.00
02848            -760.00     3360.00
02849            -760.00     3360.00
02850            -760.00     3360.00
02851            -760.00     3320.00
02852            -760.00     3320.00
02853            -760.00     3320.00
02854            -720.00     3280.00
02855            -760.00     3280.00
02856            -720.00     3280.00
02857            -760.00     3240.00
02858            -760.00     3240.00
02859            -760.00     3200.00
02860            -760.00     3200.00
02861            -720.00     3200.00
02862            -760.00     3160.00
02863            -760.00     3160.00
02864            -720.00     3120.00
02865            -720.00     3120.00
02866            -760.00     3120.00
02867            -720.00     3040.00
02868            -720.00     3080.00
02869            -720.00     3040.00
02870            -720.00     3000.00
02871            -720.00     3040.00
02872            -680.00     3000.00
02873            -680.00     2960.00
02874            -680.00     2960.00
02875            -720.00     2960.00
02876            -720.00     2920.00
02877            -680.00     2920.00
02878            -680.00     2920.00
02879            -680.00     2840.00
02880            -680.00     2880.00
02881            -680.00     2840.00
02882            -680.00     2800.00
02883            -680.00     2800.00
02884            -680.00     2800.00
02885            -640.00     2760.00
02886            -600.00     2720.00
02887            -600.00     2720.00
02888            -640.00     2720.00
02889            -600.00     2680.00
02890            -640.00     2680.00
02891            -600.00     2640.00
02892            -600.00     2640.00
02893            -600.00     2600.00
02894            -600.00     2600.00
02895            -600.00     2560.00
02896            -600.00     2560.00
02897            -600.00     2520.00
02898            -560.00     2520.00
02899            -560.00     2520.00
02900            -560.00     2480.00
02901            -560.00     2480.00
02902            -560.00     2440.00
02903            -560.00     2400.00
02904            -520.00     2400.00
02905            -560.00     2360.00
02906            -560.00     2360.00
02907            -560.00     2360.00
02908            -560.00     2320.00
02909            -560.00     2320.00
02910            -560.00     2280.00
02911            -520.00     2200.00
02912            -520.00     2240.00
02913            -520.00     2240.00
02914            -520.00     2160.00
02915            -520.00     2200.00
02916            -520.00     2160.00
02917            -520.00     2120.00
02918            -520.00     2120.00
02919            -520.00     2080.00
02920            -520.00     2080.00
02921            -520.00     2040.00
02922            -520.00     2000.00
02923            -520.00     2000.00
02924            -520.00     1960.00
02925            -480.00     1920.00
02926            -440.00     1920.00
02927            -480.00     1920.00
02928            -440.00     1880.00
02929            -440.00     1880.00
02930            -440.00     1840.00
02931            -440.00     1840.00
02932            -440.00     1760.00
02933            -440.00     1760.00
02934            -440.00     1760.00
02935            -440.00     1720.00
02936            -440.00     1720.00
02937            -440.00     1680.00
02938            -440.00     1680.00
02939            -440.00     1640.00
02940            -400.00     1640.00
02941            -440.00     1600.00
02942            -400.00     1560.00
02943            -400.00     1560.00
02944            -400.00     1480.00
02945            -360.00     1520.00
02946            -400.00     1480.00
02947            -360.00     1480.00
02948            -360.00     1440.00
02949            -400.00     1400.00
02950            -360.00     1360.00
02951            -360.00     1360.00
02952            -360.00     1360.00
02953            -360.00     1280.00
02954            -360.00     1280.00
02955            -360.00     1240.00
02956            -360.00     1240.00
02957            -280.00     1240.00
02958            -280.00     1200.00
02959            -280.00     1200.00
02960            -280.00     1120.00
02961            -280.00     1120.00
02962            -280.00     1080.00
02963            -280.00     1080.00
02964            -280.00     1040.00
02965            -240.00     1040.00
02966            -240.00      960.00
02967            -240.00      960.00
02968            -240.00      960.00
02969            -240.00      920.00
02970            -240.00      880.00
02971            -240.00      880.00
02972            -240.00      840.00
02973            -240.00      840.00
02974            -200.00      800.00
02975            -200.00      800.00
02976            -240.00      760.00
02977            -200.00      760.00
02978            -200.00      720.00
02979            -200.00      720.00
02980            -200.00      640.00
02981            -200.00      640.00
02982            -200.00      600.00
02983            -120.00      600.00
02984            -160.00      560.00
02985            -120.00      520.00
02986            -120.00      480.00
02987            -120.00      480.00
02988            -200.00      480.00
02989            -120.00      440.00
02990            -160.00      400.00
02991            -120.00      400.00
02992            -120.00      360.00
02993            -120.00      360.00
02994            -120.00      320.00
02995            -120.00      280.00
02996             -80.00      280.00
02997            -120.00      240.00
02998            -120.00      200.00
02999             -80.00      200.00
03000            -120.00      160.00
03001             -80.00      160.00
03002             -80.00      160.00
03003            -120.00       80.00
03004             -40.00       80.00
03005             -80.00       80.00
03006             -40.00        0.00
03007             -40.00      -40.00
03008             -40.00      -40.00
03009             -40.00      -40.00
03010             -40.00      -80.00
03011             -40.00      -80.00
03012               0.00     -160.00
03013             -40.00     -160.00
03014             -40.00     -200.00
03015              40.00     -200.00
03016              40.00     -240.00
03017              40.00     -240.00
03018              40.00     -240.00
03019              80.00     -320.00
03020               0.00     -400.00
03021             -40.00     -400.00
03022              40.00     -360.00
03023              80.00     -440.00
03024              40.00     -400.00
03025              80.00     -440.00
03026              80.00     -480.00
03027              80.00     -520.00
03028              40.00     -560.00
03029              80.00     -560.00
03030              80.00     -600.00
03031              80.00     -600.00
03032              80.00     -640.00
03033              80.00     -640.00
03034              80.00     -720.00
03035             120.00     -720.00
03036             120.00     -720.00
03037             160.00     -720.00
03038             120.00     -800.00
03039             120.00     -800.00
03040             120.00     -840.00
03041             160.00     -880.00
03042             160.00     -880.00
03043             120.00     -880.00
03044             200.00     -960.00
03045             120.00     -920.00
03046             200.00    -1000.00
03047             200.00    -1000.00
03048             200.00    -1040.00
03049             200.00    -1040.00
03050             200.00    -1080.00
03051             200.00    -1120.00
03052             200.00    -1160.00
03053             240.00    -1160.00
03054             200.00    -1200.00
03055             200.00    -1200.00
03056             240.00    -1240.00
03057             200.00    -1280.00
03058             240.00    -1280.00
03059             240.00    -1280.00
03060             240.00    -1320.00
03061             240.00    -1360.00
03062             240.00    -1360.00
03063             280.00    -1440.00
03064             240.00    -1400.00
03065             280.00    -1480.00
03066             240.00    -1480.00
03067             240.00    -1480.00
03068             280.00    -1520.00
03069             280.00    -1560.00
03070             280.00    -1600.00
03071             280.00    -1600.00
03072             360.00    -1600.00
03073             360.00    -1640.00
03074             360.00    -1640.00
03075             360.00    -1680.00
03076             360.00    -1720.00
03077             360.00    -1720.00
03078             360.00    -1760.00
03079             400.00    -1800.00
03080             360.00    -1800.00
03081             360.00    -1840.00
03082             400.00    -1840.00
03083             360.00    -1840.00
03084             400.00    -1880.00
03085             400.00    -1920.00
03086             400.00    -1960.00
03087             400.00    -1960.00
03088             400.00    -2000.00
03089             400.00    -2000.00
03090             440.00    -2000.00
03091             400.00    -2040.00
03092             440.00    -2080.00
03093             440.00    -2120.00
03094             440.00    -2120.00
03095             440.00    -2120.00
03096             440.00    -2160.00
03097             440.00    -2160.00
03098             480.00    -2160.00
03099             440.00    -2200.00
03100             520.00    -2240.00
03101             520.00    -2240.00
03102             520.00    -2280.00
03103             480.00    -2320.00
03104             520.00    -2320.00
03105             520.00    -2320.00
03106             520.00    -2400.00
03107             520.00    -2400.00
03108             520.00    -2400.00
03109             520.00    -2440.00
03110             520.00    -2440.00
03111             520.00    -2480.00
03112             520.00    -2480.00
03113             520.00    -2480.00
03114             520.00    -2520.00
03115             560.00    -2560.00
03116             520.00    -2560.00
03117             520.00    -2600.00
03118             520.00    -2640.00
03119             560.00    -2640.00
03120             560.00    -2640.00
03121             560.00    -2640.00
03122             560.00    -2720.00
03123             560.00    -2720.00
03124             560.00    -2720.00
03125             520.00    -2760.00
03126             600.00    -2760.00
03127             560.00    -2760.00
03128             560.00    -2800.00
03129             560.00    -2800.00
03130             560.00    -2840.00
03131             560.00    -2880.00
03132             600.00    -2880.00
03133             600.00    -2920.00
03134             600.00    -2920.00
03135             600.00    -2920.00
03136             600.00    -2960.00
03137             640.00    -2960.00
03138             680.00    -2960.00
03139             600.00    -3000.00
03140             600.00    -3000.00
03141             640.00    -3040.00
03142             640.00    -3040.00
03143             680.00    -3080.00
03144             680.00    -3080.00
03145             640.00    -3080.00
03146             680.00    -3120.00
03147             680.00    -3120.00
03148             680.00    -3120.00
03149             680.00    -3160.00
03150             680.00    -3200.00
03151             680.00    -3200.00
03152             680.00    -3200.00
03153             680.00    -3240.00
03154             680.00    -3240.00
03155             720.00    -3240.00
03156             720.00    -3280.00
03157             720.00    -3280.00
03158             720.00    -3280.00
03159             720.00    -3320.00
03160             720.00    -3360.00
03161             720.00    -3360.00
03162             720.00    -3360.00
03163             720.00    -3360.00
03164             720.00    -3400.00
03165             720.00    -3400.00
03166             720.00    -3400.00
03167             720.00    -3400.00
03168             720.00    -3440.00
03169             760.00    -3440.00
03170             760.00    -3440.00
03171             760.00    -3480.00
03172             760.00    -3480.00
03173             760.00    -3520.00
03174             760.00    -3480.00
03175             760.00    -3520.00
03176             800.00    -3520.00
03177             800.00    -3560.00
03178             760.00    -3560.00
03179             800.00    -3600.00
03180             760.00    -3560.00
03181             760.00    -3600.00
03182             760.00    -3680.00
03183             760.00    -3600.00
03184             760.00    -3680.00
03185             800.00    -3640.00
03186             840.00    -3680.00
03187             760.00    -3680.00
03188             840.00    -3720.00
03189             760.00    -3720.00
03190             800.00    -3680.00
03191             840.00    -3720.00
03192             840.00    -3760.00
03193             760.00    -3760.00
03194             840.00    -3760.00
03195             840.00    -3760.00
03196             840.00    -3760.00
03197             840.00    -3760.00
03198             840.00    -3800.00
03199             840.00    -3800.00
03200             840.00    -3840.00
03201             840.00    -3840.00
03202             840.00    -3800.00
03203             840.00    -3840.00
03204             840.00    -3840.00
03205             840.00    -3840.00
03206             840.00    -3840.00
03207             840.00    -3880.00
03208             840.00    -3880.00
03209             840.00    -3880.00
03210             880.00    -3880.00
03211             840.00    -3880.00
03212             840.00    -3880.00
03213             880.00    -3920.00
03214             880.00    -3920.00
03215             840.00    -3920.00
03216             840.00    -3920.00
03217             880.00    -3920.00
03218             880.00    -3920.00
03219             880.00    -3920.00
03220             880.00    -3960.00
03221             840.00    -3920.00
03222             880.00    -3920.00
03223             880.00    -3960.00
03224             880.00    -4000.00
03225             880.00    -4000.00
03226             880.00    -4000.00
03227             880.00    -4000.00
03228             880.00    -4000.00
03229             880.00    -4000.00
03230             880.00    -4000.00
03231             880.00    -4040.00
03232             880.00    -4000.00
03233             880.00    -4000.00
03234             920.00    -4000.00
03235             880.00    -4040.00
03236             880.00    -4040.00
03237             880.00    -4040.00
03238             880.00    -4040.00
03239             880.00    -4040.00
03240             880.00    -4000.00
03241             920.00    -4040.00
03242             880.00    -4040.00
03243             880.00    -4040.00
03244             920.00    -4080.00
03245             920.00    -4040.00
03246             880.00    -4040.00
03247             880.00    -4080.00
03248             880.00    -4080.00
03249             880.00    -4080.00
03250             880.00    -4080.00
03251             920.00    -4080.00
03252             880.00    -4080.00
03253             880.00    -4040.00
03254             880.00    -4080.00
03255             880.00    -4080.00
03256             920.00    -4080.00
03257             920.00    -4080.00
03258             880.00    -4080.00
03259             920.00    -4080.00
03260             920.00    -4080.00
03261             880.00    -4040.00
03262             880.00    -4080.00
03263             920.00    -4080.00
03264             880.00    -4040.00
03265             920.00    -4040.00
03266             920.00    -4080.00
03267             880.00    -4040.00
03268             920.00    -4080.00
03269             880.00    -4080.00
03270             880.00    -4040.00
03271             920.00    -4040.00
03272             880.00    -4040.00
03273             920.00    -4040.00
03274             920.00    -4080.00
03275             880.00    -4040.00
03276             880.00    -4040.00
03277             920.00    -4040.00
03278             920.00    -4040.00
03279             920.00    -4040.00
03280             880.00    -4040.00
03281             880.00    -4040.00
03282             920.00    -4000.00
03283             880.00    -4040.00
03284             920.00    -4000.00
03285             920.00    -4000.00
03286             920.00    -4000.00
03287             880.00    -4000.00
03288             920.00    -4000.00
03289             880.00    -4000.00
03290             880.00    -4000.00
03291             920.00    -4000.00
03292             880.00    -4000.00
03293             880.00    -4000.00
03294             880.00    -4000.00
03295             920.00    -3960.00
03296             880.00    -4000.00
03297             880.00    -3960.00
03298             920.00    -3960.00
03299             880.00    -3960.00
03300             920.00    -3920.00
03301             880.00    -3920.00
03302             880.00    -3920.00
03303             920.00    -3920.00
03304             920.00    -3920.00
03305             880.00    -3920.00
03306             880.00    -3880.00
03307             880.00    -3920.00
03308             880.00    -3880.00
03309             880.00    -3880.00
03310             880.00    -3880.00
03311             880.00    -3880.00
03312             840.00    -3880.00
03313             880.00    -3840.00
03314             880.00    -3840.00
03315             880.00    -3840.00
03316             880.00    -3840.00
03317             880.00    -3840.00
03318             840.00    -3760.00
03319             840.00    -3800.00
03320             840.00    -3800.00
03321             840.00    -3760.00
03322             840.00    -3760.00
03323             840.00    -3760.00
03324             840.00    -3760.00
03325             840.00    -3760.00
03326             880.00    -3720.00
03327             840.00    -3720.00
03328             840.00    -3720.00
03329             840.00    -3680.00
03330             840.00    -3680.00
03331             880.00    -3680.00
03332             840.00    -3680.00
03333             840.00    -3680.00
03334             840.00    -3640.00
03335             840.00    -3640.00
03336             840.00    -3600.00
03337             840.00    -3600.00
03338             840.00    -3600.00
03339             840.00    -3600.00
03340             840.00    -3560.00
03341             840.00    -3560.00
03342             840.00    -3560.00
03343             840.00    -3560.00
03344             840.00    -3480.00
03345             800.00    -3560.00
03346             840.00    -3480.00
03347             840.00    -3480.00
03348             760.00    -3480.00
03349             840.00    -3440.00
03350             840.00    -3440.00
03351             800.00    -3400.00
03352             840.00    -3440.00
03353             800.00    -3400.00
03354             760.00    -3400.00
03355             800.00    -3360.00
03356             760.00    -3360.00
03357             760.00    -3360.00
03358             760.00    -3320.00
03359             760.00    -3320.00
03360             800.00    -3320.00
03361             800.00    -3280.00
03362             760.00    -3280.00
03363             760.00    -3280.00
03364             760.00    -3240.00
03365             720.00    -3240.00
03366             760.00    -3240.00
03367             760.00    -3200.00
03368             720.00    -3200.00
03369             760.00    -3160.00
03370             720.00    -3160.00
03371             720.00    -3120.00
03372             720.00    -3120.00
03373             720.00    -3080.00
03374             760.00    -3080.00
03375             720.00    -3040.00
03376             720.00    -3040.00
03377             720.00    -3040.00
03378             720.00    -3040.00
03379             720.00    -3000.00
03380             680.00    -2960.00
03381             720.00    -2920.00
03382             680.00    -2960.00
03383             680.00    -2960.00
03384             680.00    -2920.00
03385             680.00    -2920.00
03386             680.00    -2880.00
03387             680.00    -2840.00
03388             680.00    -2880.00
03389             680.00    -2840.00
03390             680.00    -2800.00
03391             680.00    -2800.00
03392             680.00    -2760.00
03393             600.00    -2760.00
03394             680.00    -2720.00
03395             680.00    -2720.00
03396             640.00    -2720.00
03397             600.00    -2680.00
03398             640.00    -2680.00
03399             600.00    -2640.00
03400             600.00    -2640.00
03401             600.00    -2600.00
03402             600.00    -2600.00
03403             600.00    -2600.00
03404             560.00    -2560.00
03405             600.00    -2560.00
03406             600.00    -2560.00
03407             600.00    -2480.00
03408             600.00    -2480.00
03409             560.00    -2440.00
03410             600.00    -2440.00
03411             600.00    -2400.00
03412             600.00    -2440.00
03413             560.00    -2360.00
03414             560.00    -2360.00
03415             560.00    -2320.00
03416             560.00    -2320.00
03417             520.00    -2280.00
03418             600.00    -2280.00
03419             560.00    -2200.00
03420             560.00    -2200.00
03421             560.00    -2240.00
03422             520.00    -2160.00
03423             560.00    -2160.00
03424             520.00    -2120.00
03425             560.00    -2120.00
03426             520.00    -2080.00
03427             520.00    -2080.00
03428             560.00    -2000.00
03429             520.00    -2040.00
03430             520.00    -2000.00
03431             520.00    -1960.00
03432             520.00    -1960.00
03433             520.00    -1960.00
03434             520.00    -1920.00
03435             520.00    -1920.00
03436             520.00    -1920.00
03437             440.00    -1840.00
03438             480.00    -1880.00
03439             440.00    -1800.00
03440             440.00    -1800.00
03441             440.00    -1760.00
03442             440.00    -1760.00
03443             440.00    -1760.00
03444             400.00    -1720.00
03445             400.00    -1680.00
03446             400.00    -1640.00
03447             400.00    -1640.00
03448             400.00    -1600.00
03449             400.00    -1640.00
03450             400.00    -1600.00
03451             400.00    -1560.00
03452             400.00    -1560.00
03453             360.00    -1520.00
03454             360.00    -1480.00
03455             360.00    -1440.00
03456             360.00    -1440.00
03457             360.00    -1440.00
03458             360.00    -1400.00
03459             360.00    -1360.00
03460             360.00    -1320.00
03461             360.00    -1320.00
03462             280.00    -1320.00
03463             360.00    -1280.00
03464             320.00    -1280.00
03465             360.00    -1200.00
03466             360.00    -1200.00
03467             280.00    -1160.00
03468             280.00    -1160.00
03469             320.00    -1160.00
03470             280.00    -1080.00
03471             280.00    -1040.00
03472             280.00    -1040.00
03473             280.00    -1040.00
03474             280.00    -1000.00
03475             280.00    -1000.00
03476             240.00     -920.00
03477             240.00     -920.00
03478             240.00     -880.00
03479             240.00     -880.00
03480             240.00     -880.00
03481             240.00     -840.00
03482             240.00     -800.00
03483             240.00     -800.00
03484             240.00     -760.00
03485             240.00     -720.00
03486             200.00     -720.00
03487             200.00     -680.00
03488             240.00     -680.00
03489             200.00     -640.00
03490             200.00     -600.00
03491             200.00     -600.00
03492             200.00     -560.00
03493             200.00     -560.00
03494             200.00     -520.00
03495             200.00     -480.00
03496             160.00     -480.00
03497             200.00     -440.00
03498             160.00     -400.00
03499             160.00     -400.00
03500             120.00     -400.00
03501             120.00     -320.00
03502             120.00     -320.00
03503             120.00     -320.00
03504             120.00     -280.00
03505              80.00     -240.00
03506             120.00     -160.00
03507             120.00     -200.00
03508              80.00     -160.00
03509              40.00     -160.00
03510              80.00      -80.00
03511              80.00      -80.00
03512              80.00      -80.00
03513              40.00      -40.00
03514              40.00        0.00
03515              80.00        0.00
03516              40.00        0.00
03517              40.00       40.00
03518              40.00      120.00
03519              40.00       80.00
03520              40.00      120.00
03521               0.00      160.00
03522              40.00      160.00
03523             -40.00      160.00
03524              40.00      240.00
03525              40.00      280.00
03526               0.00      320.00
03527             -40.00      360.00
03528             -80.00      280.00
03529             -80.00      360.00
03530             -80.00      400.00
03531              40.00      400.00
03532             -40.00      440.00
03533             -40.00      440.00
03534             -80.00      480.00
03535            -120.00      480.00
03536             -80.00      520.00
03537             -40.00      600.00
03538             -80.00      600.00
03539             -80.00      600.00
03540             -80.00      640.00
03541            -120.00      640.00
03542             -80.00      680.00
03543            -120.00      720.00
03544            -120.00      760.00
03545            -120.00      760.00
03546            -120.00      760.00
03547            -120.00      800.00
03548            -120.00      880.00
03549            -120.00      840.00
03550            -120.00      880.00
03551            -120.00      920.00
03552            -120.00      920.00
03553            -120.00      960.00
03554            -160.00     1000.00
03555            -120.00     1040.00
03556            -200.00     1040.00
03557            -200.00     1080.00
03558            -200.00     1080.00
03559            -200.00     1120.00
03560            -200.00     1160.00
03561            -200.00     1160.00
03562            -200.00     1200.00
03563            -240.00     1200.00
03564            -240.00     1240.00
03565            -200.00     1280.00
03566            -240.00     1280.00
03567            -240.00     1280.00
03568            -240.00     1320.00
03569            -240.00     1360.00
03570            -240.00     1400.00
03571            -240.00     1400.00
03572            -280.00     1440.00
03573            -280.00     1440.00
03574            -240.00     1440.00
03575            -280.00     1480.00
03576            -280.00     1520.00
03577            -280.00     1560.00
03578            -320.00     1560.00
03579            -280.00     1600.00
03580            -320.00     1640.00
03581            -280.00     1640.00
03582            -360.00     1680.00
03583            -360.00     1680.00
03584            -360.00     1680.00
03585            -360.00     1720.00
03586            -360.00     1760.00
03587            -360.00     1760.00
03588            -360.00     1800.00
03589            -360.00     1840.00
03590            -400.00     1840.00
03591            -360.00     1880.00
03592            -400.00     1880.00
03593            -400.00     1920.00
03594            -400.00     1920.00
03595            -400.00     2000.00
03596            -440.00     1960.00
03597            -400.00     2000.00
03598            -400.00     2040.00
03599            -400.00     2040.00
03600            -400.00     2080.00
03601            -400.00     2080.00
03602            -400.00     2160.00
03603            -440.00     2120.00
03604            -440.00     2160.00
03605            -440.00     2200.00
03606            -440.00     2200.00
03607            -440.00     2240.00
03608            -440.00     2240.00
03609            -440.00     2240.00
03610            -440.00     2280.00
03611            -440.00     2320.00
03612            -520.00     2360.00
03613            -440.00     2360.00
03614            -520.00     2400.00
03615            -520.00     2400.00
03616            -440.00     2400.00
03617            -480.00     2400.00
03618            -480.00     2480.00
03619            -520.00     2480.00
03620            -520.00     2480.00
03621            -520.00     2480.00
03622            -520.00     2520.00
03623            -520.00     2560.00
03624            -520.00     2560.00
03625            -520.00     2640.00
03626            -560.00     2600.00
03627            -520.00     2640.00
03628            -560.00     2640.00
03629            -560.00     2680.00
03630            -560.00     2680.00
03631            -560.00     2680.00
03632            -560.00     2720.00
03633            -560.00     2720.00
03634            -560.00     2800.00
03635            -560.00     2760.00
03636            -560.00     2800.00
03637            -560.00     2800.00
03638            -600.00     2840.00
03639            -600.00     2840.00
03640            -600.00     2880.00
03641            -600.00     2880.00
03642            -600.00     2920.00
03643            -640.00     2960.00
03644            -600.00     2960.00
03645            -600.00     2960.00
03646            -600.00     3000.00
03647            -600.00     3000.00
03648            -680.00     3000.00
03649            -600.00     3040.00
03650            -680.00     3040.00
03651            -680.00     3040.00
03652            -600.00     3080.00
03653            -680.00     3120.00
03654            -680.00     3120.00
03655            -640.00     3120.00
03656            -640.00     3160.00
03657            -680.00     3160.00
03658            -680.00     3160.00
03659            -680.00     3200.00
03660            -720.00     3200.00
03661            -680.00     3240.00
03662            -680.00     3240.00
03663            -720.00     3280.00
03664            -680.00     3280.00
03665            -720.00     3280.00
03666            -720.00     3320.00
03667            -720.00     3320.00
03668            -720.00     3320.00
03669            -720.00     3360.00
03670            -720.00     3360.00
03671            -720.00     3360.00
03672            -720.00     3360.00
03673            -720.00     3440.00
03674            -720.00     3440.00
03675            -720.00     3440.00
03676            -720.00     3440.00
03677            -720.00     3480.00
03678            -760.00     3440.00
03679            -760.00     3480.00
03680            -760.00     3480.00
03681            -760.00     3480.00
03682            -760.00     3520.00
03683            -720.00     3520.00
03684            -760.00     3520.00
03685            -760.00     3560.00
03686            -760.00     3600.00
03687            -760.00     3600.00
03688            -760.00     3640.00
03689            -760.00     3640.00
03690            -760.00     3640.00
03691            -760.00     3640.00
03692            -760.00     3680.00
03693            -760.00     3640.00
03694            -760.00     3640.00
03695            -760.00     3680.00
03696            -760.00     3680.00
03697            -760.00     3680.00
03698            -760.00     3720.00
03699            -760.00     3720.00
03700            -840.00     3720.00
03701            -760.00     3760.00
03702            -840.00     3760.00
03703            -840.00     3760.00
03704            -840.00     3760.00
03705            -840.00     3800.00
03706            -880.00     3800.00
03707            -840.00     3800.00
03708            -880.00     3840.00
03709            -840.00     3800.00
03710            -840.00     3840.00
03711            -840.00     3840.00
03712            -840.00     3840.00
03713            -840.00     3840.00
03714            -840.00     3880.00
03715            -880.00     3840.00
03716            -840.00     3920.00
03717            -880.00     3920.00
03718            -880.00     3920.00
03719            -880.00     3880.00
03720            -880.00     3920.00
03721            -880.00     3920.00
03722            -840.00     3920.00
03723            -880.00     3960.00
03724            -880.00     3920.00
03725            -880.00     3960.00
03726            -880.00     3960.00
03727            -880.00     3960.00
03728            -880.00     3960.00
03729            -880.00     3960.00
03730            -880.00     3960.00
03731            -880.00     3960.00
03732            -880.00     3960.00
03733            -880.00     3960.00
03734            -880.00     4000.00
03735            -880.00     4000.00
03736            -880.00     4000.00
03737            -880.00     4000.00
03738            -880.00     4000.00
03739            -880.00     4000.00
03740            -880.00     4000.00
03741            -880.00     4000.00
03742            -880.00     4040.00
03743            -880.00     4040.00
03744            -840.00     4040.00
03745            -880.00     4000.00
03746            -880.00     4080.00
03747            -840.00     4040.00
03748            -880.00     4080.00
03749            -880.00     4080.00
03750            -880.00     4080.00
03751            -880.00     4040.00
03752            -880.00     4080.00
03753            -880.00     4080.00
03754            -880.00     4080.00
03755            -880.00     4080.00
03756            -880.00     4120.00
03757            -880.00     4080.00
03758            -920.00     4080.00
03759            -880.00     4080.00
03760            -880.00     4080.00
03761            -880.00     4080.00
03762            -880.00     4080.00
03763            -880.00     4120.00
03764            -920.00     4080.00
03765            -920.00     4080.00
03766            -920.00     4080.00
03767            -880.00     4120.00
03768            -920.00     4080.00
03769            -920.00     4120.00
03770            -920.00     4080.00
03771            -880.00     4080.00
03772            -880.00     4080.00
03773            -920.00     4080.00
03774            -920.00     4080.00
03775            -880.00     4080.00
03776            -880.00     4080.00
03777            -920.00     4080.00
03778            -880.00     4080.00
03779            -880.00     4080.00
03780            -880.00     4080.00
03781            -920.00     4080.00
03782            -920.00     4080.00
03783            -920.00     4080.00
03784            -880.00     4080.00
03785            -920.00     4080.00
03786            -880.00     4000.00
03787            -920.00     4080.00
03788            -880.00     4080.00
03789            -920.00     4000.00
03790            -920.00     4040.00
03791            -920.00     4000.00
03792            -880.00     4040.00
03793            -880.00     4000.00
03794            -880.00     4040.00
03795            -880.00     4040.00
03796            -880.00     4000.00
03797            -880.00     4000.00
03798            -880.00     4040.00
03799            -880.00     4000.00
03800            -880.00     4000.00
03801            -880.00     4000.00
03802            -880.00     4000.00
03803            -880.00     4000.00
03804            -880.00     4000.00
03805            -880.00     4000.00
03806            -880.00     3960.00
03807            -880.00     4000.00
03808            -880.00     3960.00
03809            -880.00     3960.00
03810            -880.00     3920.00
03811            -880.00     3920.00
03812            -880.00     3960.00
03813            -880.00     3920.00
03814            -880.00     3920.00
03815            -880.00     3920.00
03816            -880.00     3920.00
03817            -880.00     3880.00
03818            -880.00     3880.00
03819            -880.00     3920.00
03820            -880.00     3880.00
03821            -880.00     3840.00
03822            -840.00     3880.00
03823            -840.00     3840.00
03824            -880.00     3840.00
03825            -840.00     3800.00
03826            -880.00     3840.00
03827            -880.00     3800.00
03828            -840.00     3800.00
03829            -840.00     3800.00
03830            -880.00     3800.00
03831            -880.00     3800.00
03832            -880.00     3800.00
03833            -880.00     3760.00
03834            -840.00     3760.00
03835            -880.00     3720.00
03836            -840.00     3760.00
03837            -880.00     3760.00
03838            -880.00     3680.00
03839            -840.00     3720.00
03840            -840.00     3680.00
03841            -840.00     3680.00
03842            -880.00     3680.00
03843            -840.00     3640.00
03844            -840.00     3640.00
03845            -840.00     3640.00
03846            -840.00     3600.00
03847            -840.00     3600.00
03848            -840.00     3600.00
03849            -840.00     3600.00
03850            -760.00     3600.00
03851            -840.00     3560.00
03852            -840.00     3560.00
03853            -840.00     3520.00
03854            -800.00     3520.00
03855            -840.00     3520.00
03856            -840.00     3480.00
03857            -760.00     3480.00
03858            -760.00     3480.00
03859            -760.00     3480.00
03860            -760.00     3440.00
03861            -760.00     3440.00
03862            -760.00     3440.00
03863            -760.00     3440.00
03864            -760.00     3400.00
03865            -760.00     3360.00
03866            -760.00     3360.00
03867            -760.00     3360.00
03868            -760.00     3320.00
03869            -760.00     3320.00
03870            -760.00     3320.00
03871            -760.00     3280.00
03872            -760.00     3280.00
03873            -720.00     3280.00
03874            -720.00     3240.00
03875            -720.00     3240.00
03876            -760.00     3200.00
03877            -720.00     3200.00
03878            -760.00     3200.00
03879            -720.00     3160.00
03880            -720.00     3160.00
03881            -720.00     3160.00
03882            -720.00     3120.00
03883            -680.00     3120.00
03884            -720.00     3120.00
03885            -680.00     3040.00
03886            -720.00     3080.00
03887            -720.00     3000.00
03888            -680.00     3000.00
03889            -680.00     3000.00
03890            -680.00     3000.00
03891            -680.00     2960.00
03892            -680.00     2920.00
03893            -680.00     2960.00
03894            -680.00     2920.00
03895            -680.00     2880.00
03896            -680.00     2880.00
03897            -680.00     2880.00
03898            -680.00     2840.00
03899            -680.00     2840.00
03900            -680.00     2800.00
03901            -640.00     2800.00
03902            -680.00     2800.00
03903            -680.00     2680.00
03904            -640.00     2760.00
03905            -640.00     2720.00
03906            -640.00     2720.00
03907            -600.00     2640.00
03908            -640.00     2640.00
03909            -600.00     2640.00
03910            -600.00     2640.00
03911            -600.00     2600.00
03912            -600.00     2560.00
03913            -600.00     2560.00
03914            -600.00     2520.00
03915            -600.00     2520.00
03916            -560.00     2520.00
03917            -600.00     2480.00
03918            -600.00     2480.00
03919            -600.00     2480.00
03920            -560.00     2400.00
03921            -600.00     2400.00
03922            -600.00     2400.00
03923            -560.00     2360.00
03924            -560.00     2320.00
03925            -560.00     2320.00
03926            -560.00     2280.00
03927            -560.00     2240.00
03928            -560.00     2240.00
03929            -560.00     2240.00
03930            -560.00     2200.00
03931            -560.00     2200.00
03932            -520.00     2160.00
03933            -520.00     2160.00
03934            -520.00     2080.00
03935            -520.00     2080.00
03936            -520.00     2080.00
03937            -520.00     2040.00
03938            -440.00     2040.00
03939            -440.00     2000.00
03940            -480.00     2000.00
03941            -480.00     2000.00
03942            -480.00     1920.00
03943            -440.00     1920.00
03944            -480.00     1880.00
03945            -440.00     1880.00
03946            -440.00     1840.00
03947            -440.00     1840.00
03948            -440.00     1840.00
03949            -440.00     1760.00
03950            -440.00     1760.00
03951            -440.00     1760.00
03952            -440.00     1720.00
03953            -400.00     1720.00
03954            -400.00     1680.00
03955            -440.00     1680.00
03956            -400.00     1640.00
03957            -400.00     1600.00
03958            -400.00     1600.00
03959            -400.00     1560.00
03960            -400.00     1600.00
03961            -400.00     1520.00
03962            -360.00     1520.00
03963            -400.00     1480.00
03964            -360.00     1440.00
03965            -400.00     1440.00
03966            -360.00     1400.00
03967            -360.00     1360.00
03968            -360.00     1360.00
03969            -360.00     1320.00
03970            -360.00     1320.00
03971            -360.00     1280.00
03972            -360.00     1280.00
03973            -280.00     1200.00
03974            -320.00     1200.00
03975            -360.00     1200.00
03976            -280.00     1200.00
03977            -280.00     1120.00
03978            -280.00     1120.00
03979            -280.00     1080.00
03980            -280.00     1080.00
03981            -280.00     1040.00
03982            -280.00     1040.00
03983            -280.00      960.00
03984            -240.00      960.00
03985            -240.00      960.00
03986            -240.00      920.00
03987            -240.00      920.00
03988            -240.00      880.00
03989            -240.00      840.00
03990            -240.00      800.00
03991            -240.00      800.00
03992            -200.00      760.00
03993            -240.00      760.00
03994            -200.00      720.00
03995            -200.00      720.00
03996            -240.00      680.00
03997            -200.00      640.00
03998            -200.00      640.00
03999            -200.00      600.00
04000            -200.00      600.00
04001            -160.00      560.00
04002            -120.00      520.00
04003            -160.00      560.00
04004            -120.00      480.00
04005            -120.00      480.00
04006            -120.00      440.00
04007            -120.00      400.00
04008            -120.00      400.00
04009            -120.00      400.00
04010            -120.00      360.00
04011            -120.00      320.00
04012            -120.00      280.00
04013            -120.00      280.00
04014            -120.00      240.00
04015             -80.00      200.00
04016             -80.00      160.00
04017             -80.00      160.00
04018             -80.00      120.00
04019             -40.00      120.00
04020             -80.00       80.00
04021             -40.00       80.00
04022             -80.00       40.00
04023             -80.00        0.00
04024             -40.00        0.00
04025             -40.00      -40.00
04026             -40.00      -80.00
04027             -40.00      -80.00
04028             -40.00      -80.00
04029             -40.00     -160.00
04030             -40.00     -160.00
04031               0.00     -200.00
04032             -40.00     -200.00
04033              40.00     -200.00
04034              40.00     -240.00
04035              40.00     -280.00
04036              40.00     -320.00
04037             -40.00     -400.00
04038             -40.00     -400.00
04039               0.00     -360.00
04040              80.00     -440.00
04041              40.00     -480.00
04042              40.00     -440.00
04043              80.00     -480.00
04044              40.00     -520.00
04045              40.00     -560.00
04046              80.00     -560.00
04047              80.00     -600.00
04048              80.00     -600.00
04049              80.00     -640.00
04050              80.00     -640.00
04051              80.00     -680.00
04052              80.00     -720.00
04053             120.00     -720.00
04054              80.00     -800.00
04055              80.00     -800.00
04056              80.00     -840.00
04057             160.00     -840.00
04058             160.00     -880.00
04059             120.00     -880.00
04060             160.00     -880.00
04061             200.00     -920.00
04062             160.00     -960.00
04063             200.00    -1000.00
04064             200.00    -1000.00
04065             200.00    -1040.00
04066             200.00    -1040.00
04067             200.00    -1120.00
04068             200.00    -1120.00
04069             200.00    -1160.00
04070             240.00    -1160.00
04071             240.00    -1200.00
04072             200.00    -1200.00
04073             240.00    -1240.00
04074             240.00    -1280.00
04075             280.00    -1280.00
04076             240.00    -1320.00
04077             240.00    -1360.00
04078             240.00    -1360.00
04079             240.00    -1360.00
04080             280.00    -1400.00
04081             280.00    -1440.00
04082             280.00    -1440.00
04083             280.00    -1480.00
04084             280.00    -1480.00
04085             280.00    -1560.00
04086             320.00    -1520.00
04087             280.00    -1560.00
04088             320.00    -1600.00
04089             360.00    -1640.00
04090             360.00    -1640.00
04091             360.00    -1680.00
04092             320.00    -1680.00
04093             360.00    -1680.00
04094             360.00    -1680.00
04095             360.00    -1760.00
04096             360.00    -1760.00
04097             360.00    -1800.00
04098             360.00    -1800.00
04099             360.00    -1840.00
04100             400.00    -1840.00
04101             360.00    -1880.00
04102             360.00    -1920.00
04103             400.00    -1920.00
04104             360.00    -1960.00
04105             400.00    -1960.00
04106             400.00    -1960.00
04107             400.00    -2040.00
04108             440.00    -2000.00
04109             400.00    -2080.00
04110             440.00    -2120.00
04111             400.00    -2120.00
04112             440.00    -2120.00
04113             400.00    -2160.00
04114             440.00    -2160.00
04115             440.00    -2200.00
04116             440.00    -2200.00
04117             440.00    -2240.00
04118             440.00    -2240.00
04119             480.00    -2280.00
04120             520.00    -2280.00
04121             520.00    -2320.00
04122             440.00    -2360.00
04123             520.00    -2320.00
04124             520.00    -2400.00
04125             520.00    -2400.00
04126             520.00    -2440.00
04127             520.00    -2440.00
04128             520.00    -2480.00
04129             520.00    -2480.00
04130             520.00    -2480.00
04131             520.00    -2520.00
04132             520.00    -2560.00
04133             520.00    -2560.00
04134             520.00    -2600.00
04135             560.00    -2600.00
04136             520.00    -2600.00
04137             560.00    -2640.00
04138             560.00    -2680.00
04139             560.00    -2680.00
04140             560.00    -2680.00
04141             560.00    -2720.00
04142             560.00    -2760.00
04143             560.00    -2760.00
04144             600.00    -2800.00
04145             600.00    -2800.00
04146             600.00    -2800.00
04147             600.00    -2800.00
04148             600.00    -2840.00
04149             600.00    -2880.00
04150             680.00    -2880.00
04151             640.00    -2920.00
04152             600.00    -2920.00
04153             600.00    -2960.00
04154             640.00    -2960.00
04155             600.00    -2960.00
04156             640.00    -2960.00
04157             680.00    -3000.00
04158             640.00    -3040.00
04159             680.00    -3040.00
04160             680.00    -3040.00
04161             680.00    -3080.00
04162             680.00    -3080.00
04163             680.00    -3120.00
04164             640.00    -3120.00
04165             720.00    -3120.00
04166             680.00    -3160.00
04167             680.00    -3200.00
04168             680.00    -3200.00
04169             680.00    -3200.00
04170             680.00    -3240.00
04171             680.00    -3240.00
04172             680.00    -3240.00
04173             720.00    -3280.00
04174             680.00    -3280.00
04175             720.00    -3280.00
04176             720.00    -3360.00
04177             680.00    -3360.00
04178             720.00    -3360.00
04179             720.00    -3360.00
04180             720.00    -3400.00
04181             720.00    -3400.00
04182             720.00    -3440.00
04183             720.00    -3400.00
04184             720.00    -3440.00
04185             720.00    -3440.00
04186             720.00    -3440.00
04187             720.00    -3440.00
04188             720.00    -3520.00
04189             760.00    -3480.00
04190             720.00    -3520.00
04191             760.00    -3480.00
04192             760.00    -3560.00
04193             760.00    -3520.00
04194             760.00    -3560.00
04195             760.00    -3560.00
04196             760.00    -3600.00
04197             760.00    -3600.00
04198             760.00    -3640.00
04199             760.00    -3600.00
04200             800.00    -3600.00
04201             760.00    -3640.00
04202             840.00    -3680.00
04203             800.00    -3680.00
04204             760.00    -3680.00
04205             840.00    -3680.00
04206             840.00    -3680.00
04207             840.00    -3720.00
04208             840.00    -3760.00
04209             840.00    -3720.00
04210             840.00    -3720.00
04211             840.00    -3760.00
04212             840.00    -3760.00
04213             840.00    -3760.00
04214             840.00    -3760.00
04215             840.00    -3800.00
04216             840.00    -3800.00
04217             840.00    -3800.00
04218             880.00    -3840.00
04219             840.00    -3840.00
04220             840.00    -3840.00
04221             840.00    -3840.00
04222             880.00    -3880.00
04223             840.00    -3840.00
04224             840.00    -3840.00
04225             840.00    -3840.00
04226             840.00    -3880.00
04227             880.00    -3880.00
04228             840.00    -3920.00
04229             840.00    -3920.00
04230             840.00    -3920.00
04231             840.00    -3920.00
04232             880.00    -3920.00
04233             840.00    -3920.00
04234             840.00    -3960.00
04235             840.00    -3920.00
04236             840.00    -3920.00
04237             880.00    -3960.00
04238             880.00    -3960.00
04239             880.00    -4000.00
04240             880.00    -4000.00
04241             880.00    -4000.00
04242             840.00    -4000.00
04243             880.00    -4000.00
04244             880.00    -4000.00
04245             880.00    -4000.00
04246             840.00    -4000.00
04247             880.00    -4000.00
04248             840.00    -4000.00
04249             880.00    -4040.00
04250             880.00    -4040.00
04251             920.00    -4000.00
04252             880.00    -4040.00
04253             880.00    -4040.00
04254             880.00    -4000.00
04255             880.00    -4040.00
04256             880.00    -4040.00
04257             880.00    -4040.00
04258             920.00    -4080.00
04259             880.00    -4040.00
04260             880.00    -4040.00
04261             880.00    -4040.00
04262             880.00    -4040.00
04263             920.00    -4040.00
04264             880.00    -4080.00
04265             920.00    -4040.00
04266             880.00    -4080.00
04267             920.00    -4080.00
04268             880.00    -4080.00
04269             920.00    -4080.00
04270             880.00    -4080.00
04271             920.00    -4080.00
04272             920.00    -4040.00
04273             880.00    -4080.00
04274             920.00    -4080.00
04275             880.00    -4080.00
04276             920.00    -4080.00
04277             920.00    -4080.00
04278             920.00    -4080.00
04279             920.00    -4080.00
04280             880.00    -4080.00
04281             920.00    -4080.00
04282             920.00    -4080.00
04283             920.00    -4080.00
04284             920.00    -4080.00
04285             880.00    -4080.00
04286             920.00    -4080.00
04287             920.00    -4040.00
04288             920.00    -4080.00
04289             920.00    -4080.00
04290             880.00    -4040.00
04291             880.00    -4040.00
04292             880.00    -4040.00
04293             880.00    -4040.00
04294             880.00    -4040.00
04295             920.00    -4040.00
04296             880.00    -4040.00
04297             880.00    -4040.00
04298             880.00    -4040.00
04299             920.00    -4040.00
04300             920.00    -4040.00
04301             920.00    -4000.00
04302             880.00    -4000.00
04303             880.00    -4040.00
04304             920.00    -4000.00
04305             880.00    -4000.00
04306             880.00    -4000.00
04307             880.00    -4000.00
04308             880.00    -4000.00
04309             880.00    -4000.00
04310             880.00    -4000.00
04311             880.00    -4000.00
04312             880.00    -4000.00
04313             880.00    -4000.00
04314             880.00    -3960.00
04315             920.00    -3960.00
04316             880.00    -3960.00
04317             880.00    -3920.00
04318             880.00    -3960.00
04319             880.00    -3920.00
04320             880.00    -3920.00
04321             880.00    -3920.00
04322             880.00    -3920.00
04323             880.00    -3920.00
04324             880.00    -3880.00
04325             880.00    -3880.00
04326             880.00    -3880.00
04327             880.00    -3880.00
04328             880.00    -3880.00
04329             880.00    -3880.00
04330             880.00    -3880.00
04331             880.00    -3840.00
04332             880.00    -3840.00
04333             880.00    -3840.00
04334             880.00    -3840.00
04335             880.00    -3840.00
04336             840.00    -3800.00
04337             880.00    -3800.00
04338             840.00    -3760.00
04339             880.00    -3760.00
04340             880.00    -3760.00
04341             880.00    -3760.00
04342             840.00    -3720.00
04343             840.00    -3720.00
04344             840.00    -3720.00
04345             840.00    -3720.00
04346             880.00    -3680.00
04347             840.00    -3680.00
04348             840.00    -3680.00
04349             840.00    -3640.00
04350             840.00    -3680.00
04351             840.00    -3640.00
04352             840.00    -3600.00
04353             840.00    -3600.00
04354             840.00    -3600.00
04355             840.00    -3600.00
04356             840.00    -3560.00
04357             840.00    -3600.00
04358             840.00    -3560.00
04359             840.00    -3560.00
04360             760.00    -3520.00
04361             840.00    -3480.00
04362             840.00    -3520.00
04363             840.00    -3480.00
04364             840.00    -3520.00
04365             840.00    -3480.00
04366             800.00    -3440.00
04367             760.00    -3440.00
04368             840.00    -3440.00
04369             800.00    -3440.00
04370             760.00    -3440.00
04371             760.00    -3400.00
04372             840.00    -3400.00
04373             720.00    -3360.00
04374             760.00    -3360.00
04375             720.00    -3360.00
04376             760.00    -3360.00
04377             760.00    -3320.00
04378             760.00    -3280.00
04379             760.00    -3280.00
04380             760.00    -3280.00
04381             760.00    -3240.00
04382             760.00    -3240.00
04383             760.00    -3200.00
04384             760.00    -3200.00
04385             760.00    -3200.00
04386             720.00    -3200.00
04387             720.00    -3200.00
04388             720.00    -3160.00
04389             720.00    -3120.00
04390             720.00    -3120.00
04391             720.00    -3080.00
04392             720.00    -3080.00
04393             720.00    -3080.00
04394             720.00    -3040.00
04395             720.00    -3040.00
04396             720.00    -3040.00
04397             680.00    -3000.00
04398             720.00    -2960.00
04399             720.00    -2960.00
04400             720.00    -2920.00
04401             720.00    -2920.00
04402             720.00    -2920.00
04403             720.00    -2880.00
04404             680.00    -2880.00
04405             680.00    -2840.00
04406             680.00    -2800.00
04407             680.00    -2800.00
04408             680.00    -2800.00
04409             680.00    -2800.00
04410             680.00    -2760.00
04411             680.00    -2760.00
04412             680.00    -2720.00
04413             600.00    -2720.00
04414             680.00    -2720.00
04415             640.00    -2680.00
04416             600.00    -2640.00
04417             640.00    -2640.00
04418             680.00    -2600.00
04419             600.00    -2560.00
04420             600.00    -2560.00
04421             600.00    -2560.00
04422             560.00    -2560.00
04423             600.00    -2520.00
04424             600.00    -2480.00
04425             560.00    -2480.00
04426             560.00    -2440.00
04427             560.00    -2440.00
04428             560.00    -2400.00
04429             560.00    -2400.00
04430             560.00    -2400.00
04431             560.00    -2360.00
04432             520.00    -2320.00
04433             560.00    -2320.00
04434             520.00    -2280.00
04435             520.00    -2280.00
04436             520.00    -2240.00
04437             520.00    -2200.00
04438             520.00    -2240.00
04439             520.00    -2200.00
04440             520.00    -2160.00
04441             520.00    -2160.00
04442             520.00    -2120.00
04443             480.00    -2080.00
04444             520.00    -2040.00
04445             520.00    -2080.00
04446             520.00    -2040.00
04447             520.00    -2000.00
04448             480.00    -2000.00
04449             520.00    -1960.00
04450             520.00    -1920.00
04451             440.00    -1920.00
04452             520.00    -1920.00
04453             440.00    -1920.00
04454             480.00    -1840.00
04455             440.00    -1840.00
04456             440.00    -1800.00
04457             440.00    -1800.00
04458             440.00    -1760.00
04459             440.00    -1760.00
04460             440.00    -1760.00
04461             440.00    -1720.00
04462             440.00    -1680.00
04463             400.00    -1680.00
04464             400.00    -1640.00
04465             400.00    -1640.00
04466             440.00    -1600.00
04467             400.00    -1600.00
04468             400.00    -1520.00
04469             400.00    -1520.00
04470             400.00    -1480.00
04471             400.00    -1480.00
04472             360.00    -1440.00
04473             360.00    -1400.00
04474             400.00    -1400.00
04475             360.00    -1360.00
04476             360.00    -1360.00
04477             360.00    -1320.00
04478             360.00    -1320.00
04479             360.00    -1280.00
04480             360.00    -1280.00
04481             360.00    -1280.00
04482             360.00    -1200.00
04483             360.00    -1200.00
04484             280.00    -1160.00
04485             280.00    -1160.00
04486             280.00    -1160.00
04487             280.00    -1120.00
04488             280.00    -1120.00
04489             280.00    -1040.00
04490             280.00    -1040.00
04491             280.00    -1000.00
04492             240.00    -1000.00
04493             280.00     -960.00
04494             240.00     -920.00
04495             240.00     -880.00
04496             240.00     -880.00
04497             240.00     -840.00
04498             200.00     -800.00
04499             200.00     -800.00
04500             240.00     -800.00
04501             200.00     -760.00
04502             240.00     -720.00
04503             200.00     -720.00
04504             200.00     -720.00
04505             240.00     -680.00
04506             200.00     -640.00
04507             200.00     -600.00
04508             200.00     -600.00
04509             200.00     -560.00
04510             120.00     -560.00
04511             200.00     -520.00
04512             160.00     -480.00
04513             200.00     -480.00
04514             120.00     -480.00
04515             160.00     -400.00
04516             120.00     -400.00
04517             120.00     -360.00
04518             120.00     -360.00
04519             120.00     -320.00
04520             120.00     -320.00
04521             120.00     -240.00
04522              80.00     -240.00
04523              80.00     -240.00
04524              80.00     -200.00
04525              80.00     -160.00
04526              80.00     -160.00
04527             120.00      -80.00
04528              80.00      -80.00
04529              80.00      -80.00
04530              80.00      -40.00
04531              80.00      -40.00
04532              80.00        0.00
04533              80.00       40.00
04534              80.00       80.00
04535              40.00       80.00
04536              40.00       80.00
04537              40.00      120.00
04538              40.00      160.00
04539              40.00      160.00
04540              40.00      200.00
04541              40.00      240.00
04542              40.00      280.00
04543              40.00      360.00
04544               0.00      320.00
04545             -40.00      280.00
04546             -80.00      320.00
04547             -40.00      400.00
04548              40.00      400.00
04549             -40.00      440.00
04550             -40.00      480.00
04551             -40.00      480.00
04552             -80.00      480.00
04553             -80.00      480.00
04554             -80.00      560.00
04555             -80.00      600.00
04556             -80.00      600.00
04557            -120.00      600.00
04558            -120.00      640.00
04559             -80.00      680.00
04560            -120.00      720.00
04561            -120.00      720.00
04562            -120.00      760.00
04563            -120.00      760.00
04564            -120.00      800.00
04565            -120.00      880.00
04566            -120.00      880.00
04567            -120.00      880.00
04568            -200.00      920.00
04569            -120.00      920.00
04570            -160.00      960.00
04571            -200.00      960.00
04572            -200.00     1040.00
04573            -200.00     1040.00
04574            -200.00     1080.00
04575            -200.00     1080.00
04576            -200.00     1120.00
04577            -200.00     1120.00
04578            -240.00     1120.00
04579            -240.00     1200.00
04580            -240.00     1200.00
04581            -200.00     1240.00
04582            -240.00     1240.00
04583            -200.00     1280.00
04584            -240.00     1320.00
04585            -240.00     1320.00
04586            -240.00     1360.00
04587            -240.00     1360.00
04588            -240.00     1400.00
04589            -240.00     1440.00
04590            -280.00     1440.00
04591            -280.00     1480.00
04592            -280.00     1520.00
04593            -280.00     1520.00
04594            -280.00     1560.00
04595            -280.00     1600.00
04596            -280.00     1560.00
04597            -280.00     1640.00
04598            -280.00     1680.00
04599            -280.00     1680.00
04600            -280.00     1680.00
04601            -280.00     1720.00
04602            -320.00     1720.00
04603            -360.00     1760.00
04604            -360.00     1760.00
04605            -360.00     1800.00
04606            -400.00     1840.00
04607            -400.00     1840.00
04608            -360.00     1840.00
04609            -400.00     1880.00
04610            -400.00     1920.00
04611            -400.00     1920.00
04612            -360.00     1920.00
04613            -400.00     2000.00
04614            -400.00     2000.00
04615            -440.00     2000.00
04616            -400.00     2040.00
04617            -400.00     2080.00
04618            -400.00     2080.00
04619            -440.00     2120.00
04620            -440.00     2160.00
04621            -440.00     2160.00
04622            -440.00     2160.00
04623            -440.00     2200.00
04624            -440.00     2200.00
04625            -440.00     2240.00
04626            -480.00     2240.00
04627            -440.00     2280.00
04628            -440.00     2320.00
04629            -480.00     2320.00
04630            -480.00     2320.00
04631            -520.00     2400.00
04632            -520.00     2400.00
04633            -520.00     2400.00
04634            -560.00     2480.00
04635            -520.00     2440.00
04636            -520.00     2480.00
04637            -560.00     2520.00
04638            -520.00     2520.00
04639            -560.00     2520.00
04640            -560.00     2560.00
04641            -560.00     2560.00
04642            -520.00     2560.00
04643            -560.00     2640.00
04644            -560.00     2640.00
04645            -520.00     2640.00
04646            -560.00     2680.00
04647            -560.00     2680.00
04648            -560.00     2720.00
04649            -560.00     2720.00
04650            -560.00     2720.00
04651            -560.00     2760.00
04652            -600.00     2800.00
04653            -560.00     2800.00
04654            -560.00     2840.00
04655            -600.00     2840.00
04656            -560.00     2920.00
04657            -600.00     2880.00
04658            -600.00     2920.00
04659            -600.00     2960.00
04660            -600.00     2920.00
04661            -600.00     2920.00
04662            -600.00     2960.00
04663            -600.00     2960.00
04664            -600.00     3000.00
04665            -600.00     3000.00
04666            -600.00     3000.00
04667            -640.00     3040.00
04668            -600.00     3080.00
04669            -600.00     3080.00
04670            -680.00     3120.00
04671            -600.00     3120.00
04672            -680.00     3120.00
04673            -680.00     3160.00
04674            -600.00     3160.00
04675            -680.00     3160.00
04676            -680.00     3200.00
04677            -680.00     3200.00
04678            -680.00     3200.00
04679            -680.00     3240.00
04680            -680.00     3280.00
04681            -720.00     3280.00
04682            -720.00     3280.00
04683            -720.00     3280.00
04684            -720.00     3320.00
04685            -720.00     3360.00
04686            -720.00     3360.00
04687            -720.00     3360.00
04688            -720.00     3360.00
04689            -720.00     3400.00
04690            -720.00     3400.00
04691            -760.00     3440.00
04692            -760.00     3440.00
04693            -760.00     3440.00
04694            -760.00     3440.00
04695            -760.00     3480.00
04696            -760.00     3480.00
04697            -720.00     3480.00
04698            -720.00     3520.00
04699            -760.00     3520.00
04700            -760.00     3520.00
04701            -760.00     3520.00
04702            -760.00     3600.00
04703            -800.00     3600.00
04704            -760.00     3600.00
04705            -800.00     3600.00
04706            -760.00     3600.00
04707            -760.00     3640.00
04708            -760.00     3640.00
04709            -760.00     3680.00
04710            -800.00     3680.00
04711            -760.00     3680.00
04712            -840.00     3680.00
04713            -760.00     3680.00
04714            -760.00     3680.00
04715            -760.00     3720.00
04716            -840.00     3760.00
04717            -800.00     3760.00
04718            -760.00     3760.00
04719            -800.00     3760.00
04720            -800.00     3760.00
04721            -840.00     3760.00
04722            -800.00     3800.00
04723            -840.00     3800.00
04724            -840.00     3800.00
04725            -800.00     3840.00
04726            -840.00     3840.00
04727            -840.00     3840.00
04728            -840.00     3840.00
04729            -840.00     3880.00
04730            -840.00     3840.00
04731            -840.00     3880.00
04732            -840.00     3880.00
04733            -840.00     3840.00
04734            -840.00     3920.00
04735            -840.00     3920.00
04736            -840.00     3880.00
04737            -880.00     3920.00
04738            -880.00     3920.00
04739            -880.00     3920.00
04740            -840.00     3920.00
04741            -880.00     3920.00
04742            -880.00     3960.00
04743            -880.00     3960.00
04744            -840.00     3960.00
04745            -880.00     4000.00
04746            -880.00     3960.00
04747            -880.00     4000.00
04748            -880.00     3960.00
04749            -880.00     4000.00
04750            -920.00     4000.00
04751            -880.00     4000.00
04752            -880.00     3960.00
04753            -880.00     4000.00
04754            -880.00     4000.00
04755            -880.00     4000.00
04756            -880.00     4000.00
04757            -880.00     4000.00
04758            -880.00     4000.00
04759            -880.00     4040.00
04760            -880.00     4040.00
04761            -880.00     4040.00
04762            -920.00     4040.00
04763            -880.00     4080.00
04764            -880.00     4080.00
04765            -880.00     4080.00
04766            -880.00     4080.00
04767            -920.00     4080.00
04768            -880.00     4040.00
04769            -920.00     4040.00
04770            -920.00     4080.00
04771            -880.00     4080.00
04772            -920.00     4080.00
04773            -920.00     4080.00
04774            -880.00     4080.00
04775            -880.00     4080.00
04776            -880.00     4120.00
04777            -920.00     4080.00
04778            -920.00     4080.00
04779            -920.00     4080.00
04780            -920.00     4080.00
04781            -920.00     4080.00
04782            -880.00     4080.00
04783            -880.00     4080.00
04784            -880.00     4080.00
04785            -880.00     4120.00
04786            -920.00     4120.00
04787            -880.00     4080.00
04788            -880.00     4080.00
04789            -880.00     4080.00
04790            -880.00     4080.00
04791            -920.00     4080.00
04792            -880.00     4080.00
04793            -880.00     4080.00
04794            -880.00     4080.00
04795            -880.00     4080.00
04796            -880.00     4080.00
04797            -880.00     4080.00
04798            -880.00     4080.00
04799            -880.00     4080.00
04800            -920.00     4080.00
04801            -880.00     4080.00
04802            -880.00     4040.00
04803            -920.00     4080.00
04804            -880.00     4040.00
04805            -880.00     4080.00
04806            -880.00     4080.00
04807            -880.00     4080.00
04808            -880.00     4040.00
04809            -880.00     4040.00
04810            -880.00     4000.00
04811            -880.00     4040.00
04812            -880.00     4040.00
04813            -920.00     4000.00
04814            -920.00     4000.00
04815            -920.00     4000.00
04816            -920.00     4000.00
04817            -920.00     4000.00
04818            -880.00     4000.00
04819            -880.00     4000.00
04820            -920.00     3960.00
04821            -920.00     4000.00
04822            -880.00     3960.00
04823            -880.00     3960.00
04824            -880.00     3960.00
04825            -880.00     3960.00
04826            -880.00     3920.00
04827            -920.00     3920.00
04828            -920.00     3960.00
04829            -880.00     3920.00
04830            -880.00     3920.00
04831            -880.00     3920.00
04832            -880.00     3920.00
04833            -880.00     3920.00
04834            -880.00     3880.00
04835            -880.00     3920.00
04836            -880.00     3920.00
04837            -880.00     3880.00
04838            -880.00     3880.00
04839            -880.00     3880.00
04840            -880.00     3840.00
04841            -880.00     3840.00
04842            -880.00     3840.00
04843            -880.00     3840.00
04844            -880.00     3840.00
04845            -880.00     3800.00
04846            -880.00     3800.00
04847            -880.00     3800.00
04848            -880.00     3800.00
04849            -840.00     3760.00
04850            -840.00     3760.00
04851            -840.00     3760.00
04852            -840.00     3760.00
04853            -880.00     3760.00
04854            -840.00     3760.00
04855            -880.00     3720.00
04856            -840.00     3680.00
04857            -840.00     3680.00
04858            -840.00     3680.00
04859            -840.00     3680.00
04860            -840.00     3680.00
04861            -840.00     3680.00
04862            -840.00     3640.00
04863            -840.00     3640.00
04864            -840.00     3600.00
04865            -800.00     3600.00
04866            -760.00     3560.00
04867            -760.00     3560.00
04868            -800.00     3560.00
04869            -760.00     3520.00
04870            -760.00     3560.00
04871            -840.00     3520.00
04872            -800.00     3480.00
04873            -840.00     3480.00
04874            -760.00     3480.00
04875            -800.00     3440.00
04876            -840.00     3480.00
04877            -760.00     3440.00
04878            -800.00     3400.00
04879            -760.00     3440.00
04880            -800.00     3360.00
04881            -760.00     3360.00
04882            -800.00     3360.00
04883            -760.00     3360.00
04884            -760.00     3320.00
04885            -760.00     3320.00
04886            -760.00     3320.00
04887            -760.00     3320.00
04888            -760.00     3280.00
04889            -760.00     3280.00
04890            -760.00     3280.00
04891            -720.00     3200.00
04892            -760.00     3200.00
04893            -760.00     3200.00
04894            -720.00     3200.00
04895            -720.00     3200.00
04896            -760.00     3160.00
04897            -760.00     3160.00
04898            -720.00     3160.00
04899            -720.00     3120.00
04900            -760.00     3120.00
04901            -760.00     3120.00
04902            -720.00     3040.00
04903            -720.00     3040.00
04904            -720.00     3000.00
04905            -680.00     3000.00
04906            -720.00     3000.00
04907            -720.00     2960.00
04908            -720.00     2960.00
04909            -680.00     2920.00
04910            -680.00     2960.00
04911            -680.00     2920.00
04912            -680.00     2880.00
04913            -680.00     2880.00
04914            -680.00     2880.00
04915            -680.00     2880.00
04916            -600.00     2840.00
04917            -640.00     2800.00
04918            -680.00     2800.00
04919            -600.00     2800.00
04920            -640.00     2800.00
04921            -640.00     2720.00
04922            -600.00     2680.00
04923            -600.00     2680.00
04924            -600.00     2680.00
04925            -600.00     2720.00
04926            -600.00     2640.00
04927            -600.00     2640.00
04928            -600.00     2600.00
04929            -600.00     2560.00
04930            -600.00     2560.00
04931            -560.00     2560.00
04932            -560.00     2520.00
04933            -560.00     2520.00
04934            -560.00     2480.00
04935            -600.00     2480.00
04936            -560.00     2480.00
04937            -560.00     2400.00
04938            -560.00     2400.00
04939            -560.00     2360.00
04940            -560.00     2400.00
04941            -560.00     2320.00
04942            -560.00     2360.00
04943            -560.00     2280.00
04944            -560.00     2280.00
04945            -560.00     2240.00
04946            -560.00     2240.00
04947            -560.00     2200.00
04948            -560.00     2200.00
04949            -560.00     2160.00
04950            -560.00     2160.00
04951            -520.00     2160.00
04952            -520.00     2080.00
04953            -520.00     2080.00
04954            -520.00     2080.00
04955            -520.00     2080.00
04956            -480.00     2000.00
04957            -520.00     2000.00
04958            -520.00     1920.00
04959            -480.00     1960.00
04960            -440.00     1920.00
04961            -440.00     1920.00
04962            -440.00     1880.00
04963            -440.00     1840.00
04964            -440.00     1840.00
04965            -440.00     1840.00
04966            -440.00     1840.00
04967            -440.00     1760.00
04968            -440.00     1720.00
04969            -440.00     1720.00
04970            -440.00     1680.00
04971            -440.00     1680.00
04972            -440.00     1680.00
04973            -400.00     1680.00
04974            -440.00     1600.00
04975            -400.00     1600.00
04976            -400.00     1600.00
04977            -400.00     1560.00
04978            -400.00     1520.00
04979            -400.00     1520.00
04980            -360.00     1480.00
04981            -360.00     1440.00
04982            -360.00     1440.00
04983            -400.00     1400.00
04984            -400.00     1440.00
04985            -360.00     1360.00
04986            -360.00     1360.00
04987            -320.00     1320.00
04988            -360.00     1280.00
04989            -360.00     1280.00
04990            -280.00     1240.00
04991            -280.00     1240.00
04992            -280.00     1200.00
04993            -280.00     1200.00
04994            -280.00     1120.00
04995            -280.00     1120.00
04996            -280.00     1120.00
04997            -280.00     1080.00
04998            -280.00     1080.00
04999            -280.00     1040.00
05000            -280.00     1000.00
