Unit:(mV)
                     CH1         CH2
Frequency              ?  98.319 kHz
00001             200.00    -1240.00
00002             160.00    -1240.00
00003             200.00    -1280.00
00004             200.00    -1320.00
00005             200.00    -1320.00
00006             160.00    -1360.00
00007             200.00    -1400.00
00008             200.00    -1400.00
00009             200.00    -1440.00
00010             200.00    -1440.00
00011             200.00    -1480.00
00012             200.00    -1480.00
00013             240.00    -1520.00
00014             240.00    -1520.00
00015             200.00    -1600.00
00016             240.00    -1600.00
00017             240.00    -1640.00
00018             200.00    -1680.00
00019             240.00    -1680.00
00020             240.00    -1680.00
00021             240.00    -1680.00
00022             240.00    -1760.00
00023             240.00    -1760.00
00024             240.00    -1800.00
00025             240.00    -1840.00
00026             240.00    -1840.00
00027             240.00    -1880.00
00028             240.00    -1920.00
00029             280.00    -1920.00
00030             240.00    -1960.00
00031             240.00    -1960.00
00032             280.00    -2000.00
00033             280.00    -2000.00
00034             280.00    -2040.00
00035             280.00    -2080.00
00036             280.00    -2080.00
00037             280.00    -2120.00
00038             280.00    -2160.00
00039             280.00    -2160.00
00040             360.00    -2160.00
00041             280.00    -2240.00
00042             280.00    -2200.00
00043             320.00    -2240.00
00044             360.00    -2240.00
00045             280.00    -2280.00
00046             320.00    -2320.00
00047             320.00    -2320.00
00048             360.00    -2400.00
00049             280.00    -2400.00
00050             360.00    -2400.00
00051             360.00    -2440.00
00052             360.00    -2440.00
00053             360.00    -2480.00
00054             360.00    -2480.00
00055             400.00    -2520.00
00056             400.00    -2520.00
00057             360.00    -2560.00
00058             360.00    -2600.00
00059             360.00    -2600.00
00060             400.00    -2640.00
00061             360.00    -2640.00
00062             400.00    -2640.00
00063             400.00    -2680.00
00064             400.00    -2720.00
00065             400.00    -2720.00
00066             400.00    -2760.00
00067             400.00    -2760.00
00068             440.00    -2800.00
00069             400.00    -2800.00
00070             440.00    -2840.00
00071             440.00    -2880.00
00072             440.00    -2880.00
00073             440.00    -2880.00
00074             440.00    -2920.00
00075             440.00    -2920.00
00076             440.00    -2960.00
00077             440.00    -2960.00
00078             480.00    -2960.00
00079             440.00    -3000.00
00080             440.00    -3000.00
00081             440.00    -3080.00
00082             440.00    -3040.00
00083             440.00    -3080.00
00084             440.00    -3080.00
00085             440.00    -3120.00
00086             520.00    -3120.00
00087             520.00    -3160.00
00088             440.00    -3160.00
00089             520.00    -3200.00
00090             480.00    -3200.00
00091             480.00    -3240.00
00092             440.00    -3240.00
00093             520.00    -3240.00
00094             480.00    -3280.00
00095             520.00    -3320.00
00096             520.00    -3320.00
00097             520.00    -3320.00
00098             520.00    -3360.00
00099             520.00    -3400.00
00100             520.00    -3400.00
00101             520.00    -3400.00
00102             520.00    -3400.00
00103             520.00    -3440.00
00104             520.00    -3440.00
00105             520.00    -3480.00
00106             520.00    -3480.00
00107             520.00    -3520.00
00108             520.00    -3480.00
00109             520.00    -3480.00
00110             520.00    -3560.00
00111             520.00    -3560.00
00112             520.00    -3560.00
00113             520.00    -3600.00
00114             520.00    -3600.00
00115             560.00    -3600.00
00116             520.00    -3600.00
00117             520.00    -3680.00
00118             560.00    -3680.00
00119             520.00    -3680.00
00120             520.00    -3720.00
00121             560.00    -3680.00
00122             520.00    -3720.00
00123             560.00    -3720.00
00124             600.00    -3760.00
00125             560.00    -3760.00
00126             560.00    -3760.00
00127             560.00    -3760.00
00128             560.00    -3760.00
00129             600.00    -3800.00
00130             600.00    -3840.00
00131             560.00    -3840.00
00132             600.00    -3840.00
00133             600.00    -3880.00
00134             600.00    -3880.00
00135             600.00    -3880.00
00136             600.00    -3880.00
00137             600.00    -3880.00
00138             560.00    -3880.00
00139             600.00    -3920.00
00140             600.00    -3920.00
00141             600.00    -3920.00
00142             600.00    -3960.00
00143             640.00    -4000.00
00144             600.00    -4000.00
00145             600.00    -4000.00
00146             600.00    -4000.00
00147             600.00    -4000.00
00148             640.00    -4000.00
00149             600.00    -4000.00
00150             640.00    -4040.00
00151             600.00    -4040.00
00152             640.00    -4040.00
00153             600.00    -4040.00
00154             640.00    -4080.00
00155             600.00    -4080.00
00156             600.00    -4080.00
00157             600.00    -4120.00
00158             600.00    -4080.00
00159             600.00    -4120.00
00160             600.00    -4080.00
00161             600.00    -4160.00
00162             600.00    -4160.00
00163             640.00    -4120.00
00164             640.00    -4160.00
00165             680.00    -4160.00
00166             600.00    -4160.00
00167             680.00    -4160.00
00168             640.00    -4160.00
00169             680.00    -4200.00
00170             680.00    -4200.00
00171             600.00    -4200.00
00172             680.00    -4200.00
00173             600.00    -4240.00
00174             640.00    -4200.00
00175             680.00    -4200.00
00176             640.00    -4240.00
00177             680.00    -4200.00
00178             680.00    -4240.00
00179             680.00    -4240.00
00180             680.00    -4240.00
00181             680.00    -4240.00
00182             680.00    -4240.00
00183             680.00    -4240.00
00184             680.00    -4240.00
00185             680.00    -4240.00
00186             680.00    -4240.00
00187             680.00    -4240.00
00188             680.00    -4280.00
00189             680.00    -4240.00
00190             680.00    -4280.00
00191             680.00    -4280.00
00192             720.00    -4280.00
00193             680.00    -4280.00
00194             680.00    -4240.00
00195             680.00    -4320.00
00196             680.00    -4280.00
00197             680.00    -4240.00
00198             680.00    -4280.00
00199             680.00    -4280.00
00200             680.00    -4320.00
00201             680.00    -4320.00
00202             680.00    -4320.00
00203             680.00    -4280.00
00204             720.00    -4320.00
00205             680.00    -4320.00
00206             720.00    -4280.00
00207             680.00    -4320.00
00208             720.00    -4320.00
00209             720.00    -4280.00
00210             720.00    -4320.00
00211             680.00    -4320.00
00212             720.00    -4320.00
00213             680.00    -4320.00
00214             720.00    -4320.00
00215             680.00    -4240.00
00216             680.00    -4320.00
00217             720.00    -4320.00
00218             720.00    -4240.00
00219             680.00    -4280.00
00220             680.00    -4280.00
00221             680.00    -4320.00
00222             680.00    -4240.00
00223             680.00    -4240.00
00224             680.00    -4240.00
00225             680.00    -4240.00
00226             680.00    -4240.00
00227             680.00    -4240.00
00228             680.00    -4240.00
00229             680.00    -4280.00
00230             680.00    -4240.00
00231             720.00    -4240.00
00232             680.00    -4240.00
00233             680.00    -4240.00
00234             680.00    -4240.00
00235             680.00    -4240.00
00236             680.00    -4240.00
00237             680.00    -4200.00
00238             680.00    -4200.00
00239             680.00    -4200.00
00240             680.00    -4200.00
00241             680.00    -4200.00
00242             680.00    -4200.00
00243             680.00    -4200.00
00244             680.00    -4200.00
00245             680.00    -4160.00
00246             680.00    -4200.00
00247             680.00    -4160.00
00248             680.00    -4160.00
00249             680.00    -4160.00
00250             680.00    -4160.00
00251             680.00    -4160.00
00252             680.00    -4120.00
00253             680.00    -4160.00
00254             680.00    -4120.00
00255             680.00    -4160.00
00256             640.00    -4080.00
00257             680.00    -4040.00
00258             680.00    -4080.00
00259             680.00    -4120.00
00260             680.00    -4040.00
00261             680.00    -4040.00
00262             680.00    -4040.00
00263             680.00    -4040.00
00264             640.00    -4040.00
00265             680.00    -4000.00
00266             680.00    -4000.00
00267             680.00    -4000.00
00268             680.00    -4000.00
00269             680.00    -4000.00
00270             640.00    -4000.00
00271             680.00    -3960.00
00272             680.00    -3920.00
00273             680.00    -3960.00
00274             680.00    -3920.00
00275             680.00    -3920.00
00276             640.00    -3920.00
00277             600.00    -3880.00
00278             680.00    -3920.00
00279             600.00    -3880.00
00280             640.00    -3840.00
00281             600.00    -3880.00
00282             600.00    -3840.00
00283             600.00    -3840.00
00284             600.00    -3840.00
00285             600.00    -3840.00
00286             600.00    -3800.00
00287             600.00    -3840.00
00288             600.00    -3760.00
00289             600.00    -3760.00
00290             600.00    -3760.00
00291             600.00    -3720.00
00292             600.00    -3720.00
00293             600.00    -3720.00
00294             600.00    -3680.00
00295             600.00    -3680.00
00296             600.00    -3680.00
00297             600.00    -3680.00
00298             600.00    -3640.00
00299             600.00    -3600.00
00300             560.00    -3600.00
00301             600.00    -3600.00
00302             560.00    -3560.00
00303             560.00    -3560.00
00304             560.00    -3560.00
00305             560.00    -3520.00
00306             560.00    -3480.00
00307             560.00    -3520.00
00308             560.00    -3480.00
00309             560.00    -3480.00
00310             560.00    -3440.00
00311             560.00    -3440.00
00312             560.00    -3400.00
00313             560.00    -3440.00
00314             560.00    -3400.00
00315             520.00    -3360.00
00316             560.00    -3360.00
00317             560.00    -3360.00
00318             520.00    -3360.00
00319             520.00    -3320.00
00320             560.00    -3280.00
00321             560.00    -3280.00
00322             560.00    -3240.00
00323             560.00    -3240.00
00324             560.00    -3200.00
00325             520.00    -3200.00
00326             560.00    -3200.00
00327             520.00    -3160.00
00328             560.00    -3160.00
00329             520.00    -3120.00
00330             520.00    -3120.00
00331             520.00    -3120.00
00332             520.00    -3080.00
00333             520.00    -3080.00
00334             520.00    -3040.00
00335             520.00    -3040.00
00336             520.00    -3000.00
00337             520.00    -2960.00
00338             520.00    -2960.00
00339             520.00    -2920.00
00340             520.00    -2960.00
00341             520.00    -2920.00
00342             520.00    -2880.00
00343             520.00    -2880.00
00344             520.00    -2880.00
00345             520.00    -2880.00
00346             480.00    -2800.00
00347             520.00    -2800.00
00348             440.00    -2760.00
00349             520.00    -2760.00
00350             440.00    -2720.00
00351             440.00    -2720.00
00352             440.00    -2720.00
00353             440.00    -2640.00
00354             480.00    -2640.00
00355             400.00    -2600.00
00356             440.00    -2600.00
00357             440.00    -2600.00
00358             440.00    -2560.00
00359             440.00    -2560.00
00360             400.00    -2520.00
00361             440.00    -2520.00
00362             440.00    -2480.00
00363             400.00    -2440.00
00364             400.00    -2440.00
00365             400.00    -2400.00
00366             400.00    -2400.00
00367             400.00    -2320.00
00368             400.00    -2360.00
00369             400.00    -2320.00
00370             400.00    -2320.00
00371             400.00    -2280.00
00372             400.00    -2280.00
00373             400.00    -2200.00
00374             400.00    -2200.00
00375             400.00    -2200.00
00376             360.00    -2160.00
00377             400.00    -2160.00
00378             360.00    -2120.00
00379             360.00    -2080.00
00380             400.00    -2080.00
00381             360.00    -2080.00
00382             360.00    -2040.00
00383             400.00    -2000.00
00384             360.00    -2000.00
00385             360.00    -1960.00
00386             360.00    -1960.00
00387             360.00    -1920.00
00388             360.00    -1880.00
00389             360.00    -1880.00
00390             360.00    -1840.00
00391             360.00    -1840.00
00392             360.00    -1800.00
00393             320.00    -1760.00
00394             360.00    -1760.00
00395             360.00    -1720.00
00396             360.00    -1680.00
00397             320.00    -1680.00
00398             280.00    -1680.00
00399             280.00    -1640.00
00400             360.00    -1600.00
00401             280.00    -1600.00
00402             280.00    -1600.00
00403             240.00    -1560.00
00404             280.00    -1480.00
00405             280.00    -1480.00
00406             280.00    -1440.00
00407             280.00    -1440.00
00408             240.00    -1440.00
00409             280.00    -1360.00
00410             280.00    -1360.00
00411             240.00    -1320.00
00412             240.00    -1320.00
00413             280.00    -1280.00
00414             240.00    -1280.00
00415             200.00    -1200.00
00416             240.00    -1200.00
00417             240.00    -1160.00
00418             200.00    -1160.00
00419             240.00    -1160.00
00420             240.00    -1120.00
00421             200.00    -1040.00
00422             200.00    -1040.00
00423             200.00    -1040.00
00424             200.00    -1000.00
00425             200.00     -960.00
00426             200.00     -960.00
00427             200.00     -920.00
00428             200.00     -880.00
00429             160.00     -880.00
00430             200.00     -880.00
00431             200.00     -840.00
00432             160.00     -800.00
00433             200.00     -800.00
00434             160.00     -760.00
00435             120.00     -720.00
00436             120.00     -720.00
00437             120.00     -680.00
00438             120.00     -640.00
00439             120.00     -640.00
00440             120.00     -560.00
00441             120.00     -560.00
00442             120.00     -560.00
00443             120.00     -520.00
00444             120.00     -520.00
00445             120.00     -480.00
00446             120.00     -440.00
00447             120.00     -400.00
00448              80.00     -400.00
00449              80.00     -400.00
00450              80.00     -360.00
00451              80.00     -320.00
00452              80.00     -280.00
00453              80.00     -240.00
00454              80.00     -200.00
00455              80.00     -200.00
00456              80.00     -160.00
00457              80.00     -160.00
00458              80.00     -120.00
00459              40.00      -80.00
00460              80.00      -80.00
00461              40.00      -40.00
00462              80.00      -40.00
00463              80.00        0.00
00464              80.00        0.00
00465              80.00       80.00
00466              40.00       80.00
00467              40.00       80.00
00468              40.00      120.00
00469              40.00      160.00
00470              40.00      200.00
00471              40.00      240.00
00472              40.00      240.00
00473              40.00      320.00
00474              40.00      360.00
00475              40.00      320.00
00476             -80.00      280.00
00477             -80.00      400.00
00478             -40.00      400.00
00479              40.00      440.00
00480              40.00      480.00
00481             -40.00      480.00
00482             -40.00      520.00
00483             -40.00      480.00
00484             -80.00      600.00
00485             -40.00      600.00
00486             -40.00      600.00
00487             -80.00      640.00
00488             -80.00      640.00
00489             -80.00      720.00
00490             -80.00      720.00
00491             -80.00      760.00
00492             -40.00      800.00
00493             -80.00      760.00
00494            -120.00      800.00
00495            -120.00      840.00
00496             -80.00      880.00
00497             -80.00      920.00
00498            -120.00      920.00
00499            -120.00      960.00
00500            -120.00      960.00
00501            -120.00      960.00
00502            -120.00     1040.00
00503            -120.00     1080.00
00504            -120.00     1080.00
00505            -120.00     1120.00
00506            -120.00     1120.00
00507            -120.00     1160.00
00508            -160.00     1200.00
00509            -120.00     1240.00
00510            -160.00     1240.00
00511            -120.00     1280.00
00512            -120.00     1280.00
00513            -160.00     1280.00
00514            -160.00     1360.00
00515            -160.00     1400.00
00516            -160.00     1400.00
00517            -200.00     1440.00
00518            -200.00     1440.00
00519            -200.00     1480.00
00520            -200.00     1520.00
00521            -200.00     1560.00
00522            -200.00     1560.00
00523            -200.00     1560.00
00524            -200.00     1640.00
00525            -240.00     1640.00
00526            -240.00     1680.00
00527            -240.00     1680.00
00528            -240.00     1720.00
00529            -200.00     1720.00
00530            -240.00     1760.00
00531            -240.00     1760.00
00532            -240.00     1760.00
00533            -240.00     1840.00
00534            -240.00     1840.00
00535            -240.00     1880.00
00536            -240.00     1880.00
00537            -240.00     1920.00
00538            -240.00     1920.00
00539            -240.00     2000.00
00540            -240.00     2000.00
00541            -240.00     2000.00
00542            -240.00     2000.00
00543            -240.00     2040.00
00544            -280.00     2080.00
00545            -280.00     2080.00
00546            -280.00     2120.00
00547            -280.00     2160.00
00548            -320.00     2160.00
00549            -280.00     2200.00
00550            -280.00     2200.00
00551            -280.00     2240.00
00552            -360.00     2240.00
00553            -280.00     2320.00
00554            -360.00     2280.00
00555            -320.00     2360.00
00556            -360.00     2320.00
00557            -360.00     2400.00
00558            -360.00     2400.00
00559            -360.00     2440.00
00560            -360.00     2440.00
00561            -360.00     2480.00
00562            -360.00     2480.00
00563            -360.00     2520.00
00564            -360.00     2560.00
00565            -400.00     2560.00
00566            -400.00     2560.00
00567            -360.00     2600.00
00568            -400.00     2640.00
00569            -400.00     2640.00
00570            -400.00     2640.00
00571            -400.00     2680.00
00572            -400.00     2720.00
00573            -400.00     2720.00
00574            -400.00     2720.00
00575            -400.00     2760.00
00576            -440.00     2800.00
00577            -400.00     2800.00
00578            -400.00     2840.00
00579            -400.00     2840.00
00580            -440.00     2920.00
00581            -440.00     2920.00
00582            -440.00     2920.00
00583            -440.00     2960.00
00584            -400.00     2960.00
00585            -440.00     2960.00
00586            -440.00     2960.00
00587            -440.00     3040.00
00588            -440.00     3040.00
00589            -440.00     3040.00
00590            -440.00     3040.00
00591            -440.00     3080.00
00592            -480.00     3120.00
00593            -440.00     3120.00
00594            -440.00     3120.00
00595            -440.00     3160.00
00596            -440.00     3200.00
00597            -440.00     3200.00
00598            -440.00     3240.00
00599            -480.00     3200.00
00600            -440.00     3280.00
00601            -440.00     3280.00
00602            -440.00     3280.00
00603            -520.00     3280.00
00604            -440.00     3320.00
00605            -520.00     3360.00
00606            -520.00     3360.00
00607            -440.00     3360.00
00608            -520.00     3360.00
00609            -520.00     3440.00
00610            -480.00     3440.00
00611            -520.00     3440.00
00612            -520.00     3480.00
00613            -520.00     3440.00
00614            -520.00     3480.00
00615            -560.00     3480.00
00616            -520.00     3520.00
00617            -560.00     3520.00
00618            -560.00     3520.00
00619            -520.00     3520.00
00620            -560.00     3560.00
00621            -560.00     3640.00
00622            -560.00     3640.00
00623            -560.00     3600.00
00624            -560.00     3640.00
00625            -560.00     3640.00
00626            -560.00     3680.00
00627            -560.00     3680.00
00628            -560.00     3680.00
00629            -560.00     3720.00
00630            -560.00     3760.00
00631            -560.00     3720.00
00632            -600.00     3760.00
00633            -560.00     3760.00
00634            -560.00     3760.00
00635            -600.00     3800.00
00636            -560.00     3800.00
00637            -560.00     3800.00
00638            -600.00     3840.00
00639            -600.00     3840.00
00640            -600.00     3840.00
00641            -600.00     3840.00
00642            -560.00     3880.00
00643            -600.00     3880.00
00644            -600.00     3920.00
00645            -560.00     3880.00
00646            -600.00     3920.00
00647            -600.00     3920.00
00648            -560.00     3960.00
00649            -600.00     3960.00
00650            -560.00     3960.00
00651            -600.00     3960.00
00652            -600.00     3960.00
00653            -560.00     3960.00
00654            -560.00     4000.00
00655            -600.00     4000.00
00656            -600.00     4000.00
00657            -560.00     4000.00
00658            -600.00     4080.00
00659            -560.00     4040.00
00660            -600.00     4040.00
00661            -600.00     4080.00
00662            -600.00     4080.00
00663            -560.00     4080.00
00664            -640.00     4080.00
00665            -600.00     4120.00
00666            -600.00     4120.00
00667            -600.00     4120.00
00668            -600.00     4120.00
00669            -600.00     4120.00
00670            -640.00     4200.00
00671            -600.00     4120.00
00672            -600.00     4120.00
00673            -600.00     4160.00
00674            -600.00     4200.00
00675            -640.00     4200.00
00676            -680.00     4160.00
00677            -640.00     4200.00
00678            -640.00     4160.00
00679            -640.00     4200.00
00680            -640.00     4200.00
00681            -680.00     4200.00
00682            -680.00     4240.00
00683            -640.00     4200.00
00684            -680.00     4240.00
00685            -640.00     4240.00
00686            -680.00     4240.00
00687            -680.00     4240.00
00688            -600.00     4240.00
00689            -680.00     4240.00
00690            -680.00     4240.00
00691            -680.00     4240.00
00692            -680.00     4280.00
00693            -680.00     4280.00
00694            -680.00     4240.00
00695            -680.00     4240.00
00696            -680.00     4280.00
00697            -680.00     4280.00
00698            -680.00     4320.00
00699            -680.00     4280.00
00700            -680.00     4280.00
00701            -680.00     4280.00
00702            -640.00     4280.00
00703            -680.00     4320.00
00704            -680.00     4280.00
00705            -600.00     4280.00
00706            -680.00     4280.00
00707            -600.00     4280.00
00708            -680.00     4280.00
00709            -680.00     4280.00
00710            -640.00     4320.00
00711            -720.00     4280.00
00712            -680.00     4280.00
00713            -680.00     4280.00
00714            -680.00     4280.00
00715            -680.00     4280.00
00716            -640.00     4320.00
00717            -640.00     4280.00
00718            -640.00     4280.00
00719            -640.00     4280.00
00720            -640.00     4320.00
00721            -680.00     4280.00
00722            -680.00     4280.00
00723            -600.00     4280.00
00724            -680.00     4280.00
00725            -680.00     4320.00
00726            -680.00     4320.00
00727            -640.00     4280.00
00728            -680.00     4280.00
00729            -680.00     4280.00
00730            -680.00     4280.00
00731            -680.00     4280.00
00732            -640.00     4320.00
00733            -680.00     4280.00
00734            -680.00     4280.00
00735            -640.00     4240.00
00736            -680.00     4240.00
00737            -680.00     4280.00
00738            -680.00     4240.00
00739            -680.00     4240.00
00740            -680.00     4280.00
00741            -680.00     4240.00
00742            -680.00     4240.00
00743            -680.00     4240.00
00744            -680.00     4240.00
00745            -680.00     4240.00
00746            -680.00     4240.00
00747            -680.00     4240.00
00748            -680.00     4240.00
00749            -640.00     4240.00
00750            -680.00     4240.00
00751            -680.00     4200.00
00752            -680.00     4160.00
00753            -680.00     4200.00
00754            -680.00     4200.00
00755            -640.00     4160.00
00756            -680.00     4200.00
00757            -680.00     4160.00
00758            -680.00     4160.00
00759            -680.00     4160.00
00760            -640.00     4160.00
00761            -680.00     4120.00
00762            -680.00     4120.00
00763            -600.00     4120.00
00764            -680.00     4120.00
00765            -600.00     4080.00
00766            -680.00     4080.00
00767            -680.00     4120.00
00768            -600.00     4080.00
00769            -680.00     4080.00
00770            -680.00     4080.00
00771            -640.00     4080.00
00772            -600.00     4040.00
00773            -600.00     4040.00
00774            -600.00     4000.00
00775            -600.00     4040.00
00776            -600.00     4000.00
00777            -680.00     4000.00
00778            -680.00     4000.00
00779            -600.00     3960.00
00780            -600.00     3960.00
00781            -600.00     3960.00
00782            -600.00     3960.00
00783            -600.00     3920.00
00784            -600.00     3960.00
00785            -600.00     3920.00
00786            -600.00     3920.00
00787            -600.00     3880.00
00788            -600.00     3880.00
00789            -600.00     3880.00
00790            -600.00     3840.00
00791            -600.00     3840.00
00792            -600.00     3840.00
00793            -600.00     3840.00
00794            -600.00     3800.00
00795            -600.00     3840.00
00796            -560.00     3800.00
00797            -560.00     3800.00
00798            -600.00     3760.00
00799            -600.00     3760.00
00800            -560.00     3760.00
00801            -600.00     3720.00
00802            -560.00     3720.00
00803            -560.00     3680.00
00804            -600.00     3680.00
00805            -600.00     3680.00
00806            -600.00     3680.00
00807            -560.00     3640.00
00808            -600.00     3640.00
00809            -560.00     3600.00
00810            -560.00     3600.00
00811            -600.00     3600.00
00812            -600.00     3560.00
00813            -560.00     3560.00
00814            -560.00     3520.00
00815            -600.00     3520.00
00816            -560.00     3520.00
00817            -560.00     3480.00
00818            -560.00     3480.00
00819            -560.00     3440.00
00820            -560.00     3440.00
00821            -560.00     3440.00
00822            -560.00     3440.00
00823            -560.00     3440.00
00824            -560.00     3360.00
00825            -560.00     3360.00
00826            -560.00     3360.00
00827            -600.00     3360.00
00828            -560.00     3320.00
00829            -560.00     3280.00
00830            -560.00     3280.00
00831            -560.00     3280.00
00832            -560.00     3240.00
00833            -560.00     3200.00
00834            -520.00     3200.00
00835            -560.00     3200.00
00836            -520.00     3200.00
00837            -520.00     3160.00
00838            -520.00     3160.00
00839            -520.00     3120.00
00840            -520.00     3120.00
00841            -520.00     3120.00
00842            -520.00     3040.00
00843            -520.00     3040.00
00844            -520.00     3040.00
00845            -520.00     3000.00
00846            -440.00     3000.00
00847            -480.00     2960.00
00848            -440.00     2960.00
00849            -440.00     2920.00
00850            -440.00     2920.00
00851            -440.00     2880.00
00852            -440.00     2880.00
00853            -440.00     2840.00
00854            -440.00     2840.00
00855            -440.00     2800.00
00856            -440.00     2800.00
00857            -440.00     2800.00
00858            -440.00     2760.00
00859            -440.00     2720.00
00860            -440.00     2720.00
00861            -440.00     2680.00
00862            -440.00     2640.00
00863            -400.00     2640.00
00864            -440.00     2640.00
00865            -440.00     2640.00
00866            -440.00     2560.00
00867            -440.00     2560.00
00868            -440.00     2560.00
00869            -400.00     2520.00
00870            -400.00     2520.00
00871            -440.00     2480.00
00872            -400.00     2480.00
00873            -400.00     2480.00
00874            -400.00     2400.00
00875            -400.00     2360.00
00876            -400.00     2360.00
00877            -400.00     2360.00
00878            -400.00     2320.00
00879            -400.00     2320.00
00880            -400.00     2240.00
00881            -400.00     2240.00
00882            -400.00     2240.00
00883            -360.00     2200.00
00884            -400.00     2200.00
00885            -400.00     2160.00
00886            -400.00     2160.00
00887            -360.00     2160.00
00888            -360.00     2080.00
00889            -360.00     2080.00
00890            -360.00     2080.00
00891            -360.00     2000.00
00892            -360.00     2000.00
00893            -280.00     1960.00
00894            -360.00     1920.00
00895            -360.00     1920.00
00896            -360.00     1880.00
00897            -360.00     1920.00
00898            -360.00     1840.00
00899            -360.00     1840.00
00900            -280.00     1840.00
00901            -360.00     1800.00
00902            -280.00     1760.00
00903            -280.00     1760.00
00904            -360.00     1720.00
00905            -280.00     1720.00
00906            -280.00     1680.00
00907            -280.00     1680.00
00908            -280.00     1640.00
00909            -280.00     1560.00
00910            -280.00     1560.00
00911            -240.00     1560.00
00912            -280.00     1520.00
00913            -240.00     1520.00
00914            -240.00     1480.00
00915            -240.00     1440.00
00916            -240.00     1440.00
00917            -240.00     1400.00
00918            -240.00     1360.00
00919            -240.00     1360.00
00920            -240.00     1360.00
00921            -240.00     1280.00
00922            -240.00     1280.00
00923            -240.00     1280.00
00924            -200.00     1240.00
00925            -200.00     1200.00
00926            -240.00     1200.00
00927            -200.00     1160.00
00928            -200.00     1120.00
00929            -200.00     1120.00
00930            -200.00     1080.00
00931            -160.00     1040.00
00932            -200.00     1040.00
00933            -200.00     1000.00
00934            -200.00     1000.00
00935            -160.00      920.00
00936            -200.00      920.00
00937            -200.00      880.00
00938            -200.00      880.00
00939            -160.00      840.00
00940            -160.00      800.00
00941            -160.00      800.00
00942            -160.00      760.00
00943            -120.00      760.00
00944            -200.00      720.00
00945            -120.00      680.00
00946            -120.00      640.00
00947            -120.00      640.00
00948            -120.00      600.00
00949            -120.00      600.00
00950            -120.00      560.00
00951            -120.00      520.00
00952            -120.00      520.00
00953            -120.00      480.00
00954            -120.00      480.00
00955            -120.00      440.00
00956             -80.00      400.00
00957             -80.00      400.00
00958             -80.00      360.00
00959            -120.00      320.00
00960             -80.00      280.00
00961            -120.00      280.00
00962             -80.00      240.00
00963             -80.00      200.00
00964             -80.00      200.00
00965             -80.00      160.00
00966             -80.00      120.00
00967             -40.00      120.00
00968             -40.00       80.00
00969             -80.00       40.00
00970             -40.00       40.00
00971             -80.00        0.00
00972             -40.00        0.00
00973             -40.00      -40.00
00974             -40.00      -80.00
00975             -40.00      -80.00
00976             -40.00     -160.00
00977             -40.00     -120.00
00978              40.00     -160.00
00979              40.00     -200.00
00980              40.00     -240.00
00981             -40.00     -200.00
00982              40.00     -280.00
00983              40.00     -320.00
00984              80.00     -360.00
00985             -40.00     -400.00
00986             -40.00     -400.00
00987              80.00     -400.00
00988              80.00     -480.00
00989              40.00     -480.00
00990              80.00     -480.00
00991              40.00     -520.00
00992              80.00     -560.00
00993              40.00     -560.00
00994              80.00     -560.00
00995              80.00     -640.00
00996              80.00     -640.00
00997              80.00     -680.00
00998              40.00     -680.00
00999              80.00     -760.00
01000              80.00     -720.00
01001              80.00     -800.00
01002              80.00     -800.00
01003              80.00     -840.00
01004              80.00     -840.00
01005             120.00     -880.00
01006              80.00     -920.00
01007             120.00     -920.00
01008              80.00     -960.00
01009             120.00    -1000.00
01010              80.00    -1000.00
01011              80.00    -1040.00
01012             120.00    -1040.00
01013             120.00    -1120.00
01014             120.00    -1120.00
01015             120.00    -1120.00
01016             120.00    -1160.00
01017             200.00    -1200.00
01018             120.00    -1280.00
01019             120.00    -1280.00
01020             200.00    -1280.00
01021             160.00    -1320.00
01022             200.00    -1320.00
01023             160.00    -1320.00
01024             200.00    -1360.00
01025             200.00    -1440.00
01026             200.00    -1440.00
01027             200.00    -1440.00
01028             200.00    -1480.00
01029             240.00    -1480.00
01030             200.00    -1520.00
01031             200.00    -1560.00
01032             200.00    -1600.00
01033             240.00    -1600.00
01034             200.00    -1640.00
01035             240.00    -1640.00
01036             240.00    -1680.00
01037             240.00    -1680.00
01038             240.00    -1760.00
01039             240.00    -1760.00
01040             240.00    -1760.00
01041             280.00    -1800.00
01042             240.00    -1800.00
01043             240.00    -1840.00
01044             240.00    -1840.00
01045             280.00    -1880.00
01046             280.00    -1920.00
01047             280.00    -1920.00
01048             280.00    -2000.00
01049             280.00    -2000.00
01050             280.00    -2000.00
01051             280.00    -2040.00
01052             320.00    -2080.00
01053             320.00    -2120.00
01054             280.00    -2120.00
01055             360.00    -2160.00
01056             280.00    -2160.00
01057             320.00    -2160.00
01058             360.00    -2200.00
01059             360.00    -2200.00
01060             360.00    -2240.00
01061             360.00    -2240.00
01062             360.00    -2320.00
01063             360.00    -2320.00
01064             360.00    -2360.00
01065             400.00    -2360.00
01066             360.00    -2400.00
01067             360.00    -2440.00
01068             360.00    -2440.00
01069             360.00    -2440.00
01070             360.00    -2480.00
01071             400.00    -2520.00
01072             360.00    -2480.00
01073             360.00    -2560.00
01074             360.00    -2560.00
01075             360.00    -2600.00
01076             400.00    -2640.00
01077             400.00    -2640.00
01078             400.00    -2640.00
01079             400.00    -2640.00
01080             400.00    -2680.00
01081             400.00    -2720.00
01082             400.00    -2720.00
01083             400.00    -2760.00
01084             400.00    -2760.00
01085             400.00    -2760.00
01086             400.00    -2800.00
01087             400.00    -2880.00
01088             440.00    -2800.00
01089             440.00    -2880.00
01090             440.00    -2920.00
01091             400.00    -2920.00
01092             440.00    -2960.00
01093             440.00    -2960.00
01094             440.00    -2960.00
01095             440.00    -2960.00
01096             440.00    -3040.00
01097             440.00    -3000.00
01098             440.00    -3040.00
01099             520.00    -3040.00
01100             440.00    -3080.00
01101             480.00    -3080.00
01102             440.00    -3120.00
01103             440.00    -3120.00
01104             480.00    -3160.00
01105             520.00    -3200.00
01106             480.00    -3240.00
01107             520.00    -3200.00
01108             520.00    -3240.00
01109             520.00    -3280.00
01110             520.00    -3240.00
01111             520.00    -3280.00
01112             520.00    -3280.00
01113             520.00    -3320.00
01114             520.00    -3320.00
01115             520.00    -3360.00
01116             520.00    -3360.00
01117             520.00    -3360.00
01118             560.00    -3400.00
01119             520.00    -3440.00
01120             520.00    -3440.00
01121             520.00    -3400.00
01122             520.00    -3440.00
01123             520.00    -3480.00
01124             520.00    -3480.00
01125             560.00    -3480.00
01126             560.00    -3560.00
01127             520.00    -3520.00
01128             560.00    -3560.00
01129             520.00    -3560.00
01130             560.00    -3560.00
01131             520.00    -3600.00
01132             520.00    -3600.00
01133             560.00    -3640.00
01134             560.00    -3640.00
01135             560.00    -3680.00
01136             560.00    -3680.00
01137             520.00    -3680.00
01138             520.00    -3720.00
01139             560.00    -3720.00
01140             520.00    -3720.00
01141             560.00    -3760.00
01142             560.00    -3760.00
01143             520.00    -3760.00
01144             600.00    -3760.00
01145             560.00    -3800.00
01146             560.00    -3800.00
01147             600.00    -3840.00
01148             560.00    -3840.00
01149             560.00    -3840.00
01150             560.00    -3840.00
01151             560.00    -3840.00
01152             560.00    -3880.00
01153             560.00    -3880.00
01154             560.00    -3880.00
01155             600.00    -3920.00
01156             600.00    -3920.00
01157             560.00    -3920.00
01158             600.00    -3920.00
01159             600.00    -3920.00
01160             600.00    -3960.00
01161             600.00    -3960.00
01162             600.00    -3920.00
01163             680.00    -4000.00
01164             640.00    -4000.00
01165             600.00    -4000.00
01166             640.00    -4040.00
01167             680.00    -4040.00
01168             640.00    -4040.00
01169             600.00    -4040.00
01170             600.00    -4040.00
01171             600.00    -4080.00
01172             640.00    -4080.00
01173             640.00    -4080.00
01174             680.00    -4080.00
01175             600.00    -4080.00
01176             600.00    -4120.00
01177             680.00    -4120.00
01178             640.00    -4120.00
01179             680.00    -4160.00
01180             640.00    -4120.00
01181             680.00    -4160.00
01182             680.00    -4160.00
01183             680.00    -4160.00
01184             680.00    -4160.00
01185             680.00    -4160.00
01186             640.00    -4200.00
01187             640.00    -4200.00
01188             680.00    -4200.00
01189             680.00    -4200.00
01190             680.00    -4200.00
01191             680.00    -4200.00
01192             680.00    -4200.00
01193             680.00    -4200.00
01194             680.00    -4200.00
01195             680.00    -4240.00
01196             680.00    -4200.00
01197             680.00    -4240.00
01198             680.00    -4240.00
01199             680.00    -4240.00
01200             680.00    -4240.00
01201             680.00    -4240.00
01202             680.00    -4240.00
01203             680.00    -4240.00
01204             680.00    -4240.00
01205             680.00    -4240.00
01206             680.00    -4280.00
01207             680.00    -4280.00
01208             680.00    -4280.00
01209             680.00    -4280.00
01210             680.00    -4280.00
01211             680.00    -4280.00
01212             680.00    -4280.00
01213             640.00    -4240.00
01214             680.00    -4320.00
01215             680.00    -4320.00
01216             680.00    -4320.00
01217             680.00    -4280.00
01218             680.00    -4320.00
01219             680.00    -4280.00
01220             680.00    -4320.00
01221             680.00    -4320.00
01222             680.00    -4280.00
01223             680.00    -4320.00
01224             680.00    -4320.00
01225             680.00    -4320.00
01226             680.00    -4320.00
01227             680.00    -4320.00
01228             680.00    -4320.00
01229             680.00    -4320.00
01230             680.00    -4280.00
01231             720.00    -4320.00
01232             680.00    -4320.00
01233             680.00    -4320.00
01234             680.00    -4320.00
01235             720.00    -4320.00
01236             680.00    -4280.00
01237             680.00    -4320.00
01238             680.00    -4280.00
01239             680.00    -4240.00
01240             680.00    -4280.00
01241             680.00    -4280.00
01242             680.00    -4280.00
01243             680.00    -4240.00
01244             680.00    -4240.00
01245             720.00    -4280.00
01246             680.00    -4240.00
01247             680.00    -4240.00
01248             680.00    -4240.00
01249             680.00    -4240.00
01250             720.00    -4240.00
01251             680.00    -4240.00
01252             680.00    -4200.00
01253             680.00    -4240.00
01254             680.00    -4240.00
01255             680.00    -4240.00
01256             680.00    -4240.00
01257             680.00    -4200.00
01258             720.00    -4200.00
01259             680.00    -4200.00
01260             680.00    -4200.00
01261             680.00    -4200.00
01262             680.00    -4200.00
01263             680.00    -4200.00
01264             680.00    -4200.00
01265             680.00    -4160.00
01266             680.00    -4160.00
01267             680.00    -4160.00
01268             680.00    -4160.00
01269             680.00    -4160.00
01270             680.00    -4120.00
01271             680.00    -4080.00
01272             680.00    -4160.00
01273             680.00    -4080.00
01274             600.00    -4080.00
01275             680.00    -4080.00
01276             680.00    -4080.00
01277             680.00    -4040.00
01278             680.00    -4040.00
01279             680.00    -4040.00
01280             640.00    -4080.00
01281             640.00    -4000.00
01282             680.00    -4000.00
01283             680.00    -4000.00
01284             640.00    -4000.00
01285             600.00    -4000.00
01286             640.00    -4000.00
01287             680.00    -3960.00
01288             600.00    -3960.00
01289             600.00    -3960.00
01290             600.00    -3960.00
01291             680.00    -3920.00
01292             640.00    -3920.00
01293             600.00    -3880.00
01294             680.00    -3880.00
01295             640.00    -3920.00
01296             640.00    -3840.00
01297             640.00    -3840.00
01298             600.00    -3880.00
01299             640.00    -3840.00
01300             600.00    -3840.00
01301             600.00    -3840.00
01302             600.00    -3800.00
01303             600.00    -3840.00
01304             640.00    -3800.00
01305             600.00    -3760.00
01306             600.00    -3760.00
01307             600.00    -3720.00
01308             600.00    -3760.00
01309             600.00    -3720.00
01310             600.00    -3720.00
01311             600.00    -3720.00
01312             600.00    -3680.00
01313             640.00    -3680.00
01314             600.00    -3680.00
01315             600.00    -3600.00
01316             600.00    -3640.00
01317             600.00    -3600.00
01318             560.00    -3600.00
01319             600.00    -3560.00
01320             600.00    -3560.00
01321             560.00    -3520.00
01322             560.00    -3560.00
01323             560.00    -3520.00
01324             560.00    -3480.00
01325             560.00    -3480.00
01326             560.00    -3440.00
01327             600.00    -3440.00
01328             560.00    -3400.00
01329             520.00    -3440.00
01330             520.00    -3400.00
01331             560.00    -3400.00
01332             520.00    -3400.00
01333             560.00    -3360.00
01334             520.00    -3360.00
01335             560.00    -3360.00
01336             520.00    -3280.00
01337             520.00    -3320.00
01338             520.00    -3280.00
01339             520.00    -3280.00
01340             520.00    -3240.00
01341             520.00    -3200.00
01342             520.00    -3240.00
01343             520.00    -3200.00
01344             520.00    -3160.00
01345             520.00    -3160.00
01346             480.00    -3120.00
01347             520.00    -3120.00
01348             520.00    -3080.00
01349             520.00    -3080.00
01350             520.00    -3080.00
01351             480.00    -3040.00
01352             520.00    -3040.00
01353             480.00    -3000.00
01354             520.00    -3000.00
01355             480.00    -2960.00
01356             480.00    -2920.00
01357             520.00    -2920.00
01358             520.00    -2920.00
01359             520.00    -2920.00
01360             520.00    -2880.00
01361             520.00    -2840.00
01362             480.00    -2840.00
01363             440.00    -2800.00
01364             440.00    -2800.00
01365             440.00    -2760.00
01366             520.00    -2760.00
01367             440.00    -2720.00
01368             520.00    -2720.00
01369             440.00    -2680.00
01370             440.00    -2640.00
01371             440.00    -2640.00
01372             440.00    -2600.00
01373             440.00    -2600.00
01374             440.00    -2600.00
01375             440.00    -2560.00
01376             440.00    -2560.00
01377             440.00    -2520.00
01378             440.00    -2480.00
01379             440.00    -2480.00
01380             400.00    -2480.00
01381             400.00    -2440.00
01382             440.00    -2400.00
01383             400.00    -2400.00
01384             400.00    -2400.00
01385             400.00    -2360.00
01386             400.00    -2280.00
01387             440.00    -2320.00
01388             400.00    -2280.00
01389             400.00    -2280.00
01390             400.00    -2200.00
01391             400.00    -2200.00
01392             400.00    -2200.00
01393             400.00    -2160.00
01394             400.00    -2160.00
01395             400.00    -2120.00
01396             360.00    -2120.00
01397             360.00    -2080.00
01398             360.00    -2080.00
01399             360.00    -2040.00
01400             360.00    -2000.00
01401             360.00    -1960.00
01402             360.00    -1960.00
01403             360.00    -1920.00
01404             360.00    -1920.00
01405             360.00    -1920.00
01406             320.00    -1880.00
01407             360.00    -1840.00
01408             280.00    -1800.00
01409             360.00    -1760.00
01410             280.00    -1800.00
01411             320.00    -1760.00
01412             360.00    -1720.00
01413             320.00    -1760.00
01414             280.00    -1680.00
01415             280.00    -1640.00
01416             280.00    -1640.00
01417             280.00    -1600.00
01418             280.00    -1600.00
01419             240.00    -1560.00
01420             280.00    -1520.00
01421             280.00    -1520.00
01422             280.00    -1480.00
01423             240.00    -1480.00
01424             280.00    -1440.00
01425             240.00    -1400.00
01426             240.00    -1400.00
01427             240.00    -1360.00
01428             240.00    -1360.00
01429             240.00    -1320.00
01430             240.00    -1280.00
01431             240.00    -1280.00
01432             240.00    -1240.00
01433             240.00    -1240.00
01434             200.00    -1200.00
01435             240.00    -1160.00
01436             240.00    -1160.00
01437             240.00    -1120.00
01438             240.00    -1080.00
01439             200.00    -1040.00
01440             240.00    -1040.00
01441             200.00    -1000.00
01442             200.00     -960.00
01443             240.00     -920.00
01444             200.00     -920.00
01445             200.00     -920.00
01446             200.00     -880.00
01447             160.00     -840.00
01448             200.00     -840.00
01449             200.00     -800.00
01450             200.00     -800.00
01451             200.00     -720.00
01452             200.00     -720.00
01453             160.00     -720.00
01454             160.00     -680.00
01455             160.00     -640.00
01456             120.00     -640.00
01457             120.00     -600.00
01458             120.00     -560.00
01459              80.00     -560.00
01460             120.00     -560.00
01461              80.00     -520.00
01462              80.00     -480.00
01463              80.00     -440.00
01464              80.00     -400.00
01465              80.00     -400.00
01466              80.00     -360.00
01467              80.00     -360.00
01468              80.00     -320.00
01469              80.00     -320.00
01470              80.00     -240.00
01471              80.00     -240.00
01472              40.00     -200.00
01473              80.00     -200.00
01474              80.00     -160.00
01475              40.00     -160.00
01476              40.00      -80.00
01477              40.00      -80.00
01478              40.00      -40.00
01479              80.00      -40.00
01480              40.00        0.00
01481              40.00        0.00
01482              40.00       40.00
01483              40.00       40.00
01484              40.00       80.00
01485              40.00      160.00
01486              40.00      160.00
01487              40.00      160.00
01488              40.00      240.00
01489              40.00      240.00
01490              40.00      280.00
01491              40.00      360.00
01492              40.00      280.00
01493             -40.00      280.00
01494             -80.00      320.00
01495               0.00      400.00
01496              40.00      400.00
01497             -40.00      480.00
01498             -40.00      480.00
01499             -40.00      520.00
01500             -80.00      480.00
01501             -80.00      560.00
01502             -40.00      600.00
01503             -40.00      600.00
01504             -40.00      640.00
01505             -80.00      640.00
01506             -80.00      720.00
01507             -40.00      720.00
01508             -80.00      720.00
01509             -80.00      800.00
01510             -80.00      800.00
01511             -80.00      800.00
01512             -80.00      880.00
01513             -80.00      880.00
01514             -80.00      920.00
01515             -80.00      960.00
01516            -120.00      960.00
01517             -80.00      960.00
01518            -120.00     1000.00
01519            -120.00     1080.00
01520            -120.00     1080.00
01521            -120.00     1120.00
01522            -120.00     1120.00
01523            -120.00     1120.00
01524            -120.00     1160.00
01525            -120.00     1200.00
01526            -200.00     1200.00
01527            -120.00     1240.00
01528            -200.00     1240.00
01529            -200.00     1280.00
01530            -200.00     1320.00
01531            -200.00     1360.00
01532            -200.00     1360.00
01533            -160.00     1400.00
01534            -200.00     1440.00
01535            -240.00     1440.00
01536            -200.00     1440.00
01537            -240.00     1520.00
01538            -200.00     1520.00
01539            -200.00     1560.00
01540            -200.00     1560.00
01541            -200.00     1600.00
01542            -200.00     1640.00
01543            -240.00     1680.00
01544            -240.00     1680.00
01545            -240.00     1720.00
01546            -240.00     1720.00
01547            -240.00     1760.00
01548            -240.00     1760.00
01549            -240.00     1760.00
01550            -240.00     1840.00
01551            -240.00     1840.00
01552            -240.00     1840.00
01553            -240.00     1880.00
01554            -240.00     1920.00
01555            -240.00     1960.00
01556            -240.00     2000.00
01557            -240.00     2000.00
01558            -280.00     2000.00
01559            -280.00     2040.00
01560            -280.00     2040.00
01561            -280.00     2080.00
01562            -280.00     2080.00
01563            -280.00     2160.00
01564            -280.00     2160.00
01565            -320.00     2160.00
01566            -280.00     2200.00
01567            -280.00     2200.00
01568            -280.00     2240.00
01569            -280.00     2240.00
01570            -280.00     2280.00
01571            -320.00     2320.00
01572            -360.00     2320.00
01573            -360.00     2360.00
01574            -280.00     2360.00
01575            -360.00     2400.00
01576            -280.00     2400.00
01577            -360.00     2480.00
01578            -360.00     2480.00
01579            -400.00     2480.00
01580            -360.00     2520.00
01581            -360.00     2520.00
01582            -360.00     2520.00
01583            -360.00     2560.00
01584            -360.00     2600.00
01585            -400.00     2640.00
01586            -400.00     2640.00
01587            -360.00     2680.00
01588            -400.00     2680.00
01589            -400.00     2720.00
01590            -400.00     2720.00
01591            -400.00     2720.00
01592            -400.00     2760.00
01593            -440.00     2800.00
01594            -400.00     2800.00
01595            -440.00     2840.00
01596            -440.00     2840.00
01597            -440.00     2880.00
01598            -440.00     2920.00
01599            -440.00     2920.00
01600            -440.00     2880.00
01601            -440.00     2960.00
01602            -440.00     2960.00
01603            -440.00     3000.00
01604            -440.00     3000.00
01605            -440.00     3000.00
01606            -440.00     3040.00
01607            -440.00     3040.00
01608            -440.00     3120.00
01609            -440.00     3080.00
01610            -440.00     3120.00
01611            -480.00     3120.00
01612            -520.00     3160.00
01613            -480.00     3160.00
01614            -440.00     3200.00
01615            -480.00     3200.00
01616            -440.00     3240.00
01617            -480.00     3280.00
01618            -440.00     3280.00
01619            -480.00     3280.00
01620            -480.00     3280.00
01621            -480.00     3320.00
01622            -480.00     3320.00
01623            -520.00     3360.00
01624            -520.00     3360.00
01625            -520.00     3360.00
01626            -520.00     3360.00
01627            -520.00     3440.00
01628            -520.00     3440.00
01629            -520.00     3480.00
01630            -520.00     3440.00
01631            -520.00     3480.00
01632            -560.00     3480.00
01633            -520.00     3480.00
01634            -520.00     3520.00
01635            -480.00     3520.00
01636            -520.00     3560.00
01637            -480.00     3600.00
01638            -560.00     3600.00
01639            -520.00     3600.00
01640            -560.00     3640.00
01641            -560.00     3640.00
01642            -520.00     3640.00
01643            -560.00     3680.00
01644            -560.00     3680.00
01645            -560.00     3680.00
01646            -560.00     3680.00
01647            -520.00     3720.00
01648            -560.00     3720.00
01649            -560.00     3760.00
01650            -560.00     3760.00
01651            -560.00     3760.00
01652            -560.00     3760.00
01653            -560.00     3800.00
01654            -560.00     3840.00
01655            -560.00     3800.00
01656            -600.00     3840.00
01657            -560.00     3840.00
01658            -600.00     3840.00
01659            -600.00     3840.00
01660            -600.00     3920.00
01661            -600.00     3880.00
01662            -600.00     3920.00
01663            -600.00     3920.00
01664            -600.00     3920.00
01665            -600.00     3920.00
01666            -600.00     3960.00
01667            -600.00     3960.00
01668            -600.00     3960.00
01669            -600.00     3960.00
01670            -600.00     3960.00
01671            -600.00     4000.00
01672            -600.00     4000.00
01673            -600.00     4000.00
01674            -600.00     4040.00
01675            -600.00     4000.00
01676            -600.00     4080.00
01677            -600.00     4040.00
01678            -600.00     4080.00
01679            -600.00     4040.00
01680            -600.00     4080.00
01681            -600.00     4080.00
01682            -600.00     4120.00
01683            -600.00     4120.00
01684            -600.00     4120.00
01685            -600.00     4120.00
01686            -680.00     4160.00
01687            -600.00     4160.00
01688            -640.00     4200.00
01689            -600.00     4120.00
01690            -600.00     4160.00
01691            -600.00     4160.00
01692            -640.00     4200.00
01693            -680.00     4160.00
01694            -600.00     4200.00
01695            -600.00     4200.00
01696            -600.00     4200.00
01697            -640.00     4200.00
01698            -600.00     4240.00
01699            -600.00     4200.00
01700            -600.00     4240.00
01701            -680.00     4240.00
01702            -600.00     4240.00
01703            -640.00     4240.00
01704            -640.00     4240.00
01705            -600.00     4240.00
01706            -680.00     4280.00
01707            -600.00     4240.00
01708            -680.00     4240.00
01709            -680.00     4280.00
01710            -680.00     4280.00
01711            -680.00     4280.00
01712            -640.00     4280.00
01713            -640.00     4280.00
01714            -640.00     4280.00
01715            -640.00     4280.00
01716            -680.00     4320.00
01717            -680.00     4280.00
01718            -680.00     4280.00
01719            -680.00     4280.00
01720            -680.00     4280.00
01721            -680.00     4280.00
01722            -680.00     4320.00
01723            -680.00     4320.00
01724            -680.00     4280.00
01725            -680.00     4280.00
01726            -680.00     4280.00
01727            -680.00     4320.00
01728            -680.00     4320.00
01729            -680.00     4320.00
01730            -680.00     4280.00
01731            -680.00     4320.00
01732            -680.00     4280.00
01733            -720.00     4320.00
01734            -680.00     4320.00
01735            -680.00     4280.00
01736            -680.00     4320.00
01737            -680.00     4320.00
01738            -680.00     4320.00
01739            -680.00     4280.00
01740            -680.00     4280.00
01741            -680.00     4320.00
01742            -680.00     4280.00
01743            -680.00     4280.00
01744            -640.00     4280.00
01745            -680.00     4280.00
01746            -680.00     4280.00
01747            -680.00     4280.00
01748            -680.00     4280.00
01749            -640.00     4280.00
01750            -680.00     4280.00
01751            -680.00     4280.00
01752            -680.00     4280.00
01753            -640.00     4280.00
01754            -680.00     4280.00
01755            -680.00     4240.00
01756            -680.00     4280.00
01757            -680.00     4240.00
01758            -680.00     4280.00
01759            -640.00     4240.00
01760            -680.00     4240.00
01761            -640.00     4240.00
01762            -600.00     4240.00
01763            -680.00     4240.00
01764            -640.00     4240.00
01765            -640.00     4240.00
01766            -640.00     4240.00
01767            -640.00     4240.00
01768            -600.00     4200.00
01769            -680.00     4160.00
01770            -680.00     4200.00
01771            -600.00     4200.00
01772            -680.00     4200.00
01773            -680.00     4160.00
01774            -640.00     4160.00
01775            -680.00     4200.00
01776            -600.00     4160.00
01777            -680.00     4160.00
01778            -680.00     4120.00
01779            -640.00     4120.00
01780            -640.00     4120.00
01781            -680.00     4120.00
01782            -600.00     4120.00
01783            -680.00     4120.00
01784            -600.00     4080.00
01785            -600.00     4080.00
01786            -600.00     4080.00
01787            -640.00     4080.00
01788            -680.00     4080.00
01789            -680.00     4040.00
01790            -600.00     4040.00
01791            -680.00     4000.00
01792            -680.00     4000.00
01793            -680.00     4000.00
01794            -640.00     3960.00
01795            -600.00     4000.00
01796            -600.00     3960.00
01797            -640.00     3960.00
01798            -600.00     3960.00
01799            -600.00     3960.00
01800            -600.00     3920.00
01801            -600.00     3920.00
01802            -600.00     3920.00
01803            -600.00     3880.00
01804            -600.00     3920.00
01805            -600.00     3880.00
01806            -600.00     3880.00
01807            -600.00     3840.00
01808            -600.00     3840.00
01809            -600.00     3840.00
01810            -600.00     3840.00
01811            -600.00     3800.00
01812            -600.00     3800.00
01813            -600.00     3800.00
01814            -600.00     3760.00
01815            -600.00     3760.00
01816            -600.00     3760.00
01817            -600.00     3760.00
01818            -600.00     3760.00
01819            -560.00     3680.00
01820            -600.00     3720.00
01821            -560.00     3680.00
01822            -600.00     3680.00
01823            -560.00     3640.00
01824            -560.00     3680.00
01825            -560.00     3640.00
01826            -560.00     3600.00
01827            -600.00     3600.00
01828            -560.00     3560.00
01829            -560.00     3600.00
01830            -560.00     3520.00
01831            -560.00     3520.00
01832            -560.00     3520.00
01833            -560.00     3480.00
01834            -560.00     3520.00
01835            -560.00     3480.00
01836            -560.00     3440.00
01837            -560.00     3440.00
01838            -560.00     3440.00
01839            -560.00     3440.00
01840            -560.00     3440.00
01841            -560.00     3360.00
01842            -560.00     3360.00
01843            -520.00     3320.00
01844            -560.00     3320.00
01845            -560.00     3320.00
01846            -560.00     3280.00
01847            -560.00     3280.00
01848            -560.00     3280.00
01849            -560.00     3280.00
01850            -520.00     3240.00
01851            -560.00     3200.00
01852            -560.00     3200.00
01853            -560.00     3160.00
01854            -520.00     3160.00
01855            -520.00     3160.00
01856            -560.00     3120.00
01857            -520.00     3120.00
01858            -520.00     3080.00
01859            -520.00     3040.00
01860            -520.00     3040.00
01861            -520.00     3040.00
01862            -520.00     3000.00
01863            -520.00     3000.00
01864            -520.00     3000.00
01865            -520.00     2960.00
01866            -520.00     2920.00
01867            -520.00     2920.00
01868            -520.00     2880.00
01869            -480.00     2880.00
01870            -440.00     2880.00
01871            -520.00     2800.00
01872            -440.00     2800.00
01873            -440.00     2800.00
01874            -440.00     2760.00
01875            -440.00     2760.00
01876            -480.00     2720.00
01877            -440.00     2720.00
01878            -440.00     2680.00
01879            -440.00     2680.00
01880            -440.00     2640.00
01881            -400.00     2640.00
01882            -440.00     2600.00
01883            -440.00     2600.00
01884            -440.00     2560.00
01885            -440.00     2560.00
01886            -400.00     2520.00
01887            -440.00     2480.00
01888            -440.00     2480.00
01889            -400.00     2480.00
01890            -400.00     2480.00
01891            -400.00     2400.00
01892            -400.00     2400.00
01893            -400.00     2400.00
01894            -400.00     2320.00
01895            -400.00     2320.00
01896            -400.00     2320.00
01897            -400.00     2280.00
01898            -360.00     2240.00
01899            -360.00     2240.00
01900            -400.00     2200.00
01901            -400.00     2160.00
01902            -360.00     2160.00
01903            -360.00     2160.00
01904            -360.00     2080.00
01905            -360.00     2080.00
01906            -360.00     2040.00
01907            -360.00     2080.00
01908            -360.00     2040.00
01909            -360.00     2000.00
01910            -360.00     2000.00
01911            -320.00     1960.00
01912            -360.00     1920.00
01913            -360.00     1880.00
01914            -360.00     1880.00
01915            -280.00     1880.00
01916            -360.00     1840.00
01917            -280.00     1840.00
01918            -360.00     1800.00
01919            -320.00     1760.00
01920            -280.00     1720.00
01921            -320.00     1760.00
01922            -280.00     1680.00
01923            -280.00     1680.00
01924            -280.00     1680.00
01925            -280.00     1640.00
01926            -280.00     1560.00
01927            -280.00     1560.00
01928            -240.00     1560.00
01929            -280.00     1520.00
01930            -280.00     1520.00
01931            -240.00     1520.00
01932            -280.00     1440.00
01933            -240.00     1440.00
01934            -240.00     1400.00
01935            -240.00     1400.00
01936            -240.00     1360.00
01937            -240.00     1360.00
01938            -240.00     1280.00
01939            -200.00     1280.00
01940            -240.00     1240.00
01941            -240.00     1240.00
01942            -240.00     1200.00
01943            -200.00     1200.00
01944            -240.00     1160.00
01945            -240.00     1120.00
01946            -240.00     1120.00
01947            -240.00     1120.00
01948            -200.00     1080.00
01949            -200.00     1040.00
01950            -200.00     1000.00
01951            -200.00      960.00
01952            -200.00      960.00
01953            -200.00      920.00
01954            -200.00      920.00
01955            -160.00      880.00
01956            -160.00      840.00
01957            -200.00      800.00
01958            -120.00      800.00
01959            -120.00      760.00
01960            -120.00      720.00
01961            -120.00      720.00
01962            -120.00      720.00
01963            -120.00      640.00
01964            -120.00      640.00
01965            -120.00      600.00
01966            -120.00      600.00
01967            -120.00      560.00
01968            -120.00      560.00
01969            -120.00      560.00
01970            -120.00      480.00
01971            -120.00      480.00
01972            -120.00      440.00
01973             -80.00      400.00
01974             -80.00      400.00
01975             -80.00      360.00
01976             -80.00      320.00
01977             -80.00      320.00
01978             -80.00      280.00
01979             -80.00      240.00
01980             -80.00      200.00
01981             -40.00      240.00
01982             -80.00      160.00
01983             -80.00      120.00
01984             -80.00      120.00
01985             -80.00       80.00
01986             -40.00       80.00
01987             -40.00        0.00
01988             -80.00        0.00
01989             -40.00        0.00
01990             -40.00      -40.00
01991             -40.00      -80.00
01992             -40.00      -80.00
01993             -40.00      -80.00
01994             -40.00     -160.00
01995             -40.00     -160.00
01996             -40.00     -160.00
01997              40.00     -200.00
01998             -40.00     -240.00
01999              40.00     -240.00
02000              40.00     -280.00
02001              40.00     -360.00
02002             -40.00     -400.00
02003             -80.00     -400.00
02004              40.00     -400.00
02005              80.00     -440.00
02006              40.00     -480.00
02007              40.00     -480.00
02008              80.00     -480.00
02009              40.00     -560.00
02010              40.00     -560.00
02011              80.00     -560.00
02012              80.00     -640.00
02013              40.00     -640.00
02014              80.00     -680.00
02015              80.00     -720.00
02016              80.00     -720.00
02017              80.00     -760.00
02018              80.00     -760.00
02019              80.00     -840.00
02020              80.00     -840.00
02021              80.00     -880.00
02022             120.00     -880.00
02023              80.00     -920.00
02024              80.00     -960.00
02025             120.00     -920.00
02026             120.00    -1000.00
02027             120.00    -1000.00
02028             120.00    -1040.00
02029             120.00    -1080.00
02030             120.00    -1120.00
02031             120.00    -1120.00
02032             120.00    -1160.00
02033             120.00    -1200.00
02034             120.00    -1160.00
02035             160.00    -1240.00
02036             160.00    -1240.00
02037             200.00    -1280.00
02038             200.00    -1320.00
02039             200.00    -1320.00
02040             200.00    -1360.00
02041             200.00    -1360.00
02042             200.00    -1400.00
02043             200.00    -1440.00
02044             200.00    -1480.00
02045             200.00    -1480.00
02046             200.00    -1480.00
02047             200.00    -1520.00
02048             200.00    -1560.00
02049             200.00    -1600.00
02050             200.00    -1600.00
02051             200.00    -1640.00
02052             200.00    -1640.00
02053             240.00    -1680.00
02054             240.00    -1720.00
02055             200.00    -1760.00
02056             240.00    -1720.00
02057             240.00    -1800.00
02058             200.00    -1800.00
02059             240.00    -1840.00
02060             240.00    -1840.00
02061             240.00    -1840.00
02062             240.00    -1920.00
02063             240.00    -1920.00
02064             280.00    -1920.00
02065             240.00    -1960.00
02066             280.00    -1960.00
02067             280.00    -2000.00
02068             280.00    -2000.00
02069             280.00    -2080.00
02070             240.00    -2080.00
02071             280.00    -2080.00
02072             280.00    -2120.00
02073             280.00    -2160.00
02074             280.00    -2160.00
02075             280.00    -2200.00
02076             360.00    -2200.00
02077             360.00    -2240.00
02078             280.00    -2280.00
02079             360.00    -2280.00
02080             360.00    -2280.00
02081             360.00    -2360.00
02082             360.00    -2400.00
02083             360.00    -2400.00
02084             360.00    -2400.00
02085             360.00    -2440.00
02086             360.00    -2440.00
02087             400.00    -2480.00
02088             400.00    -2480.00
02089             360.00    -2480.00
02090             360.00    -2520.00
02091             400.00    -2560.00
02092             360.00    -2560.00
02093             400.00    -2600.00
02094             400.00    -2600.00
02095             400.00    -2640.00
02096             400.00    -2640.00
02097             400.00    -2680.00
02098             400.00    -2680.00
02099             400.00    -2760.00
02100             400.00    -2720.00
02101             400.00    -2760.00
02102             400.00    -2800.00
02103             440.00    -2840.00
02104             440.00    -2840.00
02105             400.00    -2880.00
02106             440.00    -2880.00
02107             440.00    -2880.00
02108             440.00    -2880.00
02109             440.00    -2960.00
02110             400.00    -2960.00
02111             440.00    -2960.00
02112             400.00    -2960.00
02113             440.00    -3000.00
02114             440.00    -3040.00
02115             440.00    -3040.00
02116             440.00    -3080.00
02117             480.00    -3080.00
02118             440.00    -3120.00
02119             440.00    -3120.00
02120             480.00    -3120.00
02121             440.00    -3120.00
02122             520.00    -3160.00
02123             520.00    -3200.00
02124             440.00    -3200.00
02125             440.00    -3240.00
02126             440.00    -3280.00
02127             480.00    -3240.00
02128             520.00    -3280.00
02129             480.00    -3280.00
02130             480.00    -3280.00
02131             480.00    -3320.00
02132             520.00    -3360.00
02133             520.00    -3360.00
02134             520.00    -3400.00
02135             520.00    -3400.00
02136             520.00    -3440.00
02137             520.00    -3440.00
02138             520.00    -3440.00
02139             520.00    -3440.00
02140             520.00    -3480.00
02141             520.00    -3520.00
02142             520.00    -3480.00
02143             520.00    -3520.00
02144             560.00    -3560.00
02145             520.00    -3560.00
02146             520.00    -3560.00
02147             520.00    -3560.00
02148             560.00    -3600.00
02149             520.00    -3600.00
02150             560.00    -3640.00
02151             560.00    -3680.00
02152             560.00    -3680.00
02153             560.00    -3680.00
02154             560.00    -3680.00
02155             560.00    -3720.00
02156             560.00    -3720.00
02157             560.00    -3720.00
02158             560.00    -3720.00
02159             560.00    -3760.00
02160             600.00    -3760.00
02161             560.00    -3760.00
02162             560.00    -3760.00
02163             600.00    -3840.00
02164             560.00    -3840.00
02165             600.00    -3840.00
02166             560.00    -3840.00
02167             560.00    -3840.00
02168             600.00    -3840.00
02169             560.00    -3880.00
02170             600.00    -3880.00
02171             600.00    -3880.00
02172             560.00    -3880.00
02173             640.00    -3920.00
02174             600.00    -3920.00
02175             600.00    -3920.00
02176             560.00    -3920.00
02177             600.00    -4000.00
02178             600.00    -3960.00
02179             600.00    -4000.00
02180             600.00    -4000.00
02181             600.00    -4000.00
02182             600.00    -4000.00
02183             600.00    -4040.00
02184             600.00    -4040.00
02185             600.00    -4040.00
02186             560.00    -4040.00
02187             600.00    -4040.00
02188             640.00    -4040.00
02189             600.00    -4080.00
02190             640.00    -4080.00
02191             600.00    -4120.00
02192             600.00    -4080.00
02193             600.00    -4080.00
02194             600.00    -4120.00
02195             600.00    -4120.00
02196             680.00    -4120.00
02197             600.00    -4120.00
02198             600.00    -4160.00
02199             600.00    -4160.00
02200             640.00    -4160.00
02201             600.00    -4200.00
02202             680.00    -4160.00
02203             600.00    -4200.00
02204             640.00    -4200.00
02205             640.00    -4160.00
02206             640.00    -4200.00
02207             680.00    -4200.00
02208             680.00    -4240.00
02209             640.00    -4200.00
02210             680.00    -4240.00
02211             680.00    -4200.00
02212             640.00    -4240.00
02213             680.00    -4200.00
02214             680.00    -4240.00
02215             680.00    -4240.00
02216             680.00    -4240.00
02217             680.00    -4240.00
02218             680.00    -4240.00
02219             680.00    -4240.00
02220             680.00    -4280.00
02221             680.00    -4240.00
02222             680.00    -4280.00
02223             680.00    -4240.00
02224             680.00    -4280.00
02225             720.00    -4280.00
02226             680.00    -4280.00
02227             680.00    -4280.00
02228             680.00    -4280.00
02229             680.00    -4280.00
02230             680.00    -4280.00
02231             680.00    -4280.00
02232             680.00    -4320.00
02233             680.00    -4280.00
02234             680.00    -4280.00
02235             680.00    -4280.00
02236             680.00    -4320.00
02237             680.00    -4320.00
02238             680.00    -4280.00
02239             720.00    -4320.00
02240             680.00    -4320.00
02241             680.00    -4320.00
02242             680.00    -4320.00
02243             680.00    -4320.00
02244             680.00    -4320.00
02245             680.00    -4320.00
02246             680.00    -4320.00
02247             680.00    -4320.00
02248             680.00    -4280.00
02249             680.00    -4320.00
02250             680.00    -4280.00
02251             680.00    -4280.00
02252             680.00    -4320.00
02253             680.00    -4320.00
02254             680.00    -4280.00
02255             680.00    -4240.00
02256             680.00    -4280.00
02257             680.00    -4280.00
02258             680.00    -4320.00
02259             680.00    -4240.00
02260             680.00    -4280.00
02261             680.00    -4240.00
02262             680.00    -4240.00
02263             680.00    -4240.00
02264             600.00    -4240.00
02265             680.00    -4240.00
02266             680.00    -4240.00
02267             680.00    -4240.00
02268             680.00    -4240.00
02269             680.00    -4200.00
02270             680.00    -4240.00
02271             680.00    -4200.00
02272             680.00    -4240.00
02273             680.00    -4200.00
02274             720.00    -4200.00
02275             680.00    -4200.00
02276             680.00    -4240.00
02277             680.00    -4200.00
02278             680.00    -4160.00
02279             680.00    -4200.00
02280             680.00    -4160.00
02281             680.00    -4200.00
02282             680.00    -4160.00
02283             680.00    -4160.00
02284             680.00    -4160.00
02285             680.00    -4160.00
02286             680.00    -4160.00
02287             680.00    -4160.00
02288             680.00    -4120.00
02289             680.00    -4120.00
02290             680.00    -4160.00
02291             680.00    -4080.00
02292             680.00    -4080.00
02293             680.00    -4080.00
02294             680.00    -4080.00
02295             680.00    -4080.00
02296             640.00    -4040.00
02297             680.00    -4040.00
02298             680.00    -4040.00
02299             680.00    -4040.00
02300             680.00    -4040.00
02301             680.00    -4000.00
02302             680.00    -4000.00
02303             680.00    -3960.00
02304             680.00    -3960.00
02305             680.00    -4000.00
02306             680.00    -3920.00
02307             680.00    -3960.00
02308             600.00    -3920.00
02309             600.00    -3920.00
02310             600.00    -3920.00
02311             600.00    -3880.00
02312             600.00    -3920.00
02313             600.00    -3840.00
02314             600.00    -3880.00
02315             600.00    -3880.00
02316             600.00    -3840.00
02317             600.00    -3840.00
02318             600.00    -3840.00
02319             600.00    -3760.00
02320             600.00    -3800.00
02321             600.00    -3800.00
02322             560.00    -3760.00
02323             600.00    -3760.00
02324             600.00    -3760.00
02325             600.00    -3720.00
02326             560.00    -3720.00
02327             600.00    -3720.00
02328             560.00    -3680.00
02329             600.00    -3680.00
02330             600.00    -3680.00
02331             560.00    -3640.00
02332             600.00    -3640.00
02333             600.00    -3600.00
02334             600.00    -3600.00
02335             560.00    -3600.00
02336             560.00    -3560.00
02337             560.00    -3600.00
02338             600.00    -3560.00
02339             600.00    -3520.00
02340             560.00    -3520.00
02341             600.00    -3480.00
02342             520.00    -3480.00
02343             560.00    -3480.00
02344             560.00    -3440.00
02345             560.00    -3440.00
02346             560.00    -3440.00
02347             560.00    -3400.00
02348             560.00    -3400.00
02349             560.00    -3400.00
02350             520.00    -3360.00
02351             560.00    -3360.00
02352             560.00    -3360.00
02353             520.00    -3280.00
02354             520.00    -3320.00
02355             560.00    -3280.00
02356             520.00    -3280.00
02357             560.00    -3280.00
02358             560.00    -3240.00
02359             520.00    -3200.00
02360             520.00    -3200.00
02361             520.00    -3200.00
02362             520.00    -3160.00
02363             520.00    -3120.00
02364             520.00    -3120.00
02365             520.00    -3120.00
02366             520.00    -3080.00
02367             520.00    -3040.00
02368             520.00    -3040.00
02369             520.00    -3040.00
02370             520.00    -3040.00
02371             520.00    -3040.00
02372             520.00    -2960.00
02373             480.00    -2960.00
02374             520.00    -2920.00
02375             520.00    -2920.00
02376             440.00    -2880.00
02377             440.00    -2880.00
02378             520.00    -2880.00
02379             440.00    -2840.00
02380             440.00    -2840.00
02381             440.00    -2800.00
02382             440.00    -2800.00
02383             440.00    -2760.00
02384             440.00    -2720.00
02385             440.00    -2720.00
02386             440.00    -2680.00
02387             440.00    -2640.00
02388             440.00    -2640.00
02389             440.00    -2640.00
02390             440.00    -2600.00
02391             440.00    -2600.00
02392             440.00    -2560.00
02393             440.00    -2560.00
02394             440.00    -2560.00
02395             400.00    -2520.00
02396             400.00    -2480.00
02397             400.00    -2480.00
02398             400.00    -2440.00
02399             400.00    -2440.00
02400             400.00    -2400.00
02401             400.00    -2360.00
02402             400.00    -2320.00
02403             400.00    -2320.00
02404             400.00    -2320.00
02405             400.00    -2280.00
02406             400.00    -2280.00
02407             360.00    -2200.00
02408             400.00    -2240.00
02409             400.00    -2200.00
02410             360.00    -2160.00
02411             360.00    -2160.00
02412             400.00    -2120.00
02413             360.00    -2120.00
02414             360.00    -2080.00
02415             360.00    -2040.00
02416             400.00    -2000.00
02417             400.00    -2000.00
02418             360.00    -2000.00
02419             360.00    -1960.00
02420             400.00    -1960.00
02421             360.00    -1920.00
02422             360.00    -1880.00
02423             360.00    -1840.00
02424             360.00    -1840.00
02425             320.00    -1840.00
02426             360.00    -1800.00
02427             360.00    -1760.00
02428             280.00    -1720.00
02429             360.00    -1760.00
02430             360.00    -1680.00
02431             280.00    -1680.00
02432             280.00    -1640.00
02433             280.00    -1640.00
02434             280.00    -1600.00
02435             280.00    -1600.00
02436             280.00    -1560.00
02437             280.00    -1560.00
02438             280.00    -1520.00
02439             280.00    -1480.00
02440             280.00    -1440.00
02441             240.00    -1440.00
02442             240.00    -1440.00
02443             240.00    -1360.00
02444             240.00    -1360.00
02445             240.00    -1320.00
02446             240.00    -1320.00
02447             240.00    -1280.00
02448             200.00    -1280.00
02449             200.00    -1280.00
02450             240.00    -1240.00
02451             240.00    -1200.00
02452             200.00    -1200.00
02453             240.00    -1120.00
02454             200.00    -1120.00
02455             200.00    -1120.00
02456             200.00    -1040.00
02457             200.00    -1040.00
02458             240.00    -1000.00
02459             200.00     -960.00
02460             200.00     -920.00
02461             200.00     -880.00
02462             200.00     -920.00
02463             160.00     -880.00
02464             200.00     -840.00
02465             160.00     -800.00
02466             160.00     -800.00
02467             120.00     -800.00
02468             200.00     -760.00
02469             120.00     -720.00
02470             120.00     -680.00
02471             160.00     -680.00
02472             120.00     -680.00
02473             120.00     -640.00
02474             120.00     -640.00
02475             120.00     -560.00
02476             120.00     -560.00
02477             120.00     -520.00
02478              80.00     -480.00
02479             120.00     -480.00
02480             120.00     -440.00
02481             120.00     -440.00
02482             120.00     -400.00
02483              80.00     -360.00
02484              80.00     -320.00
02485              80.00     -280.00
02486              80.00     -320.00
02487              80.00     -240.00
02488              80.00     -200.00
02489              80.00     -200.00
02490              80.00     -200.00
02491              80.00     -160.00
02492              40.00     -160.00
02493              80.00     -120.00
02494              40.00      -80.00
02495              80.00      -40.00
02496              40.00      -40.00
02497              40.00      -40.00
02498              40.00       40.00
02499              40.00       80.00
02500              40.00       80.00
02501              40.00      120.00
02502              40.00      120.00
02503               0.00      160.00
02504             -40.00      200.00
02505              40.00      200.00
02506               0.00      240.00
02507              40.00      320.00
02508              40.00      360.00
02509               0.00      320.00
02510             -80.00      280.00
02511             -80.00      360.00
02512             -40.00      400.00
02513              40.00      440.00
02514               0.00      440.00
02515             -40.00      480.00
02516             -80.00      480.00
02517             -80.00      480.00
02518             -80.00      560.00
02519             -40.00      600.00
02520             -40.00      600.00
02521             -80.00      640.00
02522             -80.00      640.00
02523             -80.00      720.00
02524             -80.00      680.00
02525             -80.00      760.00
02526             -80.00      760.00
02527             -80.00      800.00
02528            -120.00      800.00
02529            -120.00      840.00
02530             -80.00      880.00
02531             -80.00      880.00
02532            -120.00      920.00
02533            -120.00      960.00
02534            -120.00      960.00
02535            -120.00     1000.00
02536            -120.00     1080.00
02537            -120.00     1080.00
02538            -120.00     1080.00
02539            -120.00     1120.00
02540            -120.00     1120.00
02541            -160.00     1160.00
02542            -120.00     1200.00
02543            -120.00     1240.00
02544            -120.00     1200.00
02545            -160.00     1280.00
02546            -120.00     1280.00
02547            -120.00     1320.00
02548            -120.00     1360.00
02549            -120.00     1360.00
02550            -120.00     1400.00
02551            -160.00     1440.00
02552            -200.00     1440.00
02553            -200.00     1480.00
02554            -120.00     1480.00
02555            -200.00     1560.00
02556            -200.00     1560.00
02557            -200.00     1600.00
02558            -200.00     1640.00
02559            -200.00     1600.00
02560            -240.00     1680.00
02561            -200.00     1680.00
02562            -200.00     1680.00
02563            -240.00     1720.00
02564            -200.00     1760.00
02565            -240.00     1760.00
02566            -240.00     1800.00
02567            -240.00     1840.00
02568            -240.00     1840.00
02569            -240.00     1840.00
02570            -280.00     1880.00
02571            -280.00     1920.00
02572            -240.00     1920.00
02573            -280.00     2000.00
02574            -240.00     2000.00
02575            -240.00     2040.00
02576            -280.00     2040.00
02577            -280.00     2040.00
02578            -280.00     2080.00
02579            -320.00     2080.00
02580            -280.00     2160.00
02581            -320.00     2160.00
02582            -320.00     2160.00
02583            -280.00     2160.00
02584            -360.00     2240.00
02585            -360.00     2240.00
02586            -360.00     2240.00
02587            -320.00     2280.00
02588            -360.00     2320.00
02589            -360.00     2320.00
02590            -360.00     2360.00
02591            -360.00     2400.00
02592            -360.00     2400.00
02593            -360.00     2400.00
02594            -360.00     2440.00
02595            -360.00     2480.00
02596            -360.00     2480.00
02597            -360.00     2520.00
02598            -400.00     2520.00
02599            -360.00     2560.00
02600            -360.00     2560.00
02601            -360.00     2560.00
02602            -400.00     2640.00
02603            -400.00     2640.00
02604            -400.00     2640.00
02605            -400.00     2680.00
02606            -400.00     2720.00
02607            -400.00     2720.00
02608            -400.00     2760.00
02609            -400.00     2760.00
02610            -400.00     2800.00
02611            -400.00     2800.00
02612            -400.00     2840.00
02613            -400.00     2840.00
02614            -440.00     2880.00
02615            -440.00     2920.00
02616            -400.00     2960.00
02617            -400.00     2920.00
02618            -440.00     3000.00
02619            -440.00     2960.00
02620            -440.00     2960.00
02621            -440.00     3000.00
02622            -440.00     3040.00
02623            -440.00     3080.00
02624            -440.00     3040.00
02625            -440.00     3080.00
02626            -440.00     3120.00
02627            -440.00     3120.00
02628            -480.00     3160.00
02629            -440.00     3160.00
02630            -440.00     3160.00
02631            -440.00     3160.00
02632            -440.00     3200.00
02633            -520.00     3200.00
02634            -480.00     3240.00
02635            -520.00     3280.00
02636            -520.00     3280.00
02637            -520.00     3280.00
02638            -440.00     3320.00
02639            -520.00     3280.00
02640            -520.00     3360.00
02641            -520.00     3360.00
02642            -520.00     3360.00
02643            -520.00     3360.00
02644            -520.00     3440.00
02645            -560.00     3440.00
02646            -520.00     3440.00
02647            -520.00     3480.00
02648            -520.00     3480.00
02649            -480.00     3480.00
02650            -520.00     3480.00
02651            -520.00     3480.00
02652            -520.00     3520.00
02653            -560.00     3520.00
02654            -560.00     3600.00
02655            -560.00     3600.00
02656            -520.00     3600.00
02657            -520.00     3640.00
02658            -560.00     3600.00
02659            -560.00     3640.00
02660            -560.00     3640.00
02661            -560.00     3680.00
02662            -560.00     3680.00
02663            -560.00     3680.00
02664            -560.00     3720.00
02665            -560.00     3760.00
02666            -560.00     3760.00
02667            -560.00     3760.00
02668            -560.00     3760.00
02669            -560.00     3760.00
02670            -560.00     3760.00
02671            -560.00     3840.00
02672            -560.00     3840.00
02673            -560.00     3840.00
02674            -560.00     3840.00
02675            -560.00     3880.00
02676            -560.00     3840.00
02677            -560.00     3880.00
02678            -560.00     3920.00
02679            -560.00     3920.00
02680            -560.00     3920.00
02681            -600.00     3920.00
02682            -560.00     3920.00
02683            -560.00     3920.00
02684            -560.00     3920.00
02685            -560.00     3960.00
02686            -600.00     4000.00
02687            -600.00     3960.00
02688            -600.00     3960.00
02689            -600.00     3960.00
02690            -560.00     4000.00
02691            -600.00     4040.00
02692            -600.00     4040.00
02693            -600.00     4000.00
02694            -560.00     4040.00
02695            -600.00     4080.00
02696            -600.00     4080.00
02697            -600.00     4080.00
02698            -600.00     4080.00
02699            -600.00     4080.00
02700            -640.00     4120.00
02701            -600.00     4120.00
02702            -640.00     4120.00
02703            -600.00     4120.00
02704            -640.00     4120.00
02705            -640.00     4160.00
02706            -600.00     4160.00
02707            -600.00     4160.00
02708            -640.00     4200.00
02709            -640.00     4200.00
02710            -600.00     4160.00
02711            -640.00     4200.00
02712            -680.00     4200.00
02713            -680.00     4200.00
02714            -680.00     4240.00
02715            -680.00     4200.00
02716            -680.00     4240.00
02717            -680.00     4240.00
02718            -640.00     4240.00
02719            -680.00     4240.00
02720            -680.00     4240.00
02721            -680.00     4240.00
02722            -640.00     4240.00
02723            -680.00     4240.00
02724            -680.00     4240.00
02725            -640.00     4240.00
02726            -680.00     4280.00
02727            -680.00     4280.00
02728            -640.00     4280.00
02729            -680.00     4280.00
02730            -680.00     4280.00
02731            -680.00     4240.00
02732            -680.00     4280.00
02733            -680.00     4280.00
02734            -600.00     4280.00
02735            -680.00     4280.00
02736            -680.00     4320.00
02737            -680.00     4320.00
02738            -680.00     4320.00
02739            -680.00     4280.00
02740            -680.00     4320.00
02741            -600.00     4280.00
02742            -640.00     4320.00
02743            -640.00     4320.00
02744            -640.00     4320.00
02745            -640.00     4320.00
02746            -640.00     4320.00
02747            -680.00     4320.00
02748            -680.00     4280.00
02749            -680.00     4320.00
02750            -640.00     4320.00
02751            -600.00     4280.00
02752            -680.00     4280.00
02753            -680.00     4320.00
02754            -640.00     4320.00
02755            -680.00     4280.00
02756            -680.00     4320.00
02757            -600.00     4280.00
02758            -680.00     4280.00
02759            -720.00     4320.00
02760            -600.00     4280.00
02761            -720.00     4280.00
02762            -680.00     4280.00
02763            -680.00     4280.00
02764            -680.00     4280.00
02765            -680.00     4280.00
02766            -680.00     4280.00
02767            -680.00     4280.00
02768            -680.00     4320.00
02769            -720.00     4280.00
02770            -680.00     4280.00
02771            -680.00     4280.00
02772            -680.00     4240.00
02773            -680.00     4240.00
02774            -680.00     4240.00
02775            -680.00     4240.00
02776            -680.00     4240.00
02777            -640.00     4240.00
02778            -680.00     4240.00
02779            -640.00     4240.00
02780            -680.00     4240.00
02781            -680.00     4240.00
02782            -680.00     4240.00
02783            -680.00     4240.00
02784            -680.00     4200.00
02785            -680.00     4200.00
02786            -680.00     4200.00
02787            -680.00     4160.00
02788            -680.00     4160.00
02789            -680.00     4160.00
02790            -680.00     4200.00
02791            -640.00     4200.00
02792            -680.00     4160.00
02793            -640.00     4200.00
02794            -680.00     4160.00
02795            -600.00     4160.00
02796            -640.00     4120.00
02797            -680.00     4120.00
02798            -640.00     4120.00
02799            -680.00     4120.00
02800            -640.00     4120.00
02801            -680.00     4120.00
02802            -680.00     4080.00
02803            -600.00     4080.00
02804            -600.00     4080.00
02805            -640.00     4040.00
02806            -600.00     4040.00
02807            -600.00     4040.00
02808            -600.00     4000.00
02809            -640.00     4000.00
02810            -600.00     4000.00
02811            -600.00     4000.00
02812            -600.00     4000.00
02813            -600.00     4000.00
02814            -600.00     3960.00
02815            -600.00     3960.00
02816            -600.00     3960.00
02817            -600.00     3920.00
02818            -640.00     3920.00
02819            -600.00     3920.00
02820            -600.00     3920.00
02821            -600.00     3880.00
02822            -600.00     3880.00
02823            -600.00     3880.00
02824            -600.00     3840.00
02825            -640.00     3840.00
02826            -600.00     3840.00
02827            -600.00     3840.00
02828            -600.00     3840.00
02829            -600.00     3800.00
02830            -600.00     3800.00
02831            -600.00     3760.00
02832            -600.00     3760.00
02833            -600.00     3760.00
02834            -600.00     3760.00
02835            -600.00     3760.00
02836            -600.00     3680.00
02837            -600.00     3680.00
02838            -560.00     3680.00
02839            -600.00     3640.00
02840            -600.00     3680.00
02841            -600.00     3640.00
02842            -560.00     3640.00
02843            -600.00     3640.00
02844            -600.00     3600.00
02845            -600.00     3600.00
02846            -560.00     3560.00
02847            -560.00     3520.00
02848            -560.00     3520.00
02849            -600.00     3520.00
02850            -600.00     3520.00
02851            -560.00     3480.00
02852            -560.00     3480.00
02853            -560.00     3480.00
02854            -560.00     3440.00
02855            -560.00     3440.00
02856            -560.00     3440.00
02857            -560.00     3400.00
02858            -560.00     3360.00
02859            -560.00     3360.00
02860            -560.00     3360.00
02861            -560.00     3360.00
02862            -520.00     3320.00
02863            -560.00     3320.00
02864            -520.00     3280.00
02865            -560.00     3280.00
02866            -520.00     3240.00
02867            -560.00     3240.00
02868            -520.00     3200.00
02869            -520.00     3200.00
02870            -520.00     3200.00
02871            -480.00     3200.00
02872            -520.00     3160.00
02873            -520.00     3120.00
02874            -440.00     3120.00
02875            -520.00     3120.00
02876            -480.00     3080.00
02877            -520.00     3040.00
02878            -440.00     3040.00
02879            -520.00     3000.00
02880            -480.00     2960.00
02881            -480.00     3000.00
02882            -440.00     2960.00
02883            -520.00     2960.00
02884            -440.00     2920.00
02885            -440.00     2880.00
02886            -440.00     2880.00
02887            -440.00     2840.00
02888            -440.00     2880.00
02889            -440.00     2800.00
02890            -440.00     2800.00
02891            -440.00     2760.00
02892            -440.00     2760.00
02893            -440.00     2720.00
02894            -440.00     2720.00
02895            -440.00     2680.00
02896            -440.00     2680.00
02897            -440.00     2680.00
02898            -440.00     2640.00
02899            -440.00     2640.00
02900            -440.00     2560.00
02901            -440.00     2560.00
02902            -440.00     2520.00
02903            -440.00     2520.00
02904            -440.00     2520.00
02905            -440.00     2480.00
02906            -440.00     2480.00
02907            -440.00     2440.00
02908            -400.00     2400.00
02909            -440.00     2400.00
02910            -400.00     2360.00
02911            -440.00     2360.00
02912            -440.00     2360.00
02913            -400.00     2320.00
02914            -400.00     2320.00
02915            -400.00     2240.00
02916            -400.00     2240.00
02917            -400.00     2200.00
02918            -360.00     2200.00
02919            -400.00     2160.00
02920            -400.00     2160.00
02921            -400.00     2160.00
02922            -400.00     2080.00
02923            -360.00     2080.00
02924            -360.00     2080.00
02925            -360.00     2040.00
02926            -360.00     2040.00
02927            -360.00     2000.00
02928            -360.00     2000.00
02929            -360.00     1920.00
02930            -360.00     1880.00
02931            -360.00     1880.00
02932            -360.00     1880.00
02933            -360.00     1840.00
02934            -280.00     1840.00
02935            -320.00     1800.00
02936            -240.00     1760.00
02937            -280.00     1760.00
02938            -280.00     1720.00
02939            -280.00     1680.00
02940            -280.00     1680.00
02941            -280.00     1680.00
02942            -240.00     1640.00
02943            -280.00     1600.00
02944            -280.00     1560.00
02945            -240.00     1560.00
02946            -240.00     1560.00
02947            -240.00     1520.00
02948            -240.00     1520.00
02949            -240.00     1440.00
02950            -240.00     1440.00
02951            -240.00     1440.00
02952            -240.00     1400.00
02953            -240.00     1360.00
02954            -240.00     1320.00
02955            -240.00     1320.00
02956            -240.00     1280.00
02957            -240.00     1280.00
02958            -240.00     1240.00
02959            -200.00     1200.00
02960            -200.00     1200.00
02961            -240.00     1200.00
02962            -200.00     1120.00
02963            -240.00     1120.00
02964            -240.00     1080.00
02965            -200.00     1080.00
02966            -200.00     1040.00
02967            -200.00     1040.00
02968            -200.00      960.00
02969            -200.00      960.00
02970            -200.00      920.00
02971            -200.00      880.00
02972            -200.00      880.00
02973            -160.00      840.00
02974            -160.00      840.00
02975            -200.00      800.00
02976            -160.00      760.00
02977            -200.00      760.00
02978            -120.00      720.00
02979            -160.00      680.00
02980            -160.00      680.00
02981            -120.00      640.00
02982            -200.00      640.00
02983            -120.00      600.00
02984            -120.00      560.00
02985            -120.00      560.00
02986            -120.00      520.00
02987            -120.00      480.00
02988            -120.00      480.00
02989            -120.00      440.00
02990            -120.00      400.00
02991            -120.00      400.00
02992            -120.00      360.00
02993             -80.00      360.00
02994             -80.00      320.00
02995             -80.00      280.00
02996             -80.00      280.00
02997             -80.00      240.00
02998             -40.00      240.00
02999             -80.00      160.00
03000             -40.00      160.00
03001             -80.00      120.00
03002             -40.00       80.00
03003             -80.00       40.00
03004               0.00       80.00
03005             -40.00        0.00
03006             -40.00        0.00
03007               0.00      -40.00
03008             -40.00      -40.00
03009             -40.00      -80.00
03010               0.00      -80.00
03011               0.00     -160.00
03012              40.00     -160.00
03013             -40.00     -160.00
03014              40.00     -240.00
03015              40.00     -240.00
03016              40.00     -240.00
03017              80.00     -280.00
03018              40.00     -360.00
03019             -40.00     -400.00
03020             -40.00     -400.00
03021              40.00     -360.00
03022              80.00     -440.00
03023              40.00     -440.00
03024              40.00     -480.00
03025              80.00     -520.00
03026              40.00     -560.00
03027              40.00     -560.00
03028              40.00     -560.00
03029              80.00     -640.00
03030              40.00     -640.00
03031              40.00     -680.00
03032              80.00     -680.00
03033              80.00     -720.00
03034              80.00     -760.00
03035              80.00     -800.00
03036              80.00     -840.00
03037              80.00     -840.00
03038              80.00     -880.00
03039              80.00     -880.00
03040              80.00     -920.00
03041              80.00     -920.00
03042              80.00     -960.00
03043              80.00     -960.00
03044              80.00    -1000.00
03045             120.00    -1040.00
03046             120.00    -1040.00
03047             120.00    -1120.00
03048              80.00    -1080.00
03049              80.00    -1160.00
03050             120.00    -1160.00
03051             120.00    -1200.00
03052             120.00    -1240.00
03053             200.00    -1240.00
03054             200.00    -1280.00
03055             200.00    -1280.00
03056             160.00    -1320.00
03057             200.00    -1320.00
03058             200.00    -1360.00
03059             200.00    -1440.00
03060             200.00    -1440.00
03061             200.00    -1440.00
03062             200.00    -1480.00
03063             200.00    -1480.00
03064             200.00    -1520.00
03065             200.00    -1560.00
03066             240.00    -1600.00
03067             200.00    -1600.00
03068             240.00    -1640.00
03069             240.00    -1640.00
03070             240.00    -1680.00
03071             240.00    -1680.00
03072             240.00    -1720.00
03073             240.00    -1760.00
03074             240.00    -1760.00
03075             240.00    -1800.00
03076             240.00    -1800.00
03077             280.00    -1840.00
03078             240.00    -1920.00
03079             280.00    -1880.00
03080             240.00    -1920.00
03081             280.00    -1920.00
03082             280.00    -1960.00
03083             280.00    -2000.00
03084             280.00    -2000.00
03085             280.00    -2000.00
03086             280.00    -2040.00
03087             280.00    -2080.00
03088             280.00    -2120.00
03089             320.00    -2160.00
03090             280.00    -2160.00
03091             280.00    -2160.00
03092             280.00    -2160.00
03093             280.00    -2200.00
03094             280.00    -2240.00
03095             280.00    -2240.00
03096             360.00    -2280.00
03097             280.00    -2320.00
03098             320.00    -2320.00
03099             360.00    -2360.00
03100             320.00    -2400.00
03101             320.00    -2400.00
03102             360.00    -2440.00
03103             360.00    -2480.00
03104             360.00    -2440.00
03105             360.00    -2480.00
03106             360.00    -2520.00
03107             360.00    -2560.00
03108             360.00    -2560.00
03109             360.00    -2560.00
03110             360.00    -2600.00
03111             400.00    -2600.00
03112             360.00    -2640.00
03113             400.00    -2640.00
03114             360.00    -2640.00
03115             360.00    -2720.00
03116             400.00    -2720.00
03117             360.00    -2760.00
03118             400.00    -2760.00
03119             400.00    -2760.00
03120             400.00    -2800.00
03121             400.00    -2800.00
03122             400.00    -2840.00
03123             440.00    -2880.00
03124             440.00    -2920.00
03125             400.00    -2920.00
03126             440.00    -2920.00
03127             440.00    -2960.00
03128             440.00    -2960.00
03129             440.00    -2960.00
03130             440.00    -3000.00
03131             440.00    -3040.00
03132             440.00    -3040.00
03133             440.00    -3040.00
03134             440.00    -3080.00
03135             440.00    -3120.00
03136             440.00    -3120.00
03137             520.00    -3120.00
03138             480.00    -3120.00
03139             440.00    -3200.00
03140             480.00    -3200.00
03141             520.00    -3200.00
03142             520.00    -3200.00
03143             520.00    -3240.00
03144             520.00    -3280.00
03145             520.00    -3280.00
03146             520.00    -3280.00
03147             520.00    -3320.00
03148             520.00    -3320.00
03149             520.00    -3360.00
03150             520.00    -3360.00
03151             520.00    -3360.00
03152             520.00    -3360.00
03153             520.00    -3440.00
03154             520.00    -3440.00
03155             520.00    -3440.00
03156             520.00    -3480.00
03157             480.00    -3480.00
03158             520.00    -3480.00
03159             520.00    -3480.00
03160             560.00    -3520.00
03161             520.00    -3480.00
03162             520.00    -3560.00
03163             520.00    -3520.00
03164             520.00    -3560.00
03165             520.00    -3600.00
03166             520.00    -3600.00
03167             520.00    -3640.00
03168             560.00    -3600.00
03169             520.00    -3680.00
03170             560.00    -3680.00
03171             520.00    -3680.00
03172             520.00    -3680.00
03173             560.00    -3720.00
03174             560.00    -3720.00
03175             520.00    -3760.00
03176             560.00    -3760.00
03177             560.00    -3760.00
03178             560.00    -3760.00
03179             560.00    -3800.00
03180             560.00    -3800.00
03181             560.00    -3840.00
03182             560.00    -3840.00
03183             600.00    -3840.00
03184             600.00    -3880.00
03185             560.00    -3840.00
03186             560.00    -3880.00
03187             600.00    -3880.00
03188             600.00    -3880.00
03189             560.00    -3920.00
03190             560.00    -3920.00
03191             600.00    -3920.00
03192             600.00    -3960.00
03193             600.00    -3920.00
03194             600.00    -3960.00
03195             600.00    -3960.00
03196             640.00    -3960.00
03197             600.00    -4000.00
03198             600.00    -4000.00
03199             600.00    -4000.00
03200             600.00    -4040.00
03201             680.00    -4000.00
03202             600.00    -4000.00
03203             640.00    -4040.00
03204             600.00    -4040.00
03205             680.00    -4080.00
03206             600.00    -4080.00
03207             680.00    -4080.00
03208             680.00    -4080.00
03209             640.00    -4080.00
03210             600.00    -4080.00
03211             680.00    -4120.00
03212             680.00    -4120.00
03213             600.00    -4160.00
03214             640.00    -4160.00
03215             680.00    -4160.00
03216             680.00    -4160.00
03217             680.00    -4160.00
03218             680.00    -4160.00
03219             640.00    -4160.00
03220             640.00    -4200.00
03221             680.00    -4200.00
03222             640.00    -4160.00
03223             680.00    -4200.00
03224             600.00    -4200.00
03225             600.00    -4200.00
03226             680.00    -4200.00
03227             600.00    -4240.00
03228             640.00    -4200.00
03229             640.00    -4200.00
03230             680.00    -4240.00
03231             640.00    -4240.00
03232             680.00    -4240.00
03233             680.00    -4240.00
03234             680.00    -4240.00
03235             680.00    -4240.00
03236             680.00    -4240.00
03237             680.00    -4240.00
03238             680.00    -4240.00
03239             680.00    -4240.00
03240             680.00    -4280.00
03241             680.00    -4240.00
03242             680.00    -4280.00
03243             680.00    -4240.00
03244             680.00    -4280.00
03245             680.00    -4240.00
03246             680.00    -4240.00
03247             680.00    -4280.00
03248             680.00    -4280.00
03249             680.00    -4320.00
03250             680.00    -4280.00
03251             680.00    -4320.00
03252             680.00    -4320.00
03253             720.00    -4320.00
03254             680.00    -4280.00
03255             680.00    -4320.00
03256             680.00    -4320.00
03257             680.00    -4320.00
03258             680.00    -4320.00
03259             680.00    -4320.00
03260             680.00    -4320.00
03261             680.00    -4280.00
03262             680.00    -4280.00
03263             680.00    -4320.00
03264             720.00    -4280.00
03265             680.00    -4320.00
03266             680.00    -4240.00
03267             680.00    -4280.00
03268             720.00    -4280.00
03269             680.00    -4240.00
03270             680.00    -4240.00
03271             680.00    -4280.00
03272             680.00    -4240.00
03273             680.00    -4240.00
03274             680.00    -4240.00
03275             680.00    -4280.00
03276             680.00    -4240.00
03277             720.00    -4280.00
03278             680.00    -4240.00
03279             680.00    -4240.00
03280             680.00    -4240.00
03281             680.00    -4240.00
03282             680.00    -4240.00
03283             680.00    -4240.00
03284             680.00    -4240.00
03285             680.00    -4240.00
03286             680.00    -4200.00
03287             640.00    -4240.00
03288             680.00    -4240.00
03289             680.00    -4200.00
03290             680.00    -4200.00
03291             680.00    -4200.00
03292             680.00    -4200.00
03293             680.00    -4200.00
03294             680.00    -4200.00
03295             640.00    -4200.00
03296             680.00    -4160.00
03297             640.00    -4200.00
03298             680.00    -4160.00
03299             640.00    -4160.00
03300             600.00    -4160.00
03301             640.00    -4120.00
03302             680.00    -4160.00
03303             680.00    -4120.00
03304             680.00    -4160.00
03305             680.00    -4120.00
03306             680.00    -4120.00
03307             680.00    -4080.00
03308             640.00    -4120.00
03309             680.00    -4080.00
03310             680.00    -4040.00
03311             600.00    -4080.00
03312             680.00    -4040.00
03313             680.00    -4040.00
03314             680.00    -4040.00
03315             640.00    -4000.00
03316             680.00    -4000.00
03317             680.00    -4000.00
03318             640.00    -4000.00
03319             640.00    -4000.00
03320             680.00    -4000.00
03321             600.00    -3960.00
03322             600.00    -3960.00
03323             600.00    -3920.00
03324             680.00    -3920.00
03325             640.00    -3920.00
03326             600.00    -3920.00
03327             600.00    -3920.00
03328             680.00    -3880.00
03329             600.00    -3880.00
03330             640.00    -3880.00
03331             600.00    -3880.00
03332             600.00    -3880.00
03333             600.00    -3840.00
03334             600.00    -3840.00
03335             680.00    -3840.00
03336             600.00    -3800.00
03337             680.00    -3840.00
03338             600.00    -3760.00
03339             600.00    -3760.00
03340             600.00    -3760.00
03341             600.00    -3760.00
03342             600.00    -3720.00
03343             600.00    -3680.00
03344             600.00    -3720.00
03345             600.00    -3720.00
03346             600.00    -3680.00
03347             600.00    -3680.00
03348             600.00    -3680.00
03349             560.00    -3640.00
03350             560.00    -3680.00
03351             560.00    -3600.00
03352             600.00    -3600.00
03353             560.00    -3560.00
03354             600.00    -3560.00
03355             560.00    -3560.00
03356             600.00    -3480.00
03357             520.00    -3520.00
03358             560.00    -3480.00
03359             560.00    -3480.00
03360             560.00    -3480.00
03361             560.00    -3440.00
03362             560.00    -3440.00
03363             560.00    -3440.00
03364             560.00    -3440.00
03365             560.00    -3400.00
03366             520.00    -3360.00
03367             560.00    -3360.00
03368             560.00    -3360.00
03369             520.00    -3360.00
03370             560.00    -3280.00
03371             520.00    -3280.00
03372             520.00    -3280.00
03373             520.00    -3240.00
03374             520.00    -3280.00
03375             520.00    -3200.00
03376             520.00    -3200.00
03377             520.00    -3200.00
03378             520.00    -3200.00
03379             520.00    -3160.00
03380             520.00    -3120.00
03381             520.00    -3080.00
03382             520.00    -3120.00
03383             520.00    -3080.00
03384             520.00    -3040.00
03385             480.00    -3040.00
03386             520.00    -3040.00
03387             520.00    -2960.00
03388             520.00    -2960.00
03389             520.00    -2960.00
03390             520.00    -2960.00
03391             520.00    -2920.00
03392             520.00    -2920.00
03393             520.00    -2880.00
03394             520.00    -2880.00
03395             520.00    -2880.00
03396             520.00    -2800.00
03397             480.00    -2800.00
03398             480.00    -2800.00
03399             480.00    -2800.00
03400             520.00    -2760.00
03401             520.00    -2720.00
03402             440.00    -2720.00
03403             480.00    -2680.00
03404             440.00    -2680.00
03405             440.00    -2640.00
03406             440.00    -2640.00
03407             440.00    -2640.00
03408             440.00    -2560.00
03409             440.00    -2560.00
03410             440.00    -2520.00
03411             400.00    -2560.00
03412             400.00    -2520.00
03413             440.00    -2480.00
03414             400.00    -2480.00
03415             400.00    -2440.00
03416             400.00    -2440.00
03417             400.00    -2400.00
03418             400.00    -2400.00
03419             400.00    -2360.00
03420             400.00    -2320.00
03421             400.00    -2320.00
03422             400.00    -2280.00
03423             400.00    -2280.00
03424             360.00    -2200.00
03425             400.00    -2200.00
03426             360.00    -2160.00
03427             360.00    -2160.00
03428             360.00    -2160.00
03429             360.00    -2120.00
03430             360.00    -2120.00
03431             360.00    -2080.00
03432             360.00    -2000.00
03433             360.00    -2000.00
03434             360.00    -2000.00
03435             360.00    -2000.00
03436             360.00    -1960.00
03437             360.00    -1960.00
03438             360.00    -1920.00
03439             360.00    -1920.00
03440             320.00    -1840.00
03441             360.00    -1840.00
03442             360.00    -1840.00
03443             280.00    -1800.00
03444             320.00    -1760.00
03445             320.00    -1760.00
03446             280.00    -1760.00
03447             280.00    -1760.00
03448             240.00    -1680.00
03449             280.00    -1680.00
03450             280.00    -1640.00
03451             280.00    -1640.00
03452             280.00    -1600.00
03453             280.00    -1560.00
03454             280.00    -1520.00
03455             280.00    -1520.00
03456             280.00    -1480.00
03457             240.00    -1480.00
03458             280.00    -1440.00
03459             240.00    -1440.00
03460             240.00    -1360.00
03461             280.00    -1360.00
03462             240.00    -1360.00
03463             240.00    -1320.00
03464             240.00    -1320.00
03465             240.00    -1280.00
03466             240.00    -1280.00
03467             240.00    -1200.00
03468             240.00    -1160.00
03469             200.00    -1200.00
03470             240.00    -1160.00
03471             200.00    -1120.00
03472             200.00    -1120.00
03473             200.00    -1040.00
03474             160.00    -1040.00
03475             200.00    -1000.00
03476             200.00    -1000.00
03477             200.00     -920.00
03478             240.00     -920.00
03479             200.00     -920.00
03480             200.00     -880.00
03481             200.00     -880.00
03482             160.00     -800.00
03483             120.00     -840.00
03484             160.00     -800.00
03485             120.00     -720.00
03486             120.00     -720.00
03487             120.00     -720.00
03488             120.00     -680.00
03489             120.00     -640.00
03490             120.00     -640.00
03491             120.00     -600.00
03492             120.00     -560.00
03493             120.00     -560.00
03494              80.00     -520.00
03495              80.00     -480.00
03496             120.00     -480.00
03497              80.00     -440.00
03498              80.00     -400.00
03499              80.00     -400.00
03500              80.00     -400.00
03501              80.00     -360.00
03502              80.00     -320.00
03503              80.00     -280.00
03504              80.00     -240.00
03505              80.00     -240.00
03506              40.00     -200.00
03507              80.00     -160.00
03508              80.00     -160.00
03509              40.00     -160.00
03510              80.00      -80.00
03511              40.00      -80.00
03512              40.00      -80.00
03513              40.00      -40.00
03514              80.00        0.00
03515              40.00       40.00
03516              40.00       40.00
03517              40.00       80.00
03518              40.00       80.00
03519              40.00      120.00
03520              40.00      160.00
03521              40.00      200.00
03522              40.00      240.00
03523              40.00      240.00
03524              40.00      280.00
03525              40.00      360.00
03526               0.00      360.00
03527             -80.00      320.00
03528             -80.00      360.00
03529             -40.00      400.00
03530               0.00      440.00
03531             -40.00      440.00
03532             -40.00      480.00
03533             -40.00      480.00
03534             -40.00      480.00
03535             -80.00      560.00
03536             -40.00      600.00
03537             -40.00      640.00
03538             -80.00      640.00
03539             -80.00      640.00
03540             -80.00      720.00
03541             -40.00      720.00
03542             -80.00      760.00
03543             -80.00      760.00
03544             -80.00      760.00
03545            -120.00      800.00
03546            -120.00      840.00
03547             -80.00      880.00
03548            -120.00      880.00
03549            -120.00      920.00
03550            -120.00      920.00
03551            -120.00      960.00
03552            -120.00     1040.00
03553            -120.00     1040.00
03554            -120.00     1080.00
03555            -120.00     1080.00
03556            -120.00     1120.00
03557            -120.00     1160.00
03558            -120.00     1160.00
03559            -120.00     1200.00
03560            -200.00     1240.00
03561            -200.00     1240.00
03562            -200.00     1280.00
03563            -200.00     1280.00
03564            -200.00     1280.00
03565            -200.00     1360.00
03566            -160.00     1360.00
03567            -200.00     1360.00
03568            -240.00     1400.00
03569            -200.00     1440.00
03570            -200.00     1440.00
03571            -240.00     1520.00
03572            -200.00     1520.00
03573            -200.00     1560.00
03574            -200.00     1560.00
03575            -200.00     1560.00
03576            -200.00     1640.00
03577            -200.00     1640.00
03578            -200.00     1680.00
03579            -200.00     1720.00
03580            -240.00     1680.00
03581            -240.00     1720.00
03582            -240.00     1760.00
03583            -240.00     1760.00
03584            -240.00     1800.00
03585            -240.00     1840.00
03586            -240.00     1840.00
03587            -240.00     1920.00
03588            -240.00     1880.00
03589            -240.00     1960.00
03590            -240.00     1920.00
03591            -240.00     2000.00
03592            -280.00     2000.00
03593            -240.00     2040.00
03594            -280.00     2080.00
03595            -280.00     2080.00
03596            -280.00     2080.00
03597            -280.00     2120.00
03598            -280.00     2160.00
03599            -280.00     2160.00
03600            -280.00     2200.00
03601            -280.00     2200.00
03602            -320.00     2240.00
03603            -280.00     2240.00
03604            -280.00     2280.00
03605            -360.00     2320.00
03606            -280.00     2360.00
03607            -360.00     2360.00
03608            -360.00     2360.00
03609            -320.00     2400.00
03610            -360.00     2400.00
03611            -360.00     2440.00
03612            -360.00     2480.00
03613            -360.00     2480.00
03614            -360.00     2520.00
03615            -400.00     2560.00
03616            -400.00     2560.00
03617            -400.00     2520.00
03618            -400.00     2560.00
03619            -400.00     2640.00
03620            -400.00     2640.00
03621            -400.00     2680.00
03622            -400.00     2680.00
03623            -440.00     2680.00
03624            -400.00     2720.00
03625            -400.00     2760.00
03626            -400.00     2720.00
03627            -400.00     2800.00
03628            -440.00     2800.00
03629            -400.00     2840.00
03630            -440.00     2840.00
03631            -440.00     2840.00
03632            -400.00     2920.00
03633            -400.00     2960.00
03634            -440.00     2960.00
03635            -440.00     2960.00
03636            -440.00     2960.00
03637            -440.00     3000.00
03638            -440.00     3000.00
03639            -440.00     3000.00
03640            -440.00     3040.00
03641            -440.00     3000.00
03642            -440.00     3080.00
03643            -440.00     3120.00
03644            -440.00     3120.00
03645            -440.00     3160.00
03646            -440.00     3160.00
03647            -440.00     3160.00
03648            -440.00     3200.00
03649            -480.00     3200.00
03650            -440.00     3240.00
03651            -440.00     3240.00
03652            -480.00     3280.00
03653            -440.00     3280.00
03654            -480.00     3320.00
03655            -480.00     3280.00
03656            -480.00     3360.00
03657            -520.00     3360.00
03658            -520.00     3360.00
03659            -440.00     3360.00
03660            -480.00     3440.00
03661            -440.00     3440.00
03662            -520.00     3440.00
03663            -520.00     3440.00
03664            -520.00     3440.00
03665            -520.00     3480.00
03666            -520.00     3520.00
03667            -520.00     3520.00
03668            -520.00     3520.00
03669            -520.00     3520.00
03670            -520.00     3560.00
03671            -520.00     3520.00
03672            -560.00     3560.00
03673            -520.00     3600.00
03674            -560.00     3640.00
03675            -520.00     3640.00
03676            -560.00     3640.00
03677            -560.00     3640.00
03678            -560.00     3680.00
03679            -560.00     3680.00
03680            -560.00     3680.00
03681            -560.00     3720.00
03682            -560.00     3760.00
03683            -560.00     3760.00
03684            -560.00     3760.00
03685            -560.00     3760.00
03686            -560.00     3760.00
03687            -560.00     3800.00
03688            -560.00     3800.00
03689            -600.00     3840.00
03690            -560.00     3800.00
03691            -560.00     3840.00
03692            -560.00     3840.00
03693            -600.00     3840.00
03694            -600.00     3840.00
03695            -600.00     3920.00
03696            -600.00     3920.00
03697            -600.00     3920.00
03698            -600.00     3920.00
03699            -560.00     3920.00
03700            -600.00     3960.00
03701            -600.00     3960.00
03702            -600.00     3920.00
03703            -600.00     4000.00
03704            -600.00     4000.00
03705            -600.00     4000.00
03706            -600.00     4000.00
03707            -600.00     4000.00
03708            -600.00     4000.00
03709            -600.00     4080.00
03710            -600.00     4000.00
03711            -600.00     4080.00
03712            -600.00     4080.00
03713            -600.00     4040.00
03714            -600.00     4080.00
03715            -600.00     4080.00
03716            -600.00     4120.00
03717            -600.00     4120.00
03718            -600.00     4120.00
03719            -600.00     4120.00
03720            -600.00     4120.00
03721            -600.00     4120.00
03722            -600.00     4200.00
03723            -600.00     4160.00
03724            -600.00     4160.00
03725            -600.00     4200.00
03726            -600.00     4200.00
03727            -600.00     4160.00
03728            -640.00     4200.00
03729            -600.00     4200.00
03730            -600.00     4200.00
03731            -600.00     4240.00
03732            -640.00     4240.00
03733            -640.00     4240.00
03734            -680.00     4240.00
03735            -600.00     4240.00
03736            -600.00     4240.00
03737            -640.00     4240.00
03738            -600.00     4240.00
03739            -640.00     4240.00
03740            -600.00     4240.00
03741            -680.00     4240.00
03742            -640.00     4280.00
03743            -680.00     4240.00
03744            -680.00     4280.00
03745            -680.00     4280.00
03746            -680.00     4240.00
03747            -680.00     4280.00
03748            -680.00     4280.00
03749            -680.00     4280.00
03750            -680.00     4280.00
03751            -680.00     4280.00
03752            -680.00     4280.00
03753            -680.00     4280.00
03754            -680.00     4280.00
03755            -640.00     4280.00
03756            -680.00     4280.00
03757            -680.00     4280.00
03758            -680.00     4280.00
03759            -680.00     4280.00
03760            -640.00     4280.00
03761            -680.00     4320.00
03762            -680.00     4320.00
03763            -680.00     4280.00
03764            -680.00     4320.00
03765            -720.00     4320.00
03766            -680.00     4280.00
03767            -680.00     4280.00
03768            -680.00     4280.00
03769            -680.00     4320.00
03770            -680.00     4280.00
03771            -680.00     4280.00
03772            -680.00     4320.00
03773            -680.00     4320.00
03774            -680.00     4320.00
03775            -640.00     4280.00
03776            -640.00     4280.00
03777            -680.00     4320.00
03778            -680.00     4280.00
03779            -720.00     4280.00
03780            -680.00     4280.00
03781            -680.00     4320.00
03782            -640.00     4280.00
03783            -640.00     4280.00
03784            -680.00     4280.00
03785            -680.00     4280.00
03786            -600.00     4280.00
03787            -680.00     4280.00
03788            -640.00     4280.00
03789            -680.00     4240.00
03790            -640.00     4280.00
03791            -680.00     4240.00
03792            -640.00     4240.00
03793            -680.00     4280.00
03794            -680.00     4240.00
03795            -680.00     4240.00
03796            -640.00     4240.00
03797            -680.00     4240.00
03798            -600.00     4240.00
03799            -680.00     4240.00
03800            -680.00     4240.00
03801            -600.00     4240.00
03802            -680.00     4200.00
03803            -640.00     4200.00
03804            -680.00     4200.00
03805            -680.00     4200.00
03806            -680.00     4160.00
03807            -600.00     4200.00
03808            -680.00     4200.00
03809            -640.00     4160.00
03810            -680.00     4160.00
03811            -680.00     4120.00
03812            -680.00     4120.00
03813            -680.00     4160.00
03814            -680.00     4120.00
03815            -680.00     4120.00
03816            -680.00     4120.00
03817            -640.00     4120.00
03818            -680.00     4080.00
03819            -680.00     4120.00
03820            -640.00     4080.00
03821            -680.00     4080.00
03822            -680.00     4080.00
03823            -600.00     4040.00
03824            -600.00     4000.00
03825            -680.00     4040.00
03826            -680.00     4000.00
03827            -600.00     4000.00
03828            -600.00     4000.00
03829            -600.00     3960.00
03830            -680.00     4000.00
03831            -600.00     3960.00
03832            -680.00     3920.00
03833            -600.00     3960.00
03834            -640.00     3920.00
03835            -680.00     3920.00
03836            -600.00     3920.00
03837            -600.00     3920.00
03838            -600.00     3920.00
03839            -600.00     3880.00
03840            -600.00     3880.00
03841            -600.00     3840.00
03842            -600.00     3800.00
03843            -640.00     3840.00
03844            -600.00     3840.00
03845            -640.00     3800.00
03846            -600.00     3800.00
03847            -600.00     3800.00
03848            -600.00     3760.00
03849            -600.00     3760.00
03850            -600.00     3760.00
03851            -600.00     3760.00
03852            -600.00     3720.00
03853            -600.00     3760.00
03854            -600.00     3680.00
03855            -560.00     3680.00
03856            -600.00     3680.00
03857            -560.00     3680.00
03858            -600.00     3640.00
03859            -560.00     3640.00
03860            -600.00     3640.00
03861            -560.00     3600.00
03862            -560.00     3560.00
03863            -600.00     3600.00
03864            -560.00     3560.00
03865            -560.00     3520.00
03866            -560.00     3520.00
03867            -560.00     3520.00
03868            -560.00     3480.00
03869            -560.00     3480.00
03870            -560.00     3480.00
03871            -560.00     3440.00
03872            -560.00     3440.00
03873            -560.00     3440.00
03874            -560.00     3360.00
03875            -560.00     3360.00
03876            -560.00     3360.00
03877            -560.00     3360.00
03878            -560.00     3320.00
03879            -520.00     3320.00
03880            -560.00     3280.00
03881            -560.00     3280.00
03882            -560.00     3280.00
03883            -560.00     3280.00
03884            -560.00     3240.00
03885            -560.00     3200.00
03886            -520.00     3200.00
03887            -520.00     3200.00
03888            -520.00     3160.00
03889            -560.00     3160.00
03890            -520.00     3120.00
03891            -520.00     3120.00
03892            -520.00     3120.00
03893            -560.00     3040.00
03894            -520.00     3040.00
03895            -520.00     3040.00
03896            -520.00     3000.00
03897            -520.00     3000.00
03898            -480.00     3000.00
03899            -520.00     2960.00
03900            -480.00     2920.00
03901            -480.00     2920.00
03902            -440.00     2880.00
03903            -480.00     2880.00
03904            -440.00     2880.00
03905            -440.00     2840.00
03906            -440.00     2800.00
03907            -440.00     2800.00
03908            -440.00     2760.00
03909            -440.00     2760.00
03910            -440.00     2760.00
03911            -440.00     2680.00
03912            -440.00     2720.00
03913            -440.00     2680.00
03914            -440.00     2640.00
03915            -440.00     2640.00
03916            -440.00     2640.00
03917            -440.00     2560.00
03918            -400.00     2560.00
03919            -440.00     2520.00
03920            -440.00     2520.00
03921            -400.00     2520.00
03922            -400.00     2480.00
03923            -400.00     2480.00
03924            -440.00     2400.00
03925            -400.00     2400.00
03926            -400.00     2400.00
03927            -400.00     2400.00
03928            -400.00     2360.00
03929            -400.00     2360.00
03930            -360.00     2320.00
03931            -400.00     2280.00
03932            -400.00     2240.00
03933            -400.00     2240.00
03934            -360.00     2200.00
03935            -360.00     2200.00
03936            -360.00     2160.00
03937            -400.00     2160.00
03938            -400.00     2160.00
03939            -400.00     2120.00
03940            -360.00     2080.00
03941            -400.00     2080.00
03942            -360.00     2040.00
03943            -360.00     2040.00
03944            -360.00     2000.00
03945            -360.00     1960.00
03946            -360.00     1960.00
03947            -360.00     1920.00
03948            -360.00     1880.00
03949            -360.00     1880.00
03950            -360.00     1840.00
03951            -360.00     1840.00
03952            -320.00     1800.00
03953            -320.00     1760.00
03954            -280.00     1720.00
03955            -280.00     1760.00
03956            -280.00     1720.00
03957            -280.00     1680.00
03958            -280.00     1680.00
03959            -280.00     1640.00
03960            -280.00     1640.00
03961            -280.00     1600.00
03962            -280.00     1520.00
03963            -280.00     1560.00
03964            -280.00     1520.00
03965            -240.00     1480.00
03966            -240.00     1440.00
03967            -240.00     1440.00
03968            -240.00     1400.00
03969            -240.00     1400.00
03970            -240.00     1360.00
03971            -240.00     1360.00
03972            -240.00     1280.00
03973            -240.00     1280.00
03974            -240.00     1280.00
03975            -200.00     1240.00
03976            -240.00     1200.00
03977            -240.00     1200.00
03978            -200.00     1200.00
03979            -200.00     1120.00
03980            -200.00     1120.00
03981            -200.00     1080.00
03982            -200.00     1080.00
03983            -200.00     1040.00
03984            -200.00     1000.00
03985            -200.00      960.00
03986            -200.00      960.00
03987            -200.00      920.00
03988            -200.00      880.00
03989            -120.00      880.00
03990            -200.00      840.00
03991            -200.00      800.00
03992            -120.00      800.00
03993            -160.00      760.00
03994            -120.00      760.00
03995            -160.00      720.00
03996            -120.00      720.00
03997            -120.00      680.00
03998            -120.00      640.00
03999            -120.00      640.00
04000            -120.00      600.00
04001            -120.00      560.00
04002            -120.00      560.00
04003            -120.00      560.00
04004             -80.00      480.00
04005            -120.00      480.00
04006             -80.00      440.00
04007            -120.00      440.00
04008            -120.00      400.00
04009             -80.00      400.00
04010            -120.00      320.00
04011            -120.00      360.00
04012             -80.00      320.00
04013             -80.00      240.00
04014             -80.00      240.00
04015             -80.00      200.00
04016            -120.00      160.00
04017             -80.00      120.00
04018             -80.00      120.00
04019             -80.00      120.00
04020             -40.00       80.00
04021             -40.00       40.00
04022             -40.00       40.00
04023             -40.00        0.00
04024             -40.00      -40.00
04025             -40.00      -80.00
04026             -80.00      -80.00
04027             -40.00      -80.00
04028             -40.00     -120.00
04029             -40.00     -160.00
04030             -40.00     -200.00
04031               0.00     -200.00
04032              40.00     -200.00
04033               0.00     -280.00
04034              40.00     -240.00
04035              40.00     -360.00
04036             -40.00     -400.00
04037             -40.00     -400.00
04038              40.00     -360.00
04039              80.00     -440.00
04040              40.00     -480.00
04041              40.00     -480.00
04042              80.00     -480.00
04043              40.00     -560.00
04044              40.00     -560.00
04045              80.00     -560.00
04046             120.00     -640.00
04047              80.00     -640.00
04048              80.00     -680.00
04049              40.00     -680.00
04050              80.00     -720.00
04051              80.00     -720.00
04052              80.00     -720.00
04053              80.00     -800.00
04054              80.00     -840.00
04055              80.00     -840.00
04056             120.00     -880.00
04057             120.00     -920.00
04058              80.00     -960.00
04059             120.00     -920.00
04060             120.00     -960.00
04061             120.00    -1000.00
04062             120.00    -1040.00
04063             120.00    -1040.00
04064             160.00    -1120.00
04065             120.00    -1120.00
04066             120.00    -1120.00
04067             120.00    -1160.00
04068             120.00    -1200.00
04069             120.00    -1200.00
04070             120.00    -1240.00
04071             160.00    -1280.00
04072             120.00    -1320.00
04073             160.00    -1280.00
04074             200.00    -1360.00
04075             200.00    -1360.00
04076             160.00    -1400.00
04077             200.00    -1440.00
04078             200.00    -1440.00
04079             200.00    -1480.00
04080             200.00    -1520.00
04081             200.00    -1520.00
04082             200.00    -1560.00
04083             200.00    -1560.00
04084             240.00    -1560.00
04085             240.00    -1600.00
04086             200.00    -1640.00
04087             240.00    -1680.00
04088             240.00    -1680.00
04089             240.00    -1720.00
04090             200.00    -1760.00
04091             240.00    -1760.00
04092             240.00    -1800.00
04093             240.00    -1800.00
04094             240.00    -1840.00
04095             280.00    -1840.00
04096             280.00    -1880.00
04097             240.00    -1920.00
04098             280.00    -1920.00
04099             280.00    -1960.00
04100             280.00    -1960.00
04101             240.00    -2000.00
04102             280.00    -2000.00
04103             280.00    -2080.00
04104             280.00    -2080.00
04105             280.00    -2120.00
04106             360.00    -2120.00
04107             280.00    -2160.00
04108             280.00    -2160.00
04109             360.00    -2240.00
04110             320.00    -2200.00
04111             360.00    -2200.00
04112             360.00    -2280.00
04113             320.00    -2280.00
04114             360.00    -2320.00
04115             360.00    -2320.00
04116             360.00    -2360.00
04117             360.00    -2360.00
04118             360.00    -2400.00
04119             360.00    -2440.00
04120             360.00    -2480.00
04121             400.00    -2480.00
04122             360.00    -2480.00
04123             400.00    -2480.00
04124             400.00    -2560.00
04125             360.00    -2560.00
04126             400.00    -2560.00
04127             400.00    -2600.00
04128             360.00    -2600.00
04129             440.00    -2640.00
04130             400.00    -2640.00
04131             400.00    -2720.00
04132             400.00    -2720.00
04133             400.00    -2720.00
04134             400.00    -2720.00
04135             440.00    -2760.00
04136             400.00    -2760.00
04137             400.00    -2800.00
04138             400.00    -2840.00
04139             440.00    -2880.00
04140             400.00    -2880.00
04141             400.00    -2880.00
04142             400.00    -2880.00
04143             400.00    -2960.00
04144             400.00    -2960.00
04145             440.00    -2960.00
04146             440.00    -2960.00
04147             400.00    -2960.00
04148             440.00    -3000.00
04149             440.00    -3040.00
04150             440.00    -3040.00
04151             440.00    -3120.00
04152             440.00    -3080.00
04153             440.00    -3120.00
04154             480.00    -3120.00
04155             440.00    -3160.00
04156             440.00    -3160.00
04157             480.00    -3200.00
04158             440.00    -3200.00
04159             440.00    -3200.00
04160             520.00    -3240.00
04161             480.00    -3240.00
04162             480.00    -3280.00
04163             520.00    -3280.00
04164             520.00    -3320.00
04165             520.00    -3320.00
04166             520.00    -3360.00
04167             520.00    -3360.00
04168             520.00    -3360.00
04169             520.00    -3360.00
04170             520.00    -3440.00
04171             560.00    -3440.00
04172             520.00    -3440.00
04173             520.00    -3440.00
04174             520.00    -3480.00
04175             520.00    -3520.00
04176             520.00    -3480.00
04177             520.00    -3520.00
04178             560.00    -3520.00
04179             560.00    -3560.00
04180             520.00    -3560.00
04181             520.00    -3600.00
04182             560.00    -3560.00
04183             520.00    -3600.00
04184             560.00    -3600.00
04185             560.00    -3640.00
04186             520.00    -3640.00
04187             560.00    -3680.00
04188             560.00    -3680.00
04189             520.00    -3680.00
04190             560.00    -3680.00
04191             560.00    -3720.00
04192             560.00    -3760.00
04193             560.00    -3760.00
04194             560.00    -3760.00
04195             560.00    -3800.00
04196             600.00    -3800.00
04197             560.00    -3840.00
04198             560.00    -3760.00
04199             560.00    -3840.00
04200             560.00    -3840.00
04201             600.00    -3840.00
04202             600.00    -3880.00
04203             560.00    -3880.00
04204             560.00    -3880.00
04205             600.00    -3880.00
04206             560.00    -3920.00
04207             600.00    -3920.00
04208             600.00    -3920.00
04209             600.00    -3920.00
04210             600.00    -3920.00
04211             600.00    -3960.00
04212             560.00    -3920.00
04213             640.00    -4000.00
04214             600.00    -4000.00
04215             600.00    -4000.00
04216             560.00    -4000.00
04217             560.00    -4000.00
04218             600.00    -4000.00
04219             560.00    -4000.00
04220             600.00    -4040.00
04221             560.00    -4080.00
04222             600.00    -4040.00
04223             600.00    -4080.00
04224             600.00    -4040.00
04225             600.00    -4080.00
04226             600.00    -4120.00
04227             680.00    -4080.00
04228             680.00    -4120.00
04229             640.00    -4080.00
04230             600.00    -4160.00
04231             640.00    -4160.00
04232             680.00    -4160.00
04233             640.00    -4160.00
04234             600.00    -4160.00
04235             680.00    -4160.00
04236             680.00    -4200.00
04237             640.00    -4160.00
04238             680.00    -4200.00
04239             680.00    -4200.00
04240             680.00    -4160.00
04241             640.00    -4200.00
04242             680.00    -4200.00
04243             680.00    -4200.00
04244             680.00    -4240.00
04245             680.00    -4200.00
04246             680.00    -4240.00
04247             640.00    -4200.00
04248             680.00    -4240.00
04249             680.00    -4240.00
04250             680.00    -4240.00
04251             680.00    -4240.00
04252             680.00    -4240.00
04253             680.00    -4240.00
04254             680.00    -4240.00
04255             680.00    -4280.00
04256             680.00    -4280.00
04257             680.00    -4240.00
04258             680.00    -4240.00
04259             680.00    -4280.00
04260             680.00    -4280.00
04261             680.00    -4280.00
04262             680.00    -4240.00
04263             680.00    -4240.00
04264             680.00    -4240.00
04265             680.00    -4280.00
04266             680.00    -4240.00
04267             640.00    -4280.00
04268             680.00    -4320.00
04269             680.00    -4320.00
04270             680.00    -4280.00
04271             680.00    -4280.00
04272             680.00    -4280.00
04273             680.00    -4320.00
04274             680.00    -4280.00
04275             680.00    -4280.00
04276             680.00    -4280.00
04277             680.00    -4320.00
04278             640.00    -4320.00
04279             680.00    -4320.00
04280             680.00    -4320.00
04281             680.00    -4280.00
04282             680.00    -4320.00
04283             680.00    -4320.00
04284             680.00    -4280.00
04285             680.00    -4320.00
04286             680.00    -4320.00
04287             680.00    -4320.00
04288             680.00    -4280.00
04289             680.00    -4280.00
04290             680.00    -4240.00
04291             680.00    -4320.00
04292             680.00    -4280.00
04293             680.00    -4280.00
04294             680.00    -4240.00
04295             680.00    -4240.00
04296             720.00    -4280.00
04297             680.00    -4240.00
04298             680.00    -4240.00
04299             680.00    -4240.00
04300             680.00    -4240.00
04301             680.00    -4240.00
04302             680.00    -4240.00
04303             680.00    -4240.00
04304             680.00    -4240.00
04305             680.00    -4240.00
04306             680.00    -4200.00
04307             720.00    -4200.00
04308             680.00    -4200.00
04309             680.00    -4200.00
04310             680.00    -4200.00
04311             680.00    -4200.00
04312             680.00    -4160.00
04313             680.00    -4160.00
04314             680.00    -4200.00
04315             680.00    -4160.00
04316             680.00    -4160.00
04317             640.00    -4160.00
04318             680.00    -4160.00
04319             680.00    -4160.00
04320             680.00    -4160.00
04321             680.00    -4120.00
04322             680.00    -4080.00
04323             680.00    -4080.00
04324             680.00    -4080.00
04325             680.00    -4080.00
04326             680.00    -4080.00
04327             680.00    -4080.00
04328             640.00    -4080.00
04329             680.00    -4040.00
04330             640.00    -4040.00
04331             680.00    -4040.00
04332             680.00    -4040.00
04333             600.00    -4040.00
04334             600.00    -4040.00
04335             640.00    -4000.00
04336             680.00    -3960.00
04337             680.00    -4000.00
04338             600.00    -3960.00
04339             640.00    -3960.00
04340             680.00    -3920.00
04341             600.00    -3920.00
04342             600.00    -3920.00
04343             600.00    -3920.00
04344             600.00    -3920.00
04345             680.00    -3920.00
04346             600.00    -3880.00
04347             600.00    -3880.00
04348             600.00    -3840.00
04349             600.00    -3840.00
04350             600.00    -3840.00
04351             600.00    -3800.00
04352             600.00    -3840.00
04353             600.00    -3840.00
04354             600.00    -3800.00
04355             600.00    -3760.00
04356             600.00    -3760.00
04357             600.00    -3760.00
04358             600.00    -3760.00
04359             600.00    -3760.00
04360             560.00    -3720.00
04361             600.00    -3720.00
04362             600.00    -3720.00
04363             560.00    -3680.00
04364             560.00    -3680.00
04365             560.00    -3680.00
04366             600.00    -3640.00
04367             560.00    -3640.00
04368             600.00    -3600.00
04369             560.00    -3560.00
04370             600.00    -3560.00
04371             600.00    -3560.00
04372             600.00    -3560.00
04373             600.00    -3560.00
04374             560.00    -3480.00
04375             560.00    -3480.00
04376             560.00    -3520.00
04377             560.00    -3440.00
04378             560.00    -3480.00
04379             560.00    -3440.00
04380             600.00    -3440.00
04381             560.00    -3400.00
04382             560.00    -3440.00
04383             560.00    -3400.00
04384             560.00    -3360.00
04385             560.00    -3360.00
04386             520.00    -3320.00
04387             560.00    -3280.00
04388             560.00    -3280.00
04389             560.00    -3280.00
04390             520.00    -3280.00
04391             520.00    -3240.00
04392             560.00    -3240.00
04393             560.00    -3200.00
04394             520.00    -3200.00
04395             520.00    -3200.00
04396             520.00    -3160.00
04397             520.00    -3120.00
04398             520.00    -3120.00
04399             520.00    -3080.00
04400             520.00    -3080.00
04401             520.00    -3080.00
04402             520.00    -3040.00
04403             520.00    -3040.00
04404             520.00    -3040.00
04405             480.00    -3000.00
04406             480.00    -2960.00
04407             520.00    -2960.00
04408             520.00    -2960.00
04409             440.00    -2960.00
04410             480.00    -2920.00
04411             480.00    -2880.00
04412             520.00    -2880.00
04413             440.00    -2880.00
04414             440.00    -2800.00
04415             520.00    -2760.00
04416             440.00    -2800.00
04417             480.00    -2760.00
04418             440.00    -2720.00
04419             440.00    -2720.00
04420             440.00    -2720.00
04421             440.00    -2680.00
04422             440.00    -2680.00
04423             440.00    -2640.00
04424             440.00    -2640.00
04425             440.00    -2560.00
04426             400.00    -2560.00
04427             440.00    -2560.00
04428             440.00    -2560.00
04429             440.00    -2520.00
04430             400.00    -2480.00
04431             400.00    -2480.00
04432             400.00    -2440.00
04433             440.00    -2440.00
04434             400.00    -2400.00
04435             400.00    -2400.00
04436             400.00    -2320.00
04437             400.00    -2320.00
04438             400.00    -2280.00
04439             400.00    -2280.00
04440             400.00    -2240.00
04441             400.00    -2240.00
04442             400.00    -2200.00
04443             400.00    -2160.00
04444             400.00    -2160.00
04445             400.00    -2160.00
04446             400.00    -2120.00
04447             400.00    -2120.00
04448             400.00    -2080.00
04449             360.00    -2080.00
04450             360.00    -2000.00
04451             400.00    -2000.00
04452             360.00    -2000.00
04453             360.00    -1960.00
04454             360.00    -1920.00
04455             360.00    -1920.00
04456             360.00    -1920.00
04457             360.00    -1840.00
04458             320.00    -1840.00
04459             320.00    -1840.00
04460             320.00    -1800.00
04461             360.00    -1760.00
04462             280.00    -1760.00
04463             280.00    -1720.00
04464             280.00    -1720.00
04465             280.00    -1680.00
04466             280.00    -1680.00
04467             280.00    -1640.00
04468             280.00    -1640.00
04469             280.00    -1600.00
04470             240.00    -1560.00
04471             280.00    -1520.00
04472             240.00    -1520.00
04473             280.00    -1480.00
04474             240.00    -1480.00
04475             240.00    -1440.00
04476             280.00    -1440.00
04477             280.00    -1400.00
04478             240.00    -1360.00
04479             240.00    -1320.00
04480             240.00    -1320.00
04481             240.00    -1280.00
04482             240.00    -1280.00
04483             240.00    -1240.00
04484             200.00    -1200.00
04485             240.00    -1200.00
04486             200.00    -1160.00
04487             240.00    -1160.00
04488             240.00    -1120.00
04489             240.00    -1120.00
04490             240.00    -1040.00
04491             240.00    -1000.00
04492             200.00    -1000.00
04493             200.00    -1000.00
04494             200.00     -920.00
04495             200.00     -960.00
04496             200.00     -880.00
04497             200.00     -880.00
04498             200.00     -880.00
04499             200.00     -840.00
04500             200.00     -800.00
04501             200.00     -760.00
04502             200.00     -760.00
04503             200.00     -720.00
04504             160.00     -720.00
04505             120.00     -680.00
04506             200.00     -680.00
04507             120.00     -640.00
04508             120.00     -600.00
04509             120.00     -560.00
04510             120.00     -560.00
04511             120.00     -560.00
04512             120.00     -520.00
04513             120.00     -480.00
04514             120.00     -440.00
04515              80.00     -400.00
04516             120.00     -400.00
04517              80.00     -360.00
04518             120.00     -360.00
04519             120.00     -320.00
04520              80.00     -320.00
04521              80.00     -280.00
04522              80.00     -200.00
04523              80.00     -200.00
04524              80.00     -200.00
04525              80.00     -160.00
04526              40.00     -160.00
04527              40.00     -120.00
04528              80.00      -80.00
04529              40.00      -40.00
04530              40.00      -40.00
04531              40.00        0.00
04532              40.00        0.00
04533              40.00       80.00
04534              40.00       80.00
04535              40.00      120.00
04536              40.00      120.00
04537              40.00      160.00
04538             -40.00      160.00
04539              40.00      240.00
04540             -40.00      240.00
04541               0.00      280.00
04542              40.00      360.00
04543             -40.00      360.00
04544             -80.00      280.00
04545             -80.00      360.00
04546             -40.00      400.00
04547              40.00      440.00
04548             -40.00      440.00
04549               0.00      480.00
04550             -80.00      480.00
04551             -80.00      480.00
04552             -80.00      520.00
04553             -40.00      600.00
04554             -40.00      600.00
04555             -80.00      640.00
04556             -80.00      640.00
04557             -80.00      680.00
04558             -80.00      680.00
04559             -80.00      760.00
04560             -80.00      800.00
04561             -40.00      800.00
04562             -80.00      800.00
04563            -120.00      800.00
04564             -80.00      920.00
04565             -80.00      880.00
04566            -120.00      920.00
04567            -120.00      960.00
04568             -80.00      960.00
04569            -120.00     1040.00
04570            -120.00     1080.00
04571            -120.00     1040.00
04572            -120.00     1080.00
04573            -160.00     1120.00
04574            -120.00     1120.00
04575            -120.00     1160.00
04576            -120.00     1200.00
04577            -120.00     1200.00
04578            -120.00     1240.00
04579            -120.00     1240.00
04580            -200.00     1280.00
04581            -120.00     1320.00
04582            -160.00     1320.00
04583            -160.00     1360.00
04584            -120.00     1400.00
04585            -160.00     1440.00
04586            -200.00     1440.00
04587            -160.00     1440.00
04588            -200.00     1480.00
04589            -240.00     1520.00
04590            -200.00     1520.00
04591            -240.00     1600.00
04592            -240.00     1600.00
04593            -240.00     1640.00
04594            -240.00     1640.00
04595            -240.00     1680.00
04596            -240.00     1680.00
04597            -240.00     1680.00
04598            -240.00     1760.00
04599            -240.00     1760.00
04600            -240.00     1760.00
04601            -240.00     1800.00
04602            -240.00     1840.00
04603            -240.00     1840.00
04604            -240.00     1880.00
04605            -280.00     1880.00
04606            -280.00     1920.00
04607            -280.00     1960.00
04608            -280.00     2000.00
04609            -280.00     2000.00
04610            -280.00     2040.00
04611            -280.00     2040.00
04612            -280.00     2080.00
04613            -280.00     2080.00
04614            -280.00     2120.00
04615            -320.00     2160.00
04616            -280.00     2160.00
04617            -360.00     2200.00
04618            -360.00     2240.00
04619            -280.00     2240.00
04620            -280.00     2240.00
04621            -320.00     2280.00
04622            -360.00     2320.00
04623            -320.00     2360.00
04624            -360.00     2360.00
04625            -360.00     2360.00
04626            -360.00     2400.00
04627            -360.00     2400.00
04628            -360.00     2480.00
04629            -280.00     2480.00
04630            -360.00     2520.00
04631            -360.00     2520.00
04632            -360.00     2520.00
04633            -360.00     2560.00
04634            -400.00     2560.00
04635            -360.00     2600.00
04636            -360.00     2600.00
04637            -400.00     2640.00
04638            -360.00     2640.00
04639            -360.00     2680.00
04640            -360.00     2680.00
04641            -400.00     2720.00
04642            -400.00     2720.00
04643            -440.00     2760.00
04644            -400.00     2800.00
04645            -400.00     2800.00
04646            -440.00     2840.00
04647            -400.00     2840.00
04648            -400.00     2880.00
04649            -440.00     2920.00
04650            -440.00     2920.00
04651            -440.00     2920.00
04652            -400.00     2920.00
04653            -400.00     3000.00
04654            -440.00     3000.00
04655            -440.00     3000.00
04656            -440.00     3040.00
04657            -440.00     3040.00
04658            -440.00     3120.00
04659            -440.00     3080.00
04660            -440.00     3120.00
04661            -440.00     3120.00
04662            -480.00     3120.00
04663            -440.00     3160.00
04664            -440.00     3200.00
04665            -440.00     3200.00
04666            -440.00     3200.00
04667            -520.00     3200.00
04668            -440.00     3280.00
04669            -480.00     3280.00
04670            -520.00     3280.00
04671            -520.00     3280.00
04672            -520.00     3320.00
04673            -520.00     3360.00
04674            -520.00     3320.00
04675            -520.00     3360.00
04676            -520.00     3360.00
04677            -520.00     3360.00
04678            -520.00     3440.00
04679            -560.00     3440.00
04680            -520.00     3440.00
04681            -520.00     3480.00
04682            -520.00     3480.00
04683            -520.00     3480.00
04684            -560.00     3480.00
04685            -520.00     3520.00
04686            -520.00     3520.00
04687            -520.00     3520.00
04688            -560.00     3560.00
04689            -560.00     3600.00
04690            -520.00     3600.00
04691            -520.00     3640.00
04692            -560.00     3600.00
04693            -560.00     3640.00
04694            -560.00     3640.00
04695            -560.00     3680.00
04696            -560.00     3680.00
04697            -560.00     3680.00
04698            -560.00     3680.00
04699            -560.00     3760.00
04700            -560.00     3760.00
04701            -560.00     3720.00
04702            -560.00     3760.00
04703            -560.00     3800.00
04704            -560.00     3800.00
04705            -560.00     3800.00
04706            -600.00     3800.00
04707            -560.00     3840.00
04708            -560.00     3840.00
04709            -560.00     3840.00
04710            -600.00     3840.00
04711            -560.00     3880.00
04712            -560.00     3920.00
04713            -560.00     3880.00
04714            -600.00     3920.00
04715            -560.00     3920.00
04716            -560.00     3920.00
04717            -600.00     3920.00
04718            -560.00     3920.00
04719            -600.00     3960.00
04720            -600.00     3960.00
04721            -600.00     3960.00
04722            -600.00     3960.00
04723            -600.00     4000.00
04724            -600.00     4000.00
04725            -600.00     4000.00
04726            -600.00     4000.00
04727            -600.00     4000.00
04728            -600.00     4040.00
04729            -600.00     4040.00
04730            -600.00     4080.00
04731            -680.00     4080.00
04732            -600.00     4080.00
04733            -600.00     4080.00
04734            -600.00     4120.00
04735            -600.00     4080.00
04736            -600.00     4120.00
04737            -640.00     4120.00
04738            -600.00     4120.00
04739            -600.00     4120.00
04740            -680.00     4120.00
04741            -600.00     4200.00
04742            -600.00     4160.00
04743            -600.00     4200.00
04744            -680.00     4160.00
04745            -640.00     4160.00
04746            -640.00     4200.00
04747            -680.00     4200.00
04748            -680.00     4200.00
04749            -640.00     4240.00
04750            -600.00     4160.00
04751            -600.00     4200.00
04752            -600.00     4240.00
04753            -680.00     4200.00
04754            -640.00     4240.00
04755            -600.00     4240.00
04756            -680.00     4240.00
04757            -680.00     4240.00
04758            -680.00     4240.00
04759            -600.00     4280.00
04760            -600.00     4280.00
04761            -640.00     4280.00
04762            -600.00     4280.00
04763            -680.00     4280.00
04764            -680.00     4280.00
04765            -640.00     4280.00
04766            -680.00     4280.00
04767            -640.00     4280.00
04768            -680.00     4320.00
04769            -680.00     4280.00
04770            -600.00     4280.00
04771            -640.00     4280.00
04772            -640.00     4280.00
04773            -680.00     4280.00
04774            -680.00     4320.00
04775            -680.00     4280.00
04776            -680.00     4280.00
04777            -680.00     4320.00
04778            -680.00     4280.00
04779            -680.00     4320.00
04780            -640.00     4280.00
04781            -680.00     4280.00
04782            -680.00     4280.00
04783            -680.00     4320.00
04784            -680.00     4280.00
04785            -680.00     4320.00
04786            -680.00     4280.00
04787            -680.00     4280.00
04788            -680.00     4280.00
04789            -680.00     4280.00
04790            -680.00     4320.00
04791            -680.00     4320.00
04792            -680.00     4280.00
04793            -680.00     4280.00
04794            -680.00     4280.00
04795            -680.00     4280.00
04796            -680.00     4280.00
04797            -680.00     4280.00
04798            -680.00     4280.00
04799            -680.00     4280.00
04800            -680.00     4280.00
04801            -680.00     4280.00
04802            -680.00     4280.00
04803            -680.00     4280.00
04804            -680.00     4280.00
04805            -680.00     4240.00
04806            -720.00     4280.00
04807            -680.00     4240.00
04808            -680.00     4240.00
04809            -680.00     4240.00
04810            -680.00     4280.00
04811            -680.00     4240.00
04812            -680.00     4240.00
04813            -680.00     4240.00
04814            -680.00     4240.00
04815            -680.00     4240.00
04816            -640.00     4240.00
04817            -680.00     4200.00
04818            -680.00     4240.00
04819            -600.00     4200.00
04820            -680.00     4200.00
04821            -640.00     4200.00
04822            -680.00     4160.00
04823            -640.00     4200.00
04824            -680.00     4160.00
04825            -600.00     4160.00
04826            -640.00     4160.00
04827            -680.00     4200.00
04828            -640.00     4160.00
04829            -680.00     4160.00
04830            -600.00     4120.00
04831            -680.00     4120.00
04832            -640.00     4120.00
04833            -600.00     4080.00
04834            -640.00     4120.00
04835            -640.00     4080.00
04836            -640.00     4080.00
04837            -640.00     4080.00
04838            -600.00     4080.00
04839            -680.00     4040.00
04840            -600.00     4040.00
04841            -600.00     4080.00
04842            -600.00     4000.00
04843            -600.00     4000.00
04844            -600.00     4000.00
04845            -640.00     4000.00
04846            -600.00     4000.00
04847            -600.00     4000.00
04848            -640.00     3960.00
04849            -600.00     3960.00
04850            -600.00     3960.00
04851            -640.00     3960.00
04852            -600.00     3920.00
04853            -640.00     3920.00
04854            -600.00     3920.00
04855            -600.00     3880.00
04856            -600.00     3880.00
04857            -600.00     3880.00
04858            -640.00     3840.00
04859            -600.00     3840.00
04860            -600.00     3840.00
04861            -600.00     3840.00
04862            -640.00     3800.00
04863            -600.00     3800.00
04864            -600.00     3800.00
04865            -600.00     3760.00
04866            -600.00     3800.00
04867            -600.00     3760.00
04868            -600.00     3720.00
04869            -600.00     3720.00
04870            -600.00     3680.00
04871            -600.00     3680.00
04872            -600.00     3680.00
04873            -600.00     3680.00
04874            -560.00     3640.00
04875            -560.00     3680.00
04876            -560.00     3600.00
04877            -560.00     3600.00
04878            -560.00     3600.00
04879            -560.00     3600.00
04880            -560.00     3600.00
04881            -560.00     3600.00
04882            -560.00     3520.00
04883            -560.00     3480.00
04884            -560.00     3520.00
04885            -560.00     3480.00
04886            -600.00     3480.00
04887            -560.00     3440.00
04888            -560.00     3440.00
04889            -560.00     3440.00
04890            -560.00     3440.00
04891            -560.00     3400.00
04892            -560.00     3360.00
04893            -560.00     3360.00
04894            -560.00     3360.00
04895            -520.00     3320.00
04896            -520.00     3320.00
04897            -560.00     3280.00
04898            -560.00     3280.00
04899            -520.00     3280.00
04900            -560.00     3280.00
04901            -520.00     3240.00
04902            -520.00     3200.00
04903            -520.00     3200.00
04904            -560.00     3200.00
04905            -520.00     3160.00
04906            -520.00     3160.00
04907            -520.00     3120.00
04908            -520.00     3120.00
04909            -520.00     3120.00
04910            -520.00     3120.00
04911            -520.00     3040.00
04912            -520.00     3040.00
04913            -440.00     3040.00
04914            -520.00     2960.00
04915            -520.00     3000.00
04916            -480.00     2960.00
04917            -480.00     2960.00
04918            -520.00     2920.00
04919            -440.00     2880.00
04920            -480.00     2880.00
04921            -480.00     2840.00
04922            -520.00     2840.00
04923            -440.00     2800.00
04924            -440.00     2800.00
04925            -480.00     2800.00
04926            -440.00     2760.00
04927            -440.00     2720.00
04928            -440.00     2720.00
04929            -440.00     2680.00
04930            -440.00     2680.00
04931            -440.00     2640.00
04932            -440.00     2640.00
04933            -440.00     2640.00
04934            -440.00     2600.00
04935            -440.00     2560.00
04936            -440.00     2520.00
04937            -440.00     2520.00
04938            -440.00     2480.00
04939            -440.00     2520.00
04940            -440.00     2480.00
04941            -400.00     2440.00
04942            -440.00     2440.00
04943            -440.00     2400.00
04944            -400.00     2360.00
04945            -440.00     2360.00
04946            -400.00     2320.00
04947            -400.00     2320.00
04948            -400.00     2280.00
04949            -400.00     2280.00
04950            -400.00     2240.00
04951            -400.00     2240.00
04952            -360.00     2200.00
04953            -400.00     2160.00
04954            -360.00     2160.00
04955            -400.00     2160.00
04956            -360.00     2080.00
04957            -360.00     2080.00
04958            -320.00     2040.00
04959            -360.00     2040.00
04960            -280.00     2000.00
04961            -360.00     2000.00
04962            -320.00     2000.00
04963            -360.00     1920.00
04964            -360.00     1920.00
04965            -360.00     1920.00
04966            -320.00     1920.00
04967            -280.00     1840.00
04968            -320.00     1840.00
04969            -280.00     1840.00
04970            -280.00     1760.00
04971            -280.00     1760.00
04972            -280.00     1760.00
04973            -280.00     1720.00
04974            -280.00     1680.00
04975            -240.00     1680.00
04976            -280.00     1680.00
04977            -280.00     1600.00
04978            -280.00     1600.00
04979            -240.00     1560.00
04980            -240.00     1520.00
04981            -280.00     1520.00
04982            -240.00     1480.00
04983            -240.00     1440.00
04984            -280.00     1400.00
04985            -240.00     1400.00
04986            -240.00     1360.00
04987            -240.00     1360.00
04988            -240.00     1360.00
04989            -240.00     1320.00
04990            -240.00     1280.00
04991            -240.00     1280.00
04992            -240.00     1240.00
04993            -240.00     1240.00
04994            -240.00     1200.00
04995            -240.00     1160.00
04996            -240.00     1120.00
04997            -240.00     1120.00
04998            -200.00     1080.00
04999            -240.00     1080.00
05000            -240.00     1040.00
