Unit:(mV)
                     CH1         CH2
Frequency              ?  98.338 kHz
00001            -240.00    -1360.00
00002            -280.00    -1440.00
00003            -280.00    -1440.00
00004            -280.00    -1440.00
00005            -240.00    -1520.00
00006            -240.00    -1520.00
00007            -280.00    -1520.00
00008            -280.00    -1600.00
00009            -320.00    -1600.00
00010            -360.00    -1640.00
00011            -280.00    -1680.00
00012            -360.00    -1720.00
00013            -360.00    -1760.00
00014            -360.00    -1800.00
00015            -360.00    -1800.00
00016            -360.00    -1840.00
00017            -360.00    -1840.00
00018            -360.00    -1880.00
00019            -400.00    -1840.00
00020            -360.00    -1960.00
00021            -360.00    -1960.00
00022            -400.00    -2000.00
00023            -360.00    -2000.00
00024            -400.00    -2080.00
00025            -400.00    -2080.00
00026            -400.00    -2120.00
00027            -400.00    -2160.00
00028            -400.00    -2160.00
00029            -440.00    -2160.00
00030            -400.00    -2240.00
00031            -440.00    -2240.00
00032            -400.00    -2280.00
00033            -440.00    -2320.00
00034            -440.00    -2320.00
00035            -440.00    -2400.00
00036            -440.00    -2400.00
00037            -440.00    -2400.00
00038            -440.00    -2440.00
00039            -440.00    -2480.00
00040            -440.00    -2480.00
00041            -440.00    -2520.00
00042            -480.00    -2560.00
00043            -440.00    -2600.00
00044            -520.00    -2600.00
00045            -520.00    -2640.00
00046            -480.00    -2640.00
00047            -520.00    -2680.00
00048            -520.00    -2720.00
00049            -560.00    -2720.00
00050            -520.00    -2760.00
00051            -520.00    -2760.00
00052            -560.00    -2840.00
00053            -520.00    -2840.00
00054            -560.00    -2880.00
00055            -560.00    -2880.00
00056            -560.00    -2920.00
00057            -560.00    -2920.00
00058            -560.00    -2960.00
00059            -600.00    -3000.00
00060            -560.00    -3040.00
00061            -600.00    -3040.00
00062            -600.00    -3040.00
00063            -600.00    -3080.00
00064            -600.00    -3120.00
00065            -600.00    -3120.00
00066            -600.00    -3160.00
00067            -600.00    -3200.00
00068            -600.00    -3240.00
00069            -600.00    -3200.00
00070            -640.00    -3280.00
00071            -600.00    -3280.00
00072            -680.00    -3280.00
00073            -600.00    -3360.00
00074            -680.00    -3360.00
00075            -680.00    -3360.00
00076            -680.00    -3400.00
00077            -680.00    -3400.00
00078            -680.00    -3440.00
00079            -680.00    -3440.00
00080            -680.00    -3520.00
00081            -680.00    -3520.00
00082            -680.00    -3560.00
00083            -720.00    -3560.00
00084            -680.00    -3560.00
00085            -680.00    -3600.00
00086            -720.00    -3600.00
00087            -720.00    -3640.00
00088            -680.00    -3680.00
00089            -720.00    -3680.00
00090            -720.00    -3720.00
00091            -760.00    -3760.00
00092            -720.00    -3760.00
00093            -720.00    -3760.00
00094            -720.00    -3800.00
00095            -760.00    -3840.00
00096            -760.00    -3840.00
00097            -760.00    -3840.00
00098            -720.00    -3880.00
00099            -720.00    -3920.00
00100            -760.00    -3920.00
00101            -760.00    -3880.00
00102            -760.00    -3920.00
00103            -760.00    -3960.00
00104            -760.00    -4000.00
00105            -760.00    -4000.00
00106            -760.00    -4000.00
00107            -760.00    -4040.00
00108            -760.00    -4040.00
00109            -760.00    -4080.00
00110            -760.00    -4080.00
00111            -760.00    -4080.00
00112            -800.00    -4120.00
00113            -800.00    -4160.00
00114            -840.00    -4160.00
00115            -840.00    -4200.00
00116            -840.00    -4200.00
00117            -800.00    -4240.00
00118            -840.00    -4240.00
00119            -840.00    -4240.00
00120            -840.00    -4240.00
00121            -840.00    -4280.00
00122            -840.00    -4280.00
00123            -880.00    -4320.00
00124            -840.00    -4360.00
00125            -880.00    -4320.00
00126            -880.00    -4360.00
00127            -880.00    -4360.00
00128            -880.00    -4360.00
00129            -880.00    -4400.00
00130            -880.00    -4400.00
00131            -880.00    -4400.00
00132            -880.00    -4440.00
00133            -880.00    -4440.00
00134            -880.00    -4480.00
00135            -880.00    -4480.00
00136            -880.00    -4480.00
00137            -880.00    -4520.00
00138            -880.00    -4520.00
00139            -880.00    -4520.00
00140            -880.00    -4520.00
00141            -880.00    -4560.00
00142            -880.00    -4560.00
00143            -920.00    -4600.00
00144            -920.00    -4600.00
00145            -920.00    -4600.00
00146            -920.00    -4640.00
00147            -920.00    -4640.00
00148            -880.00    -4640.00
00149            -920.00    -4640.00
00150            -920.00    -4640.00
00151            -880.00    -4680.00
00152            -920.00    -4680.00
00153            -880.00    -4680.00
00154            -920.00    -4680.00
00155            -920.00    -4720.00
00156            -920.00    -4680.00
00157            -920.00    -4720.00
00158            -920.00    -4720.00
00159            -920.00    -4760.00
00160            -920.00    -4720.00
00161            -920.00    -4760.00
00162            -920.00    -4800.00
00163            -880.00    -4760.00
00164            -920.00    -4800.00
00165            -920.00    -4760.00
00166            -920.00    -4800.00
00167            -920.00    -4840.00
00168            -920.00    -4800.00
00169            -960.00    -4840.00
00170            -920.00    -4840.00
00171            -920.00    -4840.00
00172            -960.00    -4880.00
00173            -960.00    -4880.00
00174            -920.00    -4880.00
00175            -920.00    -4840.00
00176            -920.00    -4880.00
00177            -920.00    -4880.00
00178           -1000.00    -4880.00
00179            -960.00    -4880.00
00180            -920.00    -4880.00
00181            -920.00    -4880.00
00182            -960.00    -4880.00
00183           -1000.00    -4880.00
00184           -1000.00    -4960.00
00185           -1000.00    -4880.00
00186           -1000.00    -4880.00
00187            -960.00    -4880.00
00188           -1000.00    -4960.00
00189           -1000.00    -4920.00
00190           -1000.00    -4960.00
00191           -1000.00    -4960.00
00192           -1000.00    -4960.00
00193           -1000.00    -4960.00
00194           -1000.00    -4960.00
00195           -1000.00    -4960.00
00196           -1000.00    -4960.00
00197           -1000.00    -4960.00
00198           -1000.00    -4960.00
00199           -1000.00    -4960.00
00200           -1000.00    -4960.00
00201           -1000.00    -4960.00
00202           -1000.00    -4960.00
00203           -1000.00    -4960.00
00204           -1000.00    -5000.00
00205           -1000.00    -5000.00
00206           -1000.00    -4960.00
00207           -1000.00    -4960.00
00208           -1000.00    -4960.00
00209           -1000.00    -4960.00
00210           -1000.00    -4960.00
00211           -1000.00    -4960.00
00212           -1000.00    -4960.00
00213           -1000.00    -4960.00
00214           -1000.00    -4960.00
00215           -1000.00    -4960.00
00216           -1000.00    -5000.00
00217           -1000.00    -4960.00
00218           -1000.00    -4960.00
00219           -1000.00    -4960.00
00220            -920.00    -4960.00
00221           -1000.00    -4960.00
00222           -1000.00    -4960.00
00223           -1000.00    -4920.00
00224           -1000.00    -4960.00
00225            -960.00    -4960.00
00226           -1000.00    -4920.00
00227           -1000.00    -4960.00
00228           -1000.00    -4920.00
00229           -1000.00    -4920.00
00230           -1000.00    -4920.00
00231           -1000.00    -4960.00
00232            -960.00    -4920.00
00233           -1000.00    -4880.00
00234            -920.00    -4880.00
00235            -920.00    -4880.00
00236            -960.00    -4880.00
00237            -960.00    -4880.00
00238            -920.00    -4880.00
00239            -920.00    -4880.00
00240            -960.00    -4880.00
00241            -960.00    -4880.00
00242            -960.00    -4880.00
00243            -920.00    -4840.00
00244            -920.00    -4840.00
00245            -920.00    -4840.00
00246           -1000.00    -4840.00
00247            -920.00    -4840.00
00248            -920.00    -4840.00
00249            -920.00    -4760.00
00250            -920.00    -4800.00
00251            -960.00    -4800.00
00252           -1000.00    -4760.00
00253            -960.00    -4800.00
00254           -1000.00    -4760.00
00255            -920.00    -4800.00
00256            -920.00    -4760.00
00257            -920.00    -4720.00
00258            -920.00    -4760.00
00259            -960.00    -4720.00
00260            -920.00    -4720.00
00261            -920.00    -4680.00
00262            -920.00    -4680.00
00263            -920.00    -4680.00
00264            -920.00    -4680.00
00265            -920.00    -4680.00
00266            -920.00    -4680.00
00267            -920.00    -4680.00
00268            -920.00    -4640.00
00269            -920.00    -4640.00
00270            -920.00    -4640.00
00271            -920.00    -4600.00
00272            -920.00    -4640.00
00273            -920.00    -4560.00
00274            -920.00    -4560.00
00275            -920.00    -4560.00
00276            -920.00    -4560.00
00277            -920.00    -4560.00
00278            -920.00    -4520.00
00279            -880.00    -4520.00
00280            -920.00    -4520.00
00281            -880.00    -4480.00
00282            -880.00    -4480.00
00283            -920.00    -4480.00
00284            -880.00    -4480.00
00285            -880.00    -4480.00
00286            -880.00    -4400.00
00287            -880.00    -4400.00
00288            -880.00    -4400.00
00289            -880.00    -4400.00
00290            -880.00    -4360.00
00291            -880.00    -4360.00
00292            -880.00    -4360.00
00293            -840.00    -4320.00
00294            -880.00    -4280.00
00295            -880.00    -4280.00
00296            -840.00    -4240.00
00297            -880.00    -4240.00
00298            -880.00    -4240.00
00299            -880.00    -4200.00
00300            -840.00    -4200.00
00301            -840.00    -4160.00
00302            -800.00    -4200.00
00303            -840.00    -4160.00
00304            -840.00    -4160.00
00305            -840.00    -4120.00
00306            -840.00    -4080.00
00307            -840.00    -4080.00
00308            -800.00    -4040.00
00309            -760.00    -4040.00
00310            -840.00    -4040.00
00311            -760.00    -4000.00
00312            -840.00    -4000.00
00313            -760.00    -3960.00
00314            -800.00    -3960.00
00315            -760.00    -3920.00
00316            -760.00    -3920.00
00317            -760.00    -3920.00
00318            -800.00    -3880.00
00319            -840.00    -3840.00
00320            -760.00    -3840.00
00321            -760.00    -3840.00
00322            -800.00    -3840.00
00323            -760.00    -3800.00
00324            -760.00    -3760.00
00325            -760.00    -3760.00
00326            -760.00    -3760.00
00327            -760.00    -3720.00
00328            -760.00    -3680.00
00329            -760.00    -3680.00
00330            -760.00    -3680.00
00331            -760.00    -3640.00
00332            -760.00    -3600.00
00333            -720.00    -3600.00
00334            -720.00    -3560.00
00335            -720.00    -3520.00
00336            -720.00    -3480.00
00337            -720.00    -3480.00
00338            -720.00    -3440.00
00339            -720.00    -3440.00
00340            -720.00    -3440.00
00341            -680.00    -3440.00
00342            -680.00    -3400.00
00343            -720.00    -3360.00
00344            -680.00    -3360.00
00345            -680.00    -3320.00
00346            -680.00    -3280.00
00347            -680.00    -3280.00
00348            -680.00    -3240.00
00349            -680.00    -3240.00
00350            -600.00    -3200.00
00351            -640.00    -3200.00
00352            -600.00    -3160.00
00353            -680.00    -3120.00
00354            -640.00    -3120.00
00355            -600.00    -3080.00
00356            -600.00    -3040.00
00357            -600.00    -3040.00
00358            -600.00    -3040.00
00359            -600.00    -2960.00
00360            -600.00    -2960.00
00361            -600.00    -2920.00
00362            -600.00    -2920.00
00363            -560.00    -2880.00
00364            -560.00    -2880.00
00365            -560.00    -2800.00
00366            -560.00    -2800.00
00367            -560.00    -2760.00
00368            -560.00    -2760.00
00369            -560.00    -2720.00
00370            -560.00    -2720.00
00371            -560.00    -2640.00
00372            -520.00    -2640.00
00373            -560.00    -2640.00
00374            -520.00    -2600.00
00375            -560.00    -2600.00
00376            -520.00    -2560.00
00377            -520.00    -2560.00
00378            -520.00    -2480.00
00379            -520.00    -2480.00
00380            -560.00    -2440.00
00381            -520.00    -2440.00
00382            -480.00    -2400.00
00383            -520.00    -2400.00
00384            -520.00    -2320.00
00385            -480.00    -2320.00
00386            -440.00    -2280.00
00387            -480.00    -2200.00
00388            -440.00    -2200.00
00389            -480.00    -2200.00
00390            -440.00    -2160.00
00391            -440.00    -2160.00
00392            -440.00    -2120.00
00393            -440.00    -2080.00
00394            -440.00    -2040.00
00395            -440.00    -2000.00
00396            -440.00    -2000.00
00397            -440.00    -2000.00
00398            -400.00    -1920.00
00399            -440.00    -1920.00
00400            -400.00    -1920.00
00401            -400.00    -1880.00
00402            -440.00    -1840.00
00403            -400.00    -1800.00
00404            -400.00    -1800.00
00405            -360.00    -1760.00
00406            -400.00    -1720.00
00407            -360.00    -1680.00
00408            -400.00    -1680.00
00409            -360.00    -1640.00
00410            -320.00    -1640.00
00411            -320.00    -1600.00
00412            -360.00    -1520.00
00413            -320.00    -1520.00
00414            -280.00    -1480.00
00415            -280.00    -1480.00
00416            -320.00    -1440.00
00417            -320.00    -1400.00
00418            -280.00    -1360.00
00419            -280.00    -1320.00
00420            -280.00    -1280.00
00421            -240.00    -1280.00
00422            -240.00    -1280.00
00423            -280.00    -1200.00
00424            -280.00    -1200.00
00425            -240.00    -1200.00
00426            -280.00    -1160.00
00427            -240.00    -1120.00
00428            -240.00    -1080.00
00429            -240.00    -1040.00
00430            -200.00    -1040.00
00431            -240.00    -1000.00
00432            -200.00     -960.00
00433            -240.00     -920.00
00434            -200.00     -880.00
00435            -120.00     -880.00
00436            -200.00     -840.00
00437            -200.00     -840.00
00438            -120.00     -800.00
00439            -160.00     -720.00
00440            -160.00     -720.00
00441            -120.00     -680.00
00442            -160.00     -680.00
00443            -120.00     -640.00
00444            -120.00     -640.00
00445            -120.00     -560.00
00446            -120.00     -560.00
00447            -120.00     -520.00
00448            -120.00     -480.00
00449            -120.00     -480.00
00450            -120.00     -400.00
00451            -120.00     -400.00
00452            -120.00     -400.00
00453            -120.00     -320.00
00454            -120.00     -320.00
00455             -80.00     -280.00
00456             -80.00     -240.00
00457             -80.00     -200.00
00458             -80.00     -200.00
00459             -80.00     -160.00
00460             -40.00     -120.00
00461             -40.00      -80.00
00462             -40.00      -80.00
00463             -40.00      -40.00
00464             -40.00        0.00
00465             -40.00        0.00
00466             -40.00       80.00
00467             -40.00       80.00
00468             -40.00      120.00
00469               0.00      120.00
00470              40.00      160.00
00471              40.00      200.00
00472              40.00      280.00
00473              40.00      320.00
00474              80.00      360.00
00475              40.00      320.00
00476             -40.00      280.00
00477              40.00      400.00
00478              80.00      440.00
00479              80.00      480.00
00480              80.00      480.00
00481              80.00      560.00
00482              80.00      560.00
00483              80.00      560.00
00484              80.00      600.00
00485             120.00      640.00
00486             120.00      680.00
00487              80.00      720.00
00488             120.00      720.00
00489             120.00      800.00
00490             160.00      800.00
00491             200.00      840.00
00492             200.00      880.00
00493             160.00      880.00
00494             200.00      920.00
00495             120.00      960.00
00496             200.00     1040.00
00497             200.00     1000.00
00498             200.00     1080.00
00499             200.00     1080.00
00500             200.00     1120.00
00501             240.00     1120.00
00502             200.00     1200.00
00503             240.00     1200.00
00504             200.00     1240.00
00505             240.00     1240.00
00506             240.00     1280.00
00507             240.00     1320.00
00508             280.00     1360.00
00509             240.00     1400.00
00510             240.00     1400.00
00511             280.00     1440.00
00512             280.00     1480.00
00513             240.00     1480.00
00514             280.00     1520.00
00515             280.00     1560.00
00516             240.00     1600.00
00517             320.00     1640.00
00518             360.00     1640.00
00519             280.00     1680.00
00520             360.00     1720.00
00521             320.00     1720.00
00522             360.00     1760.00
00523             360.00     1800.00
00524             360.00     1840.00
00525             360.00     1840.00
00526             360.00     1880.00
00527             360.00     1880.00
00528             360.00     1920.00
00529             400.00     1960.00
00530             400.00     1960.00
00531             400.00     2000.00
00532             360.00     2040.00
00533             400.00     2080.00
00534             400.00     2080.00
00535             400.00     2160.00
00536             400.00     2160.00
00537             400.00     2200.00
00538             400.00     2240.00
00539             440.00     2240.00
00540             440.00     2280.00
00541             440.00     2280.00
00542             440.00     2320.00
00543             440.00     2360.00
00544             520.00     2400.00
00545             440.00     2440.00
00546             440.00     2480.00
00547             440.00     2480.00
00548             520.00     2520.00
00549             520.00     2520.00
00550             520.00     2560.00
00551             480.00     2560.00
00552             520.00     2600.00
00553             520.00     2640.00
00554             520.00     2680.00
00555             520.00     2680.00
00556             520.00     2720.00
00557             560.00     2720.00
00558             560.00     2760.00
00559             520.00     2800.00
00560             560.00     2840.00
00561             560.00     2840.00
00562             520.00     2880.00
00563             560.00     2920.00
00564             600.00     2920.00
00565             560.00     2960.00
00566             600.00     2960.00
00567             560.00     2960.00
00568             600.00     3000.00
00569             600.00     3040.00
00570             600.00     3040.00
00571             600.00     3120.00
00572             600.00     3120.00
00573             600.00     3160.00
00574             680.00     3160.00
00575             600.00     3200.00
00576             640.00     3200.00
00577             640.00     3240.00
00578             560.00     3280.00
00579             680.00     3280.00
00580             680.00     3280.00
00581             640.00     3320.00
00582             640.00     3360.00
00583             680.00     3360.00
00584             680.00     3360.00
00585             680.00     3440.00
00586             680.00     3440.00
00587             680.00     3480.00
00588             680.00     3480.00
00589             720.00     3480.00
00590             680.00     3520.00
00591             680.00     3560.00
00592             680.00     3560.00
00593             720.00     3560.00
00594             720.00     3640.00
00595             720.00     3640.00
00596             720.00     3680.00
00597             680.00     3680.00
00598             720.00     3680.00
00599             720.00     3720.00
00600             720.00     3760.00
00601             720.00     3760.00
00602             720.00     3800.00
00603             720.00     3800.00
00604             760.00     3800.00
00605             720.00     3840.00
00606             760.00     3840.00
00607             720.00     3880.00
00608             720.00     3920.00
00609             760.00     3920.00
00610             800.00     3920.00
00611             840.00     3960.00
00612             760.00     4000.00
00613             760.00     4000.00
00614             760.00     4000.00
00615             760.00     4040.00
00616             800.00     4080.00
00617             760.00     4120.00
00618             800.00     4080.00
00619             840.00     4120.00
00620             840.00     4160.00
00621             840.00     4120.00
00622             840.00     4200.00
00623             840.00     4160.00
00624             840.00     4200.00
00625             840.00     4240.00
00626             840.00     4240.00
00627             840.00     4240.00
00628             840.00     4240.00
00629             880.00     4280.00
00630             880.00     4280.00
00631             840.00     4320.00
00632             840.00     4320.00
00633             880.00     4360.00
00634             880.00     4360.00
00635             880.00     4360.00
00636             880.00     4400.00
00637             880.00     4400.00
00638             880.00     4400.00
00639             880.00     4440.00
00640             880.00     4440.00
00641             880.00     4440.00
00642             880.00     4480.00
00643             880.00     4480.00
00644             880.00     4480.00
00645             840.00     4480.00
00646             880.00     4520.00
00647             880.00     4520.00
00648             840.00     4560.00
00649             880.00     4560.00
00650             840.00     4560.00
00651             880.00     4600.00
00652             880.00     4600.00
00653             920.00     4600.00
00654             880.00     4600.00
00655             920.00     4640.00
00656             920.00     4640.00
00657             920.00     4640.00
00658             920.00     4680.00
00659             920.00     4680.00
00660             920.00     4680.00
00661             920.00     4720.00
00662             920.00     4680.00
00663             920.00     4720.00
00664             880.00     4720.00
00665             920.00     4720.00
00666             880.00     4720.00
00667             920.00     4760.00
00668             920.00     4760.00
00669            1000.00     4760.00
00670             920.00     4760.00
00671             960.00     4760.00
00672             920.00     4800.00
00673            1000.00     4800.00
00674             960.00     4800.00
00675             920.00     4800.00
00676             960.00     4840.00
00677             960.00     4840.00
00678             960.00     4840.00
00679             920.00     4840.00
00680             960.00     4840.00
00681            1000.00     4880.00
00682            1000.00     4880.00
00683            1000.00     4880.00
00684            1000.00     4880.00
00685            1040.00     4880.00
00686            1000.00     4880.00
00687            1000.00     4880.00
00688            1000.00     4880.00
00689            1040.00     4880.00
00690             960.00     4920.00
00691            1000.00     4920.00
00692            1000.00     4920.00
00693            1040.00     4920.00
00694            1000.00     4920.00
00695            1000.00     4920.00
00696            1000.00     4920.00
00697            1040.00     4960.00
00698            1000.00     4960.00
00699            1000.00     4960.00
00700            1000.00     4960.00
00701            1040.00     4960.00
00702            1000.00     4960.00
00703            1000.00     4960.00
00704            1040.00     4960.00
00705            1040.00     4960.00
00706            1000.00     4960.00
00707            1000.00     4960.00
00708            1000.00     4960.00
00709            1000.00     4960.00
00710            1000.00     4960.00
00711            1000.00     4960.00
00712            1000.00     4960.00
00713            1000.00     4960.00
00714            1000.00     4960.00
00715            1000.00     4960.00
00716            1000.00     4960.00
00717            1000.00     4960.00
00718            1000.00     4960.00
00719            1040.00     5000.00
00720            1000.00     4960.00
00721            1000.00     4960.00
00722            1000.00     4960.00
00723            1000.00     4960.00
00724            1000.00     4960.00
00725            1000.00     4960.00
00726            1000.00     4960.00
00727            1040.00     4960.00
00728            1000.00     4960.00
00729            1000.00     4960.00
00730            1000.00     4960.00
00731            1000.00     4960.00
00732            1000.00     4920.00
00733            1040.00     4960.00
00734            1000.00     4960.00
00735            1000.00     4960.00
00736            1000.00     4920.00
00737             960.00     4920.00
00738            1000.00     4960.00
00739            1040.00     4920.00
00740            1000.00     4920.00
00741            1000.00     4920.00
00742            1000.00     4920.00
00743            1000.00     4920.00
00744            1040.00     4880.00
00745            1000.00     4880.00
00746            1000.00     4920.00
00747            1000.00     4920.00
00748            1000.00     4880.00
00749            1040.00     4880.00
00750            1000.00     4880.00
00751            1000.00     4880.00
00752            1000.00     4880.00
00753            1000.00     4880.00
00754            1000.00     4840.00
00755            1000.00     4840.00
00756            1000.00     4800.00
00757            1000.00     4800.00
00758            1000.00     4800.00
00759             920.00     4800.00
00760            1000.00     4800.00
00761             960.00     4800.00
00762            1000.00     4760.00
00763            1000.00     4800.00
00764            1000.00     4760.00
00765             920.00     4760.00
00766            1000.00     4760.00
00767            1000.00     4760.00
00768            1000.00     4720.00
00769             920.00     4720.00
00770             920.00     4720.00
00771             920.00     4720.00
00772             960.00     4720.00
00773             920.00     4680.00
00774             960.00     4680.00
00775             920.00     4640.00
00776             920.00     4640.00
00777             920.00     4640.00
00778             920.00     4600.00
00779             920.00     4600.00
00780             920.00     4600.00
00781             920.00     4600.00
00782             920.00     4600.00
00783             880.00     4560.00
00784             880.00     4560.00
00785             920.00     4560.00
00786             880.00     4520.00
00787             920.00     4520.00
00788             920.00     4480.00
00789             880.00     4480.00
00790             880.00     4480.00
00791             920.00     4440.00
00792             880.00     4480.00
00793             880.00     4440.00
00794             880.00     4440.00
00795             880.00     4400.00
00796             880.00     4440.00
00797             880.00     4400.00
00798             880.00     4400.00
00799             880.00     4360.00
00800             880.00     4320.00
00801             880.00     4320.00
00802             880.00     4280.00
00803             880.00     4280.00
00804             880.00     4280.00
00805             880.00     4280.00
00806             880.00     4280.00
00807             840.00     4240.00
00808             840.00     4240.00
00809             840.00     4240.00
00810             840.00     4160.00
00811             880.00     4200.00
00812             840.00     4160.00
00813             840.00     4120.00
00814             840.00     4120.00
00815             840.00     4120.00
00816             840.00     4080.00
00817             840.00     4080.00
00818             840.00     4080.00
00819             840.00     4040.00
00820             840.00     4000.00
00821             840.00     4000.00
00822             840.00     3960.00
00823             840.00     3960.00
00824             840.00     3920.00
00825             800.00     3960.00
00826             840.00     3920.00
00827             800.00     3920.00
00828             800.00     3880.00
00829             840.00     3840.00
00830             800.00     3840.00
00831             760.00     3840.00
00832             800.00     3760.00
00833             760.00     3760.00
00834             760.00     3760.00
00835             760.00     3760.00
00836             720.00     3680.00
00837             720.00     3680.00
00838             720.00     3680.00
00839             760.00     3640.00
00840             720.00     3600.00
00841             720.00     3640.00
00842             720.00     3560.00
00843             720.00     3520.00
00844             720.00     3520.00
00845             720.00     3480.00
00846             720.00     3480.00
00847             680.00     3480.00
00848             680.00     3440.00
00849             680.00     3440.00
00850             680.00     3440.00
00851             720.00     3360.00
00852             680.00     3360.00
00853             720.00     3320.00
00854             680.00     3320.00
00855             680.00     3280.00
00856             640.00     3280.00
00857             680.00     3200.00
00858             680.00     3200.00
00859             680.00     3200.00
00860             600.00     3160.00
00861             680.00     3160.00
00862             600.00     3120.00
00863             600.00     3120.00
00864             600.00     3040.00
00865             600.00     3040.00
00866             640.00     3000.00
00867             600.00     3000.00
00868             600.00     3000.00
00869             560.00     2960.00
00870             600.00     2960.00
00871             560.00     2920.00
00872             600.00     2880.00
00873             600.00     2840.00
00874             600.00     2800.00
00875             600.00     2800.00
00876             560.00     2760.00
00877             600.00     2720.00
00878             560.00     2720.00
00879             560.00     2680.00
00880             560.00     2680.00
00881             600.00     2640.00
00882             560.00     2640.00
00883             560.00     2600.00
00884             520.00     2560.00
00885             520.00     2520.00
00886             520.00     2520.00
00887             520.00     2480.00
00888             520.00     2480.00
00889             520.00     2440.00
00890             520.00     2400.00
00891             520.00     2360.00
00892             520.00     2360.00
00893             480.00     2360.00
00894             520.00     2280.00
00895             520.00     2280.00
00896             480.00     2240.00
00897             440.00     2200.00
00898             440.00     2200.00
00899             440.00     2160.00
00900             440.00     2120.00
00901             440.00     2160.00
00902             440.00     2080.00
00903             400.00     2040.00
00904             400.00     2040.00
00905             400.00     2000.00
00906             400.00     1920.00
00907             400.00     1960.00
00908             400.00     1920.00
00909             400.00     1880.00
00910             400.00     1880.00
00911             400.00     1840.00
00912             400.00     1800.00
00913             360.00     1760.00
00914             360.00     1760.00
00915             360.00     1720.00
00916             360.00     1680.00
00917             360.00     1680.00
00918             360.00     1640.00
00919             360.00     1600.00
00920             360.00     1560.00
00921             360.00     1560.00
00922             320.00     1520.00
00923             360.00     1520.00
00924             280.00     1440.00
00925             280.00     1400.00
00926             320.00     1400.00
00927             280.00     1360.00
00928             280.00     1360.00
00929             280.00     1320.00
00930             280.00     1280.00
00931             280.00     1240.00
00932             280.00     1240.00
00933             280.00     1200.00
00934             280.00     1200.00
00935             240.00     1120.00
00936             280.00     1120.00
00937             240.00     1080.00
00938             240.00     1040.00
00939             240.00     1000.00
00940             240.00      960.00
00941             200.00      960.00
00942             240.00      920.00
00943             200.00      880.00
00944             200.00      880.00
00945             200.00      800.00
00946             200.00      800.00
00947             200.00      760.00
00948             200.00      760.00
00949             200.00      720.00
00950             200.00      640.00
00951             160.00      640.00
00952             200.00      640.00
00953             160.00      600.00
00954             160.00      560.00
00955             120.00      560.00
00956             120.00      520.00
00957             120.00      480.00
00958             120.00      440.00
00959             120.00      400.00
00960             120.00      400.00
00961              80.00      360.00
00962              80.00      320.00
00963              80.00      280.00
00964              80.00      280.00
00965              80.00      240.00
00966              80.00      240.00
00967              80.00      200.00
00968              80.00      120.00
00969              80.00       80.00
00970              40.00       80.00
00971              40.00       40.00
00972              40.00        0.00
00973              40.00        0.00
00974              40.00      -40.00
00975             -40.00      -80.00
00976              40.00     -120.00
00977             -40.00     -160.00
00978               0.00     -160.00
00979               0.00     -200.00
00980             -40.00     -240.00
00981             -40.00     -240.00
00982             -40.00     -240.00
00983             -40.00     -320.00
00984             -40.00     -360.00
00985            -120.00     -480.00
00986            -120.00     -440.00
00987             -40.00     -400.00
00988             -40.00     -480.00
00989            -120.00     -520.00
00990             -80.00     -520.00
00991             -80.00     -560.00
00992             -80.00     -640.00
00993            -120.00     -640.00
00994            -120.00     -640.00
00995             -80.00     -680.00
00996            -120.00     -720.00
00997            -120.00     -760.00
00998            -120.00     -760.00
00999            -120.00     -840.00
01000            -120.00     -840.00
01001            -120.00     -880.00
01002            -160.00     -880.00
01003            -120.00     -920.00
01004            -120.00     -960.00
01005            -200.00     -960.00
01006            -160.00    -1040.00
01007            -200.00    -1040.00
01008            -120.00    -1120.00
01009            -160.00    -1120.00
01010            -240.00    -1160.00
01011            -200.00    -1160.00
01012            -200.00    -1200.00
01013            -240.00    -1240.00
01014            -200.00    -1280.00
01015            -240.00    -1320.00
01016            -240.00    -1320.00
01017            -240.00    -1360.00
01018            -240.00    -1400.00
01019            -240.00    -1440.00
01020            -240.00    -1440.00
01021            -240.00    -1480.00
01022            -240.00    -1520.00
01023            -280.00    -1520.00
01024            -280.00    -1600.00
01025            -280.00    -1600.00
01026            -280.00    -1640.00
01027            -280.00    -1680.00
01028            -280.00    -1680.00
01029            -280.00    -1720.00
01030            -360.00    -1760.00
01031            -360.00    -1760.00
01032            -360.00    -1800.00
01033            -360.00    -1800.00
01034            -360.00    -1840.00
01035            -400.00    -1920.00
01036            -360.00    -1920.00
01037            -400.00    -1920.00
01038            -360.00    -1960.00
01039            -400.00    -2000.00
01040            -400.00    -2000.00
01041            -400.00    -2080.00
01042            -400.00    -2120.00
01043            -440.00    -2120.00
01044            -400.00    -2120.00
01045            -440.00    -2160.00
01046            -440.00    -2160.00
01047            -440.00    -2240.00
01048            -440.00    -2240.00
01049            -440.00    -2280.00
01050            -440.00    -2320.00
01051            -440.00    -2360.00
01052            -440.00    -2400.00
01053            -480.00    -2400.00
01054            -440.00    -2400.00
01055            -440.00    -2440.00
01056            -440.00    -2480.00
01057            -480.00    -2480.00
01058            -440.00    -2520.00
01059            -440.00    -2560.00
01060            -520.00    -2560.00
01061            -520.00    -2600.00
01062            -440.00    -2640.00
01063            -520.00    -2640.00
01064            -520.00    -2720.00
01065            -520.00    -2720.00
01066            -560.00    -2760.00
01067            -520.00    -2760.00
01068            -560.00    -2800.00
01069            -560.00    -2800.00
01070            -520.00    -2880.00
01071            -560.00    -2880.00
01072            -560.00    -2880.00
01073            -560.00    -2920.00
01074            -560.00    -2920.00
01075            -560.00    -2960.00
01076            -560.00    -3040.00
01077            -560.00    -3040.00
01078            -560.00    -3040.00
01079            -560.00    -3080.00
01080            -600.00    -3080.00
01081            -600.00    -3120.00
01082            -600.00    -3120.00
01083            -600.00    -3160.00
01084            -600.00    -3200.00
01085            -600.00    -3240.00
01086            -600.00    -3240.00
01087            -600.00    -3240.00
01088            -600.00    -3280.00
01089            -600.00    -3280.00
01090            -600.00    -3320.00
01091            -600.00    -3360.00
01092            -680.00    -3360.00
01093            -680.00    -3400.00
01094            -640.00    -3400.00
01095            -600.00    -3440.00
01096            -600.00    -3440.00
01097            -680.00    -3480.00
01098            -680.00    -3520.00
01099            -680.00    -3520.00
01100            -680.00    -3560.00
01101            -720.00    -3560.00
01102            -680.00    -3600.00
01103            -680.00    -3600.00
01104            -720.00    -3640.00
01105            -720.00    -3680.00
01106            -720.00    -3720.00
01107            -720.00    -3680.00
01108            -720.00    -3720.00
01109            -720.00    -3760.00
01110            -720.00    -3760.00
01111            -760.00    -3760.00
01112            -760.00    -3800.00
01113            -720.00    -3840.00
01114            -760.00    -3840.00
01115            -760.00    -3880.00
01116            -760.00    -3880.00
01117            -760.00    -3880.00
01118            -760.00    -3920.00
01119            -760.00    -3920.00
01120            -760.00    -3960.00
01121            -760.00    -4000.00
01122            -800.00    -4000.00
01123            -760.00    -4000.00
01124            -760.00    -4080.00
01125            -760.00    -4040.00
01126            -800.00    -4080.00
01127            -760.00    -4080.00
01128            -840.00    -4120.00
01129            -760.00    -4120.00
01130            -800.00    -4120.00
01131            -800.00    -4160.00
01132            -840.00    -4200.00
01133            -840.00    -4200.00
01134            -840.00    -4240.00
01135            -840.00    -4200.00
01136            -840.00    -4240.00
01137            -840.00    -4240.00
01138            -840.00    -4240.00
01139            -840.00    -4280.00
01140            -840.00    -4320.00
01141            -840.00    -4320.00
01142            -840.00    -4320.00
01143            -840.00    -4360.00
01144            -880.00    -4360.00
01145            -840.00    -4400.00
01146            -840.00    -4400.00
01147            -880.00    -4440.00
01148            -880.00    -4400.00
01149            -880.00    -4440.00
01150            -880.00    -4480.00
01151            -880.00    -4480.00
01152            -880.00    -4480.00
01153            -880.00    -4480.00
01154            -880.00    -4480.00
01155            -920.00    -4520.00
01156            -880.00    -4520.00
01157            -880.00    -4560.00
01158            -880.00    -4560.00
01159            -880.00    -4560.00
01160            -880.00    -4560.00
01161            -880.00    -4640.00
01162            -880.00    -4560.00
01163            -880.00    -4600.00
01164            -920.00    -4640.00
01165            -920.00    -4640.00
01166            -880.00    -4640.00
01167            -920.00    -4640.00
01168            -920.00    -4680.00
01169            -920.00    -4680.00
01170            -920.00    -4680.00
01171            -920.00    -4680.00
01172            -920.00    -4720.00
01173            -920.00    -4720.00
01174            -920.00    -4760.00
01175           -1000.00    -4720.00
01176            -920.00    -4720.00
01177            -960.00    -4760.00
01178            -920.00    -4760.00
01179           -1000.00    -4800.00
01180            -960.00    -4760.00
01181            -920.00    -4800.00
01182            -920.00    -4800.00
01183            -920.00    -4800.00
01184            -920.00    -4840.00
01185            -920.00    -4800.00
01186           -1000.00    -4840.00
01187            -960.00    -4840.00
01188           -1000.00    -4840.00
01189            -920.00    -4840.00
01190           -1000.00    -4840.00
01191           -1000.00    -4880.00
01192            -920.00    -4880.00
01193            -960.00    -4880.00
01194            -920.00    -4880.00
01195            -960.00    -4880.00
01196            -960.00    -4880.00
01197           -1000.00    -4920.00
01198           -1000.00    -4880.00
01199           -1000.00    -4880.00
01200           -1000.00    -4880.00
01201            -920.00    -4880.00
01202           -1000.00    -4920.00
01203           -1000.00    -4880.00
01204            -960.00    -4920.00
01205           -1000.00    -4960.00
01206            -960.00    -4960.00
01207            -960.00    -4960.00
01208           -1000.00    -4960.00
01209           -1000.00    -4960.00
01210           -1000.00    -4920.00
01211            -960.00    -4960.00
01212           -1000.00    -4960.00
01213           -1000.00    -4960.00
01214            -960.00    -4960.00
01215           -1000.00    -4960.00
01216           -1000.00    -4960.00
01217           -1000.00    -5000.00
01218            -960.00    -4960.00
01219           -1000.00    -4960.00
01220           -1000.00    -4960.00
01221            -960.00    -4960.00
01222            -960.00    -4960.00
01223           -1000.00    -4960.00
01224           -1000.00    -4960.00
01225           -1000.00    -4960.00
01226           -1000.00    -4960.00
01227           -1000.00    -4960.00
01228           -1000.00    -4960.00
01229           -1000.00    -5000.00
01230           -1000.00    -4960.00
01231           -1000.00    -4960.00
01232           -1000.00    -4960.00
01233           -1000.00    -4960.00
01234           -1000.00    -5000.00
01235           -1000.00    -4960.00
01236           -1000.00    -4960.00
01237           -1000.00    -4960.00
01238           -1000.00    -4960.00
01239           -1000.00    -4960.00
01240           -1000.00    -4960.00
01241           -1000.00    -4960.00
01242           -1000.00    -4960.00
01243           -1000.00    -4960.00
01244           -1000.00    -4920.00
01245           -1000.00    -4960.00
01246           -1000.00    -4960.00
01247           -1000.00    -4960.00
01248           -1000.00    -4920.00
01249           -1000.00    -4880.00
01250           -1000.00    -4920.00
01251           -1000.00    -4880.00
01252           -1000.00    -4880.00
01253           -1000.00    -4880.00
01254           -1000.00    -4880.00
01255           -1000.00    -4880.00
01256           -1000.00    -4880.00
01257           -1000.00    -4880.00
01258            -960.00    -4840.00
01259           -1000.00    -4880.00
01260            -960.00    -4840.00
01261            -920.00    -4840.00
01262            -960.00    -4880.00
01263            -960.00    -4840.00
01264           -1000.00    -4840.00
01265            -920.00    -4840.00
01266           -1000.00    -4840.00
01267            -920.00    -4800.00
01268            -920.00    -4760.00
01269            -960.00    -4800.00
01270            -920.00    -4760.00
01271            -920.00    -4800.00
01272            -920.00    -4760.00
01273            -920.00    -4760.00
01274            -920.00    -4760.00
01275            -920.00    -4720.00
01276            -920.00    -4720.00
01277            -960.00    -4720.00
01278            -920.00    -4720.00
01279            -920.00    -4720.00
01280            -920.00    -4720.00
01281            -920.00    -4680.00
01282            -920.00    -4680.00
01283            -920.00    -4640.00
01284            -920.00    -4680.00
01285            -920.00    -4640.00
01286            -920.00    -4640.00
01287            -920.00    -4600.00
01288            -920.00    -4600.00
01289            -920.00    -4600.00
01290            -920.00    -4560.00
01291            -880.00    -4560.00
01292            -880.00    -4560.00
01293            -880.00    -4520.00
01294            -920.00    -4560.00
01295            -920.00    -4520.00
01296            -880.00    -4520.00
01297            -880.00    -4480.00
01298            -920.00    -4480.00
01299            -880.00    -4480.00
01300            -880.00    -4440.00
01301            -880.00    -4440.00
01302            -880.00    -4440.00
01303            -880.00    -4400.00
01304            -880.00    -4400.00
01305            -880.00    -4360.00
01306            -880.00    -4400.00
01307            -880.00    -4360.00
01308            -880.00    -4320.00
01309            -880.00    -4320.00
01310            -840.00    -4320.00
01311            -880.00    -4320.00
01312            -880.00    -4280.00
01313            -880.00    -4240.00
01314            -840.00    -4240.00
01315            -880.00    -4240.00
01316            -840.00    -4240.00
01317            -880.00    -4200.00
01318            -880.00    -4200.00
01319            -880.00    -4160.00
01320            -880.00    -4160.00
01321            -840.00    -4160.00
01322            -840.00    -4160.00
01323            -840.00    -4120.00
01324            -840.00    -4080.00
01325            -840.00    -4080.00
01326            -760.00    -4040.00
01327            -840.00    -4040.00
01328            -800.00    -4040.00
01329            -840.00    -4000.00
01330            -760.00    -4000.00
01331            -840.00    -3920.00
01332            -760.00    -3920.00
01333            -760.00    -3920.00
01334            -800.00    -3880.00
01335            -760.00    -3880.00
01336            -760.00    -3840.00
01337            -760.00    -3840.00
01338            -760.00    -3840.00
01339            -760.00    -3800.00
01340            -760.00    -3800.00
01341            -760.00    -3760.00
01342            -720.00    -3720.00
01343            -760.00    -3760.00
01344            -720.00    -3680.00
01345            -720.00    -3680.00
01346            -760.00    -3680.00
01347            -720.00    -3640.00
01348            -720.00    -3640.00
01349            -720.00    -3600.00
01350            -720.00    -3560.00
01351            -720.00    -3560.00
01352            -720.00    -3480.00
01353            -720.00    -3520.00
01354            -680.00    -3480.00
01355            -720.00    -3480.00
01356            -680.00    -3440.00
01357            -680.00    -3440.00
01358            -680.00    -3400.00
01359            -680.00    -3360.00
01360            -680.00    -3360.00
01361            -680.00    -3320.00
01362            -680.00    -3280.00
01363            -680.00    -3320.00
01364            -680.00    -3280.00
01365            -680.00    -3240.00
01366            -680.00    -3200.00
01367            -680.00    -3200.00
01368            -680.00    -3200.00
01369            -680.00    -3120.00
01370            -600.00    -3120.00
01371            -680.00    -3080.00
01372            -600.00    -3080.00
01373            -600.00    -3040.00
01374            -640.00    -3040.00
01375            -600.00    -3000.00
01376            -600.00    -2960.00
01377            -600.00    -2960.00
01378            -600.00    -2920.00
01379            -600.00    -2920.00
01380            -600.00    -2880.00
01381            -600.00    -2880.00
01382            -600.00    -2880.00
01383            -600.00    -2760.00
01384            -560.00    -2760.00
01385            -600.00    -2760.00
01386            -560.00    -2720.00
01387            -560.00    -2720.00
01388            -560.00    -2680.00
01389            -560.00    -2640.00
01390            -560.00    -2600.00
01391            -560.00    -2600.00
01392            -520.00    -2600.00
01393            -520.00    -2560.00
01394            -520.00    -2520.00
01395            -520.00    -2480.00
01396            -520.00    -2480.00
01397            -520.00    -2480.00
01398            -520.00    -2440.00
01399            -520.00    -2400.00
01400            -440.00    -2400.00
01401            -440.00    -2320.00
01402            -480.00    -2320.00
01403            -440.00    -2280.00
01404            -440.00    -2280.00
01405            -440.00    -2200.00
01406            -440.00    -2200.00
01407            -440.00    -2120.00
01408            -440.00    -2120.00
01409            -440.00    -2120.00
01410            -440.00    -2080.00
01411            -440.00    -2080.00
01412            -440.00    -2000.00
01413            -440.00    -2000.00
01414            -400.00    -1960.00
01415            -440.00    -1960.00
01416            -400.00    -1920.00
01417            -400.00    -1880.00
01418            -400.00    -1840.00
01419            -360.00    -1840.00
01420            -360.00    -1800.00
01421            -400.00    -1800.00
01422            -360.00    -1760.00
01423            -400.00    -1720.00
01424            -360.00    -1720.00
01425            -360.00    -1680.00
01426            -360.00    -1640.00
01427            -360.00    -1600.00
01428            -400.00    -1600.00
01429            -360.00    -1520.00
01430            -360.00    -1520.00
01431            -360.00    -1480.00
01432            -280.00    -1480.00
01433            -320.00    -1440.00
01434            -280.00    -1440.00
01435            -280.00    -1360.00
01436            -320.00    -1360.00
01437            -280.00    -1320.00
01438            -280.00    -1280.00
01439            -280.00    -1280.00
01440            -280.00    -1240.00
01441            -280.00    -1200.00
01442            -240.00    -1200.00
01443            -240.00    -1160.00
01444            -240.00    -1120.00
01445            -240.00    -1120.00
01446            -240.00    -1040.00
01447            -240.00    -1040.00
01448            -240.00    -1000.00
01449            -240.00     -960.00
01450            -200.00     -920.00
01451            -240.00     -880.00
01452            -160.00     -880.00
01453            -200.00     -880.00
01454            -200.00     -800.00
01455            -200.00     -800.00
01456            -200.00     -800.00
01457            -120.00     -720.00
01458            -120.00     -680.00
01459            -160.00     -680.00
01460            -200.00     -640.00
01461            -120.00     -600.00
01462            -120.00     -560.00
01463            -120.00     -560.00
01464            -120.00     -520.00
01465            -120.00     -480.00
01466            -120.00     -480.00
01467            -120.00     -440.00
01468             -80.00     -400.00
01469             -80.00     -360.00
01470             -80.00     -360.00
01471             -80.00     -320.00
01472             -80.00     -240.00
01473             -80.00     -240.00
01474             -80.00     -240.00
01475             -40.00     -200.00
01476             -40.00     -160.00
01477             -40.00     -120.00
01478             -40.00      -80.00
01479             -40.00      -80.00
01480             -40.00      -40.00
01481             -40.00        0.00
01482              40.00       40.00
01483              40.00       80.00
01484              40.00       80.00
01485               0.00      120.00
01486              40.00      160.00
01487              40.00      200.00
01488              40.00      240.00
01489              40.00      280.00
01490              40.00      320.00
01491              80.00      360.00
01492              40.00      360.00
01493             -40.00      280.00
01494              40.00      360.00
01495              80.00      440.00
01496              80.00      480.00
01497              80.00      480.00
01498              80.00      560.00
01499              80.00      560.00
01500              80.00      560.00
01501              80.00      640.00
01502             120.00      640.00
01503             120.00      680.00
01504              80.00      720.00
01505             120.00      720.00
01506             120.00      800.00
01507             120.00      800.00
01508             120.00      840.00
01509             200.00      880.00
01510             120.00      880.00
01511             120.00      920.00
01512             120.00      960.00
01513             200.00     1000.00
01514             200.00     1040.00
01515             200.00     1040.00
01516             200.00     1080.00
01517             160.00     1080.00
01518             200.00     1120.00
01519             240.00     1160.00
01520             240.00     1200.00
01521             240.00     1240.00
01522             240.00     1280.00
01523             240.00     1280.00
01524             240.00     1320.00
01525             280.00     1360.00
01526             240.00     1400.00
01527             280.00     1400.00
01528             280.00     1440.00
01529             280.00     1440.00
01530             280.00     1480.00
01531             280.00     1520.00
01532             280.00     1560.00
01533             280.00     1600.00
01534             320.00     1600.00
01535             360.00     1680.00
01536             360.00     1680.00
01537             360.00     1720.00
01538             360.00     1760.00
01539             360.00     1720.00
01540             360.00     1840.00
01541             360.00     1800.00
01542             360.00     1840.00
01543             360.00     1880.00
01544             360.00     1920.00
01545             360.00     1920.00
01546             400.00     2000.00
01547             400.00     2000.00
01548             400.00     2040.00
01549             400.00     2040.00
01550             400.00     2080.00
01551             440.00     2120.00
01552             400.00     2160.00
01553             400.00     2160.00
01554             400.00     2200.00
01555             440.00     2240.00
01556             440.00     2280.00
01557             400.00     2280.00
01558             440.00     2320.00
01559             440.00     2360.00
01560             440.00     2360.00
01561             440.00     2400.00
01562             440.00     2400.00
01563             440.00     2440.00
01564             480.00     2480.00
01565             520.00     2520.00
01566             480.00     2520.00
01567             520.00     2560.00
01568             480.00     2560.00
01569             520.00     2600.00
01570             520.00     2640.00
01571             520.00     2680.00
01572             520.00     2680.00
01573             520.00     2720.00
01574             520.00     2720.00
01575             520.00     2760.00
01576             560.00     2760.00
01577             520.00     2840.00
01578             520.00     2840.00
01579             520.00     2840.00
01580             560.00     2920.00
01581             520.00     2920.00
01582             560.00     2960.00
01583             560.00     2960.00
01584             600.00     3000.00
01585             600.00     3000.00
01586             600.00     3040.00
01587             600.00     3040.00
01588             600.00     3120.00
01589             600.00     3120.00
01590             640.00     3120.00
01591             560.00     3120.00
01592             600.00     3200.00
01593             600.00     3200.00
01594             600.00     3240.00
01595             680.00     3280.00
01596             680.00     3280.00
01597             640.00     3280.00
01598             680.00     3320.00
01599             680.00     3360.00
01600             680.00     3360.00
01601             680.00     3400.00
01602             680.00     3440.00
01603             680.00     3440.00
01604             680.00     3440.00
01605             680.00     3480.00
01606             680.00     3480.00
01607             720.00     3520.00
01608             680.00     3520.00
01609             720.00     3560.00
01610             720.00     3560.00
01611             720.00     3640.00
01612             720.00     3640.00
01613             720.00     3640.00
01614             720.00     3680.00
01615             720.00     3680.00
01616             720.00     3720.00
01617             720.00     3760.00
01618             760.00     3760.00
01619             720.00     3800.00
01620             760.00     3800.00
01621             760.00     3800.00
01622             760.00     3840.00
01623             760.00     3840.00
01624             760.00     3880.00
01625             720.00     3840.00
01626             760.00     3920.00
01627             760.00     3920.00
01628             760.00     3960.00
01629             760.00     3960.00
01630             760.00     3960.00
01631             800.00     4040.00
01632             760.00     4040.00
01633             800.00     4080.00
01634             840.00     4040.00
01635             760.00     4120.00
01636             760.00     4120.00
01637             800.00     4120.00
01638             840.00     4160.00
01639             800.00     4200.00
01640             800.00     4200.00
01641             840.00     4200.00
01642             840.00     4240.00
01643             840.00     4240.00
01644             840.00     4240.00
01645             840.00     4240.00
01646             840.00     4280.00
01647             840.00     4280.00
01648             840.00     4320.00
01649             840.00     4280.00
01650             840.00     4320.00
01651             880.00     4360.00
01652             840.00     4320.00
01653             880.00     4400.00
01654             840.00     4400.00
01655             880.00     4400.00
01656             880.00     4400.00
01657             880.00     4440.00
01658             880.00     4440.00
01659             880.00     4440.00
01660             880.00     4480.00
01661             920.00     4480.00
01662             880.00     4480.00
01663             880.00     4480.00
01664             880.00     4560.00
01665             920.00     4560.00
01666             880.00     4560.00
01667             960.00     4600.00
01668             880.00     4560.00
01669             920.00     4600.00
01670             920.00     4640.00
01671             920.00     4600.00
01672             880.00     4640.00
01673             920.00     4640.00
01674             920.00     4640.00
01675             920.00     4640.00
01676             920.00     4680.00
01677             920.00     4720.00
01678             960.00     4720.00
01679            1000.00     4720.00
01680             960.00     4720.00
01681             920.00     4720.00
01682             960.00     4720.00
01683            1000.00     4720.00
01684            1000.00     4760.00
01685             920.00     4760.00
01686             920.00     4720.00
01687            1000.00     4760.00
01688             920.00     4760.00
01689            1000.00     4760.00
01690             920.00     4800.00
01691             920.00     4840.00
01692             960.00     4800.00
01693             960.00     4800.00
01694            1000.00     4800.00
01695             920.00     4840.00
01696             920.00     4880.00
01697             960.00     4840.00
01698             960.00     4840.00
01699             920.00     4880.00
01700            1000.00     4880.00
01701            1000.00     4880.00
01702             920.00     4880.00
01703            1000.00     4880.00
01704             920.00     4920.00
01705            1000.00     4880.00
01706            1000.00     4880.00
01707            1000.00     4880.00
01708            1000.00     4920.00
01709             960.00     4880.00
01710            1000.00     4920.00
01711            1000.00     4920.00
01712            1000.00     4920.00
01713            1000.00     4920.00
01714            1000.00     4920.00
01715            1000.00     4920.00
01716            1000.00     4920.00
01717            1040.00     4920.00
01718            1040.00     4960.00
01719            1000.00     4960.00
01720            1000.00     4920.00
01721            1000.00     4960.00
01722            1000.00     4960.00
01723            1000.00     4960.00
01724            1040.00     4960.00
01725            1000.00     5000.00
01726            1040.00     4960.00
01727            1040.00     4960.00
01728            1000.00     4960.00
01729            1000.00     4960.00
01730            1040.00     4960.00
01731            1040.00     4960.00
01732            1000.00     4960.00
01733            1040.00     4960.00
01734            1000.00     4960.00
01735            1000.00     4960.00
01736            1040.00     4960.00
01737            1040.00     4960.00
01738            1040.00     4960.00
01739            1000.00     5000.00
01740            1000.00     4960.00
01741            1040.00     4960.00
01742            1040.00     4960.00
01743            1040.00     4960.00
01744            1040.00     4960.00
01745            1000.00     4960.00
01746            1000.00     4960.00
01747            1000.00     4960.00
01748            1000.00     4960.00
01749            1000.00     4960.00
01750            1000.00     4960.00
01751            1040.00     4960.00
01752            1040.00     4960.00
01753            1000.00     4960.00
01754            1000.00     4920.00
01755            1000.00     4960.00
01756            1000.00     4920.00
01757            1000.00     4920.00
01758            1000.00     4920.00
01759            1000.00     4920.00
01760            1000.00     4920.00
01761            1000.00     4920.00
01762            1000.00     4880.00
01763            1000.00     4920.00
01764            1000.00     4880.00
01765            1000.00     4880.00
01766             960.00     4880.00
01767            1000.00     4880.00
01768            1000.00     4880.00
01769            1000.00     4840.00
01770             960.00     4800.00
01771            1000.00     4840.00
01772            1000.00     4840.00
01773             960.00     4840.00
01774             920.00     4800.00
01775            1000.00     4800.00
01776             920.00     4800.00
01777             920.00     4800.00
01778            1000.00     4800.00
01779             920.00     4760.00
01780            1000.00     4760.00
01781            1000.00     4760.00
01782            1000.00     4760.00
01783             960.00     4760.00
01784             920.00     4760.00
01785            1000.00     4760.00
01786             920.00     4720.00
01787             960.00     4720.00
01788             920.00     4720.00
01789             960.00     4680.00
01790            1000.00     4680.00
01791             920.00     4640.00
01792             920.00     4640.00
01793             920.00     4640.00
01794             920.00     4640.00
01795            1000.00     4600.00
01796             920.00     4600.00
01797             920.00     4640.00
01798             920.00     4600.00
01799             920.00     4600.00
01800             960.00     4600.00
01801             920.00     4560.00
01802             920.00     4560.00
01803             920.00     4560.00
01804             920.00     4520.00
01805             920.00     4480.00
01806             880.00     4480.00
01807             920.00     4480.00
01808             920.00     4480.00
01809             920.00     4480.00
01810             920.00     4440.00
01811             880.00     4440.00
01812             920.00     4440.00
01813             880.00     4400.00
01814             920.00     4400.00
01815             840.00     4400.00
01816             880.00     4320.00
01817             920.00     4360.00
01818             880.00     4320.00
01819             880.00     4320.00
01820             880.00     4280.00
01821             840.00     4280.00
01822             840.00     4280.00
01823             880.00     4240.00
01824             880.00     4240.00
01825             840.00     4240.00
01826             840.00     4240.00
01827             840.00     4160.00
01828             840.00     4200.00
01829             840.00     4160.00
01830             840.00     4120.00
01831             840.00     4120.00
01832             840.00     4080.00
01833             840.00     4080.00
01834             840.00     4080.00
01835             840.00     4040.00
01836             840.00     4000.00
01837             840.00     4000.00
01838             840.00     4000.00
01839             840.00     3960.00
01840             840.00     3960.00
01841             760.00     3960.00
01842             840.00     3920.00
01843             760.00     3880.00
01844             840.00     3840.00
01845             840.00     3840.00
01846             760.00     3840.00
01847             800.00     3800.00
01848             760.00     3840.00
01849             760.00     3800.00
01850             760.00     3760.00
01851             760.00     3760.00
01852             760.00     3760.00
01853             720.00     3720.00
01854             760.00     3680.00
01855             760.00     3640.00
01856             720.00     3640.00
01857             760.00     3640.00
01858             720.00     3640.00
01859             720.00     3560.00
01860             720.00     3520.00
01861             720.00     3520.00
01862             760.00     3520.00
01863             720.00     3480.00
01864             760.00     3480.00
01865             720.00     3440.00
01866             720.00     3440.00
01867             720.00     3440.00
01868             720.00     3400.00
01869             720.00     3360.00
01870             680.00     3320.00
01871             720.00     3320.00
01872             720.00     3280.00
01873             680.00     3280.00
01874             680.00     3240.00
01875             680.00     3200.00
01876             680.00     3200.00
01877             680.00     3160.00
01878             680.00     3120.00
01879             680.00     3120.00
01880             680.00     3120.00
01881             680.00     3080.00
01882             680.00     3080.00
01883             600.00     3000.00
01884             600.00     3000.00
01885             600.00     3000.00
01886             600.00     2960.00
01887             600.00     2920.00
01888             600.00     2920.00
01889             560.00     2880.00
01890             600.00     2840.00
01891             560.00     2800.00
01892             560.00     2800.00
01893             560.00     2800.00
01894             560.00     2720.00
01895             560.00     2720.00
01896             520.00     2680.00
01897             560.00     2680.00
01898             560.00     2640.00
01899             520.00     2600.00
01900             560.00     2560.00
01901             520.00     2560.00
01902             520.00     2560.00
01903             520.00     2520.00
01904             520.00     2480.00
01905             520.00     2480.00
01906             520.00     2400.00
01907             520.00     2400.00
01908             520.00     2400.00
01909             480.00     2360.00
01910             520.00     2320.00
01911             520.00     2280.00
01912             480.00     2240.00
01913             440.00     2240.00
01914             480.00     2240.00
01915             440.00     2200.00
01916             440.00     2160.00
01917             440.00     2160.00
01918             440.00     2080.00
01919             440.00     2080.00
01920             440.00     2080.00
01921             440.00     2040.00
01922             400.00     2000.00
01923             440.00     1960.00
01924             400.00     1920.00
01925             400.00     1920.00
01926             400.00     1880.00
01927             400.00     1880.00
01928             400.00     1840.00
01929             400.00     1800.00
01930             400.00     1760.00
01931             400.00     1760.00
01932             360.00     1720.00
01933             360.00     1720.00
01934             360.00     1680.00
01935             360.00     1640.00
01936             360.00     1600.00
01937             360.00     1600.00
01938             360.00     1560.00
01939             360.00     1520.00
01940             360.00     1480.00
01941             280.00     1440.00
01942             360.00     1400.00
01943             320.00     1360.00
01944             280.00     1400.00
01945             280.00     1320.00
01946             280.00     1280.00
01947             280.00     1280.00
01948             280.00     1240.00
01949             280.00     1240.00
01950             280.00     1200.00
01951             240.00     1160.00
01952             240.00     1120.00
01953             240.00     1120.00
01954             200.00     1080.00
01955             240.00     1040.00
01956             240.00     1000.00
01957             240.00      960.00
01958             240.00      960.00
01959             200.00      920.00
01960             240.00      880.00
01961             200.00      880.00
01962             200.00      840.00
01963             200.00      800.00
01964             200.00      760.00
01965             200.00      720.00
01966             200.00      720.00
01967             160.00      720.00
01968             120.00      640.00
01969             160.00      640.00
01970             120.00      600.00
01971             200.00      600.00
01972             120.00      560.00
01973              80.00      480.00
01974             120.00      480.00
01975             120.00      440.00
01976              80.00      400.00
01977              80.00      400.00
01978              80.00      360.00
01979              80.00      360.00
01980              80.00      320.00
01981              80.00      280.00
01982              80.00      240.00
01983              80.00      200.00
01984              40.00      160.00
01985              80.00      120.00
01986              80.00       80.00
01987              80.00       80.00
01988              40.00       40.00
01989              40.00        0.00
01990              40.00        0.00
01991              40.00      -80.00
01992              40.00      -80.00
01993              40.00      -80.00
01994               0.00     -120.00
01995              40.00     -160.00
01996              40.00     -200.00
01997             -40.00     -240.00
01998               0.00     -280.00
01999             -40.00     -320.00
02000              40.00     -320.00
02001             -40.00     -400.00
02002            -120.00     -480.00
02003             -80.00     -400.00
02004             -40.00     -400.00
02005             -40.00     -480.00
02006             -80.00     -480.00
02007             -40.00     -520.00
02008             -40.00     -560.00
02009             -80.00     -640.00
02010            -120.00     -640.00
02011             -80.00     -640.00
02012             -80.00     -680.00
02013            -120.00     -720.00
02014            -120.00     -760.00
02015            -120.00     -800.00
02016            -120.00     -800.00
02017            -120.00     -840.00
02018            -120.00     -880.00
02019            -160.00     -920.00
02020            -200.00     -960.00
02021            -200.00     -920.00
02022            -160.00    -1000.00
02023            -160.00    -1040.00
02024            -200.00    -1040.00
02025            -200.00    -1080.00
02026            -200.00    -1120.00
02027            -200.00    -1120.00
02028            -240.00    -1200.00
02029            -200.00    -1200.00
02030            -240.00    -1240.00
02031            -240.00    -1280.00
02032            -240.00    -1320.00
02033            -240.00    -1320.00
02034            -240.00    -1360.00
02035            -240.00    -1440.00
02036            -240.00    -1440.00
02037            -240.00    -1440.00
02038            -280.00    -1440.00
02039            -240.00    -1520.00
02040            -280.00    -1520.00
02041            -280.00    -1600.00
02042            -280.00    -1640.00
02043            -280.00    -1640.00
02044            -280.00    -1640.00
02045            -280.00    -1680.00
02046            -280.00    -1720.00
02047            -360.00    -1760.00
02048            -360.00    -1760.00
02049            -280.00    -1800.00
02050            -360.00    -1840.00
02051            -360.00    -1840.00
02052            -360.00    -1880.00
02053            -360.00    -1920.00
02054            -360.00    -1960.00
02055            -360.00    -2000.00
02056            -400.00    -2000.00
02057            -400.00    -2040.00
02058            -400.00    -2080.00
02059            -400.00    -2080.00
02060            -400.00    -2120.00
02061            -400.00    -2120.00
02062            -440.00    -2160.00
02063            -440.00    -2160.00
02064            -440.00    -2240.00
02065            -400.00    -2240.00
02066            -400.00    -2280.00
02067            -440.00    -2280.00
02068            -440.00    -2320.00
02069            -440.00    -2360.00
02070            -440.00    -2400.00
02071            -440.00    -2440.00
02072            -440.00    -2480.00
02073            -440.00    -2480.00
02074            -440.00    -2520.00
02075            -480.00    -2520.00
02076            -520.00    -2560.00
02077            -480.00    -2600.00
02078            -520.00    -2600.00
02079            -440.00    -2640.00
02080            -560.00    -2640.00
02081            -520.00    -2680.00
02082            -520.00    -2720.00
02083            -520.00    -2720.00
02084            -560.00    -2760.00
02085            -560.00    -2800.00
02086            -520.00    -2800.00
02087            -560.00    -2840.00
02088            -560.00    -2880.00
02089            -560.00    -2880.00
02090            -560.00    -2920.00
02091            -560.00    -2920.00
02092            -560.00    -2960.00
02093            -560.00    -3000.00
02094            -560.00    -3000.00
02095            -600.00    -3040.00
02096            -560.00    -3080.00
02097            -600.00    -3080.00
02098            -600.00    -3120.00
02099            -600.00    -3120.00
02100            -600.00    -3160.00
02101            -600.00    -3200.00
02102            -600.00    -3200.00
02103            -600.00    -3240.00
02104            -680.00    -3240.00
02105            -680.00    -3280.00
02106            -600.00    -3320.00
02107            -680.00    -3360.00
02108            -600.00    -3360.00
02109            -600.00    -3360.00
02110            -640.00    -3400.00
02111            -680.00    -3440.00
02112            -680.00    -3440.00
02113            -680.00    -3480.00
02114            -680.00    -3480.00
02115            -680.00    -3520.00
02116            -680.00    -3520.00
02117            -680.00    -3560.00
02118            -680.00    -3600.00
02119            -680.00    -3600.00
02120            -680.00    -3600.00
02121            -720.00    -3640.00
02122            -720.00    -3680.00
02123            -680.00    -3680.00
02124            -680.00    -3720.00
02125            -720.00    -3720.00
02126            -720.00    -3760.00
02127            -760.00    -3760.00
02128            -720.00    -3760.00
02129            -720.00    -3800.00
02130            -760.00    -3840.00
02131            -760.00    -3840.00
02132            -760.00    -3880.00
02133            -760.00    -3880.00
02134            -760.00    -3920.00
02135            -760.00    -3920.00
02136            -760.00    -3960.00
02137            -760.00    -3960.00
02138            -760.00    -4000.00
02139            -760.00    -4000.00
02140            -760.00    -4040.00
02141            -760.00    -4040.00
02142            -760.00    -4040.00
02143            -760.00    -4080.00
02144            -760.00    -4120.00
02145            -840.00    -4120.00
02146            -840.00    -4120.00
02147            -840.00    -4160.00
02148            -840.00    -4160.00
02149            -840.00    -4200.00
02150            -840.00    -4200.00
02151            -880.00    -4200.00
02152            -800.00    -4200.00
02153            -880.00    -4240.00
02154            -840.00    -4240.00
02155            -840.00    -4240.00
02156            -880.00    -4320.00
02157            -880.00    -4320.00
02158            -880.00    -4360.00
02159            -840.00    -4320.00
02160            -880.00    -4360.00
02161            -880.00    -4360.00
02162            -880.00    -4400.00
02163            -880.00    -4400.00
02164            -880.00    -4400.00
02165            -880.00    -4440.00
02166            -880.00    -4440.00
02167            -880.00    -4440.00
02168            -880.00    -4480.00
02169            -880.00    -4480.00
02170            -880.00    -4480.00
02171            -880.00    -4480.00
02172            -880.00    -4520.00
02173            -880.00    -4560.00
02174            -920.00    -4560.00
02175            -880.00    -4560.00
02176            -880.00    -4560.00
02177            -880.00    -4560.00
02178            -920.00    -4560.00
02179            -880.00    -4600.00
02180            -880.00    -4600.00
02181            -880.00    -4640.00
02182            -920.00    -4640.00
02183            -880.00    -4640.00
02184            -920.00    -4680.00
02185            -880.00    -4680.00
02186            -880.00    -4640.00
02187            -880.00    -4680.00
02188            -920.00    -4720.00
02189            -880.00    -4720.00
02190            -880.00    -4720.00
02191            -880.00    -4720.00
02192            -920.00    -4720.00
02193            -920.00    -4720.00
02194            -920.00    -4760.00
02195            -880.00    -4720.00
02196            -920.00    -4800.00
02197            -920.00    -4800.00
02198            -920.00    -4800.00
02199            -920.00    -4760.00
02200            -920.00    -4800.00
02201            -960.00    -4800.00
02202            -920.00    -4800.00
02203            -960.00    -4840.00
02204            -920.00    -4840.00
02205           -1000.00    -4840.00
02206            -920.00    -4840.00
02207            -960.00    -4840.00
02208           -1000.00    -4840.00
02209            -920.00    -4840.00
02210           -1000.00    -4880.00
02211            -920.00    -4880.00
02212           -1000.00    -4880.00
02213           -1000.00    -4880.00
02214            -960.00    -4920.00
02215           -1000.00    -4880.00
02216            -920.00    -4920.00
02217           -1000.00    -4880.00
02218           -1000.00    -4920.00
02219            -920.00    -4880.00
02220           -1000.00    -4960.00
02221           -1000.00    -4960.00
02222           -1000.00    -4960.00
02223           -1000.00    -4920.00
02224           -1000.00    -4960.00
02225           -1000.00    -4960.00
02226           -1000.00    -4960.00
02227           -1000.00    -4960.00
02228           -1000.00    -4960.00
02229           -1000.00    -4960.00
02230           -1000.00    -4960.00
02231           -1000.00    -4960.00
02232           -1000.00    -4960.00
02233           -1000.00    -4960.00
02234           -1000.00    -4960.00
02235           -1000.00    -4960.00
02236           -1000.00    -4960.00
02237           -1000.00    -4960.00
02238           -1000.00    -4960.00
02239            -960.00    -5000.00
02240           -1000.00    -5000.00
02241           -1000.00    -4960.00
02242           -1000.00    -4960.00
02243           -1000.00    -4960.00
02244           -1000.00    -5000.00
02245           -1000.00    -4960.00
02246           -1000.00    -4960.00
02247           -1000.00    -4960.00
02248           -1000.00    -4960.00
02249           -1000.00    -4960.00
02250           -1000.00    -4960.00
02251           -1000.00    -4960.00
02252           -1000.00    -4960.00
02253            -960.00    -4960.00
02254           -1000.00    -4960.00
02255            -960.00    -4960.00
02256           -1000.00    -4960.00
02257           -1000.00    -4960.00
02258            -960.00    -4920.00
02259           -1000.00    -4960.00
02260           -1000.00    -4960.00
02261            -920.00    -4920.00
02262           -1000.00    -4920.00
02263           -1000.00    -4960.00
02264            -920.00    -4880.00
02265           -1000.00    -4920.00
02266           -1000.00    -4920.00
02267            -920.00    -4880.00
02268           -1000.00    -4880.00
02269           -1000.00    -4920.00
02270            -960.00    -4880.00
02271            -960.00    -4880.00
02272            -920.00    -4880.00
02273           -1000.00    -4880.00
02274           -1000.00    -4880.00
02275           -1000.00    -4880.00
02276           -1000.00    -4880.00
02277           -1000.00    -4880.00
02278            -920.00    -4840.00
02279            -960.00    -4840.00
02280           -1000.00    -4840.00
02281           -1000.00    -4840.00
02282           -1000.00    -4760.00
02283           -1000.00    -4840.00
02284            -920.00    -4760.00
02285           -1000.00    -4760.00
02286           -1000.00    -4800.00
02287            -960.00    -4760.00
02288           -1000.00    -4760.00
02289            -960.00    -4760.00
02290            -920.00    -4720.00
02291           -1000.00    -4720.00
02292            -960.00    -4720.00
02293           -1000.00    -4720.00
02294            -920.00    -4720.00
02295            -920.00    -4720.00
02296            -960.00    -4720.00
02297            -920.00    -4680.00
02298            -960.00    -4680.00
02299            -920.00    -4680.00
02300            -960.00    -4680.00
02301            -960.00    -4640.00
02302            -920.00    -4640.00
02303            -920.00    -4640.00
02304            -920.00    -4640.00
02305            -920.00    -4640.00
02306            -920.00    -4560.00
02307            -920.00    -4600.00
02308            -880.00    -4560.00
02309            -920.00    -4560.00
02310            -920.00    -4560.00
02311            -880.00    -4520.00
02312            -920.00    -4520.00
02313            -880.00    -4520.00
02314            -880.00    -4480.00
02315            -880.00    -4480.00
02316            -920.00    -4480.00
02317            -880.00    -4480.00
02318            -880.00    -4440.00
02319            -880.00    -4400.00
02320            -880.00    -4400.00
02321            -880.00    -4400.00
02322            -880.00    -4400.00
02323            -880.00    -4360.00
02324            -880.00    -4360.00
02325            -880.00    -4320.00
02326            -880.00    -4360.00
02327            -880.00    -4320.00
02328            -880.00    -4320.00
02329            -880.00    -4280.00
02330            -880.00    -4280.00
02331            -840.00    -4240.00
02332            -880.00    -4200.00
02333            -880.00    -4240.00
02334            -840.00    -4200.00
02335            -840.00    -4200.00
02336            -840.00    -4160.00
02337            -840.00    -4160.00
02338            -840.00    -4160.00
02339            -840.00    -4120.00
02340            -840.00    -4080.00
02341            -840.00    -4080.00
02342            -840.00    -4040.00
02343            -840.00    -4040.00
02344            -840.00    -4000.00
02345            -840.00    -4040.00
02346            -840.00    -4000.00
02347            -800.00    -3920.00
02348            -840.00    -3960.00
02349            -840.00    -3920.00
02350            -800.00    -3920.00
02351            -800.00    -3880.00
02352            -760.00    -3880.00
02353            -760.00    -3880.00
02354            -760.00    -3840.00
02355            -760.00    -3840.00
02356            -760.00    -3800.00
02357            -760.00    -3800.00
02358            -760.00    -3760.00
02359            -760.00    -3760.00
02360            -760.00    -3720.00
02361            -760.00    -3680.00
02362            -760.00    -3680.00
02363            -760.00    -3680.00
02364            -720.00    -3640.00
02365            -760.00    -3600.00
02366            -720.00    -3600.00
02367            -720.00    -3560.00
02368            -720.00    -3520.00
02369            -720.00    -3520.00
02370            -720.00    -3480.00
02371            -720.00    -3480.00
02372            -720.00    -3480.00
02373            -720.00    -3440.00
02374            -680.00    -3400.00
02375            -720.00    -3400.00
02376            -720.00    -3400.00
02377            -680.00    -3360.00
02378            -720.00    -3360.00
02379            -680.00    -3360.00
02380            -680.00    -3280.00
02381            -640.00    -3280.00
02382            -680.00    -3240.00
02383            -640.00    -3200.00
02384            -640.00    -3200.00
02385            -600.00    -3200.00
02386            -600.00    -3120.00
02387            -600.00    -3120.00
02388            -600.00    -3120.00
02389            -600.00    -3080.00
02390            -600.00    -3040.00
02391            -600.00    -3000.00
02392            -600.00    -3000.00
02393            -600.00    -2960.00
02394            -600.00    -2960.00
02395            -600.00    -2920.00
02396            -560.00    -2920.00
02397            -560.00    -2880.00
02398            -560.00    -2840.00
02399            -560.00    -2800.00
02400            -560.00    -2800.00
02401            -560.00    -2760.00
02402            -560.00    -2760.00
02403            -560.00    -2720.00
02404            -560.00    -2720.00
02405            -560.00    -2640.00
02406            -560.00    -2640.00
02407            -560.00    -2640.00
02408            -560.00    -2600.00
02409            -560.00    -2560.00
02410            -560.00    -2560.00
02411            -520.00    -2560.00
02412            -560.00    -2480.00
02413            -560.00    -2480.00
02414            -520.00    -2440.00
02415            -520.00    -2400.00
02416            -520.00    -2400.00
02417            -520.00    -2320.00
02418            -480.00    -2360.00
02419            -440.00    -2280.00
02420            -520.00    -2280.00
02421            -480.00    -2240.00
02422            -520.00    -2240.00
02423            -440.00    -2200.00
02424            -480.00    -2160.00
02425            -440.00    -2160.00
02426            -440.00    -2120.00
02427            -440.00    -2120.00
02428            -440.00    -2080.00
02429            -440.00    -2040.00
02430            -440.00    -2000.00
02431            -440.00    -1960.00
02432            -440.00    -1960.00
02433            -440.00    -1920.00
02434            -400.00    -1880.00
02435            -400.00    -1840.00
02436            -400.00    -1840.00
02437            -400.00    -1800.00
02438            -400.00    -1800.00
02439            -400.00    -1760.00
02440            -360.00    -1760.00
02441            -400.00    -1680.00
02442            -360.00    -1680.00
02443            -360.00    -1640.00
02444            -360.00    -1600.00
02445            -360.00    -1600.00
02446            -280.00    -1520.00
02447            -320.00    -1520.00
02448            -320.00    -1520.00
02449            -360.00    -1440.00
02450            -280.00    -1440.00
02451            -320.00    -1440.00
02452            -280.00    -1360.00
02453            -280.00    -1320.00
02454            -280.00    -1320.00
02455            -240.00    -1280.00
02456            -240.00    -1280.00
02457            -240.00    -1240.00
02458            -280.00    -1200.00
02459            -240.00    -1160.00
02460            -240.00    -1120.00
02461            -240.00    -1120.00
02462            -240.00    -1120.00
02463            -200.00    -1040.00
02464            -240.00    -1000.00
02465            -200.00    -1000.00
02466            -200.00     -960.00
02467            -240.00     -920.00
02468            -240.00     -880.00
02469            -200.00     -840.00
02470            -200.00     -840.00
02471            -200.00     -800.00
02472            -200.00     -800.00
02473            -160.00     -800.00
02474            -160.00     -720.00
02475            -120.00     -680.00
02476            -160.00     -680.00
02477            -200.00     -640.00
02478            -160.00     -640.00
02479            -120.00     -560.00
02480            -120.00     -560.00
02481            -120.00     -520.00
02482            -120.00     -480.00
02483            -120.00     -440.00
02484            -120.00     -400.00
02485            -120.00     -400.00
02486             -80.00     -360.00
02487            -120.00     -320.00
02488            -120.00     -320.00
02489             -80.00     -280.00
02490             -80.00     -240.00
02491             -80.00     -200.00
02492             -80.00     -160.00
02493             -40.00     -160.00
02494             -40.00     -120.00
02495             -40.00      -80.00
02496             -40.00      -40.00
02497             -40.00      -40.00
02498             -40.00        0.00
02499             -40.00        0.00
02500               0.00       80.00
02501              40.00      120.00
02502              40.00      120.00
02503              40.00      160.00
02504              40.00      160.00
02505              40.00      240.00
02506              40.00      240.00
02507              40.00      320.00
02508              80.00      360.00
02509              40.00      320.00
02510               0.00      280.00
02511             -40.00      400.00
02512              80.00      440.00
02513              80.00      480.00
02514              80.00      480.00
02515              80.00      560.00
02516              80.00      600.00
02517              80.00      560.00
02518              80.00      640.00
02519             120.00      640.00
02520             120.00      680.00
02521              80.00      720.00
02522             120.00      720.00
02523             120.00      800.00
02524             200.00      800.00
02525             160.00      880.00
02526             200.00      880.00
02527             120.00      920.00
02528             200.00      920.00
02529             200.00      960.00
02530             200.00      960.00
02531             200.00     1040.00
02532             200.00     1080.00
02533             200.00     1080.00
02534             240.00     1120.00
02535             200.00     1160.00
02536             240.00     1200.00
02537             200.00     1200.00
02538             200.00     1200.00
02539             200.00     1240.00
02540             240.00     1280.00
02541             240.00     1320.00
02542             240.00     1360.00
02543             240.00     1360.00
02544             240.00     1400.00
02545             280.00     1440.00
02546             280.00     1480.00
02547             280.00     1520.00
02548             280.00     1560.00
02549             280.00     1560.00
02550             280.00     1600.00
02551             280.00     1640.00
02552             320.00     1680.00
02553             280.00     1680.00
02554             320.00     1720.00
02555             320.00     1760.00
02556             360.00     1760.00
02557             360.00     1800.00
02558             360.00     1840.00
02559             360.00     1840.00
02560             400.00     1880.00
02561             360.00     1880.00
02562             360.00     2000.00
02563             400.00     2000.00
02564             360.00     2000.00
02565             400.00     2040.00
02566             360.00     2080.00
02567             400.00     2080.00
02568             400.00     2120.00
02569             400.00     2120.00
02570             400.00     2200.00
02571             400.00     2200.00
02572             440.00     2240.00
02573             440.00     2240.00
02574             440.00     2280.00
02575             440.00     2320.00
02576             440.00     2360.00
02577             440.00     2360.00
02578             440.00     2400.00
02579             440.00     2400.00
02580             520.00     2480.00
02581             520.00     2480.00
02582             520.00     2480.00
02583             520.00     2520.00
02584             480.00     2560.00
02585             520.00     2600.00
02586             520.00     2560.00
02587             520.00     2640.00
02588             520.00     2680.00
02589             520.00     2640.00
02590             520.00     2720.00
02591             520.00     2720.00
02592             560.00     2800.00
02593             520.00     2800.00
02594             560.00     2840.00
02595             560.00     2840.00
02596             560.00     2920.00
02597             560.00     2920.00
02598             560.00     2920.00
02599             560.00     2960.00
02600             560.00     3000.00
02601             560.00     3000.00
02602             560.00     3000.00
02603             600.00     3040.00
02604             560.00     3080.00
02605             600.00     3120.00
02606             560.00     3120.00
02607             600.00     3160.00
02608             600.00     3160.00
02609             600.00     3200.00
02610             600.00     3200.00
02611             600.00     3240.00
02612             600.00     3240.00
02613             680.00     3280.00
02614             600.00     3280.00
02615             680.00     3360.00
02616             640.00     3360.00
02617             640.00     3360.00
02618             640.00     3360.00
02619             680.00     3440.00
02620             680.00     3440.00
02621             680.00     3480.00
02622             680.00     3480.00
02623             680.00     3520.00
02624             680.00     3520.00
02625             720.00     3520.00
02626             680.00     3560.00
02627             680.00     3600.00
02628             720.00     3600.00
02629             720.00     3640.00
02630             720.00     3680.00
02631             720.00     3680.00
02632             720.00     3760.00
02633             720.00     3720.00
02634             720.00     3760.00
02635             720.00     3760.00
02636             720.00     3800.00
02637             720.00     3800.00
02638             760.00     3800.00
02639             760.00     3840.00
02640             760.00     3840.00
02641             760.00     3880.00
02642             760.00     3920.00
02643             800.00     3920.00
02644             720.00     3960.00
02645             760.00     3960.00
02646             760.00     4000.00
02647             760.00     4000.00
02648             760.00     4040.00
02649             800.00     4040.00
02650             840.00     4080.00
02651             840.00     4080.00
02652             760.00     4080.00
02653             840.00     4120.00
02654             840.00     4120.00
02655             840.00     4160.00
02656             840.00     4200.00
02657             840.00     4200.00
02658             840.00     4200.00
02659             840.00     4240.00
02660             840.00     4240.00
02661             840.00     4240.00
02662             840.00     4280.00
02663             840.00     4280.00
02664             840.00     4280.00
02665             880.00     4320.00
02666             840.00     4320.00
02667             840.00     4320.00
02668             840.00     4360.00
02669             840.00     4400.00
02670             840.00     4360.00
02671             840.00     4400.00
02672             840.00     4400.00
02673             880.00     4400.00
02674             840.00     4440.00
02675             880.00     4440.00
02676             840.00     4440.00
02677             880.00     4480.00
02678             880.00     4480.00
02679             880.00     4480.00
02680             880.00     4520.00
02681             880.00     4520.00
02682             840.00     4560.00
02683             880.00     4560.00
02684             880.00     4560.00
02685             880.00     4600.00
02686             880.00     4560.00
02687             880.00     4600.00
02688             880.00     4640.00
02689             880.00     4600.00
02690             920.00     4640.00
02691             880.00     4640.00
02692             920.00     4640.00
02693             920.00     4640.00
02694             920.00     4720.00
02695             920.00     4680.00
02696             920.00     4720.00
02697             920.00     4720.00
02698             960.00     4720.00
02699             920.00     4720.00
02700             920.00     4760.00
02701             920.00     4760.00
02702             960.00     4800.00
02703             920.00     4760.00
02704            1000.00     4760.00
02705             960.00     4760.00
02706            1000.00     4800.00
02707            1000.00     4800.00
02708             960.00     4800.00
02709            1000.00     4800.00
02710            1000.00     4840.00
02711            1000.00     4840.00
02712            1000.00     4840.00
02713            1000.00     4840.00
02714            1000.00     4880.00
02715            1000.00     4840.00
02716            1040.00     4880.00
02717            1000.00     4880.00
02718            1000.00     4880.00
02719            1000.00     4880.00
02720            1040.00     4880.00
02721            1000.00     4880.00
02722            1040.00     4880.00
02723            1000.00     4920.00
02724            1040.00     4920.00
02725            1000.00     4920.00
02726            1000.00     4920.00
02727            1040.00     4920.00
02728            1000.00     4920.00
02729            1000.00     4920.00
02730            1000.00     4920.00
02731            1000.00     4920.00
02732            1000.00     4960.00
02733            1000.00     4960.00
02734            1000.00     4960.00
02735            1000.00     4960.00
02736            1000.00     4960.00
02737            1000.00     4960.00
02738            1000.00     4920.00
02739            1000.00     4960.00
02740            1000.00     4960.00
02741            1000.00     4960.00
02742            1000.00     4960.00
02743            1000.00     4920.00
02744            1000.00     4960.00
02745            1000.00     4960.00
02746            1000.00     4960.00
02747            1000.00     4960.00
02748            1000.00     4960.00
02749            1000.00     4960.00
02750            1000.00     4960.00
02751            1000.00     4960.00
02752            1000.00     4960.00
02753            1000.00     4960.00
02754            1000.00     4960.00
02755            1000.00     4960.00
02756            1000.00     4960.00
02757            1000.00     4960.00
02758            1040.00     4960.00
02759            1000.00     4960.00
02760            1040.00     4960.00
02761            1000.00     4960.00
02762            1000.00     4960.00
02763            1000.00     4960.00
02764            1000.00     4960.00
02765            1000.00     4960.00
02766            1040.00     4920.00
02767            1000.00     4920.00
02768            1000.00     4960.00
02769            1040.00     4920.00
02770            1040.00     4960.00
02771            1000.00     4920.00
02772            1000.00     4920.00
02773            1000.00     4920.00
02774            1000.00     4920.00
02775            1040.00     4920.00
02776            1000.00     4920.00
02777            1040.00     4880.00
02778            1000.00     4920.00
02779            1000.00     4880.00
02780            1000.00     4880.00
02781            1040.00     4880.00
02782            1000.00     4880.00
02783            1000.00     4880.00
02784            1000.00     4880.00
02785            1000.00     4880.00
02786            1000.00     4880.00
02787            1000.00     4840.00
02788            1000.00     4840.00
02789            1000.00     4800.00
02790            1000.00     4840.00
02791            1000.00     4800.00
02792            1000.00     4800.00
02793            1000.00     4800.00
02794             960.00     4800.00
02795            1000.00     4800.00
02796             920.00     4800.00
02797             920.00     4760.00
02798             920.00     4760.00
02799             920.00     4760.00
02800            1000.00     4720.00
02801             920.00     4720.00
02802            1000.00     4720.00
02803             920.00     4720.00
02804            1000.00     4720.00
02805             920.00     4680.00
02806             920.00     4640.00
02807             920.00     4680.00
02808             920.00     4640.00
02809             920.00     4640.00
02810             920.00     4640.00
02811             920.00     4640.00
02812             920.00     4600.00
02813             920.00     4640.00
02814             920.00     4600.00
02815             920.00     4600.00
02816             920.00     4600.00
02817             920.00     4560.00
02818             920.00     4560.00
02819             880.00     4560.00
02820             920.00     4560.00
02821             880.00     4520.00
02822             920.00     4480.00
02823             880.00     4480.00
02824             880.00     4480.00
02825             880.00     4480.00
02826             920.00     4480.00
02827             920.00     4440.00
02828             920.00     4440.00
02829             920.00     4440.00
02830             880.00     4440.00
02831             880.00     4400.00
02832             880.00     4400.00
02833             880.00     4400.00
02834             880.00     4320.00
02835             880.00     4320.00
02836             880.00     4280.00
02837             880.00     4320.00
02838             880.00     4280.00
02839             880.00     4280.00
02840             840.00     4240.00
02841             880.00     4240.00
02842             840.00     4240.00
02843             920.00     4240.00
02844             840.00     4240.00
02845             840.00     4200.00
02846             880.00     4160.00
02847             880.00     4160.00
02848             840.00     4120.00
02849             840.00     4120.00
02850             840.00     4080.00
02851             840.00     4080.00
02852             840.00     4080.00
02853             840.00     4000.00
02854             840.00     4000.00
02855             800.00     4000.00
02856             840.00     4000.00
02857             840.00     3960.00
02858             840.00     3920.00
02859             800.00     3920.00
02860             760.00     3920.00
02861             800.00     3840.00
02862             760.00     3840.00
02863             800.00     3840.00
02864             760.00     3800.00
02865             760.00     3800.00
02866             760.00     3760.00
02867             760.00     3760.00
02868             760.00     3760.00
02869             760.00     3720.00
02870             760.00     3680.00
02871             720.00     3680.00
02872             720.00     3640.00
02873             720.00     3640.00
02874             720.00     3640.00
02875             720.00     3600.00
02876             760.00     3600.00
02877             720.00     3560.00
02878             720.00     3520.00
02879             720.00     3520.00
02880             680.00     3480.00
02881             720.00     3480.00
02882             720.00     3440.00
02883             720.00     3440.00
02884             680.00     3400.00
02885             680.00     3360.00
02886             720.00     3360.00
02887             680.00     3320.00
02888             680.00     3320.00
02889             680.00     3280.00
02890             680.00     3280.00
02891             680.00     3280.00
02892             680.00     3200.00
02893             680.00     3200.00
02894             680.00     3160.00
02895             640.00     3120.00
02896             680.00     3120.00
02897             600.00     3120.00
02898             680.00     3040.00
02899             600.00     3040.00
02900             640.00     3040.00
02901             600.00     3000.00
02902             640.00     2960.00
02903             680.00     2960.00
02904             600.00     2920.00
02905             560.00     2880.00
02906             600.00     2880.00
02907             600.00     2840.00
02908             600.00     2840.00
02909             560.00     2800.00
02910             600.00     2800.00
02911             600.00     2720.00
02912             560.00     2720.00
02913             560.00     2680.00
02914             560.00     2680.00
02915             560.00     2640.00
02916             560.00     2600.00
02917             520.00     2600.00
02918             560.00     2560.00
02919             560.00     2520.00
02920             520.00     2520.00
02921             520.00     2480.00
02922             560.00     2480.00
02923             520.00     2440.00
02924             520.00     2400.00
02925             520.00     2360.00
02926             520.00     2360.00
02927             520.00     2320.00
02928             480.00     2320.00
02929             520.00     2280.00
02930             440.00     2240.00
02931             480.00     2200.00
02932             440.00     2200.00
02933             440.00     2160.00
02934             440.00     2120.00
02935             440.00     2080.00
02936             440.00     2080.00
02937             400.00     2040.00
02938             440.00     2040.00
02939             400.00     2000.00
02940             400.00     1960.00
02941             440.00     1920.00
02942             400.00     1920.00
02943             400.00     1880.00
02944             400.00     1840.00
02945             360.00     1840.00
02946             400.00     1840.00
02947             400.00     1760.00
02948             360.00     1720.00
02949             360.00     1720.00
02950             360.00     1680.00
02951             360.00     1680.00
02952             360.00     1640.00
02953             360.00     1600.00
02954             360.00     1560.00
02955             360.00     1520.00
02956             320.00     1520.00
02957             280.00     1480.00
02958             360.00     1440.00
02959             280.00     1400.00
02960             360.00     1400.00
02961             280.00     1360.00
02962             280.00     1320.00
02963             280.00     1280.00
02964             360.00     1280.00
02965             240.00     1240.00
02966             280.00     1200.00
02967             240.00     1200.00
02968             280.00     1200.00
02969             280.00     1160.00
02970             240.00     1080.00
02971             240.00     1080.00
02972             240.00     1040.00
02973             240.00     1000.00
02974             240.00      960.00
02975             240.00      960.00
02976             200.00      920.00
02977             240.00      920.00
02978             200.00      880.00
02979             200.00      840.00
02980             240.00      800.00
02981             200.00      760.00
02982             200.00      720.00
02983             200.00      720.00
02984             200.00      680.00
02985             160.00      640.00
02986             160.00      640.00
02987             120.00      600.00
02988             120.00      600.00
02989             120.00      560.00
02990             120.00      480.00
02991             120.00      480.00
02992             120.00      440.00
02993              80.00      400.00
02994              80.00      400.00
02995              80.00      320.00
02996              80.00      360.00
02997              80.00      280.00
02998              40.00      280.00
02999              80.00      200.00
03000              80.00      200.00
03001              40.00      160.00
03002              40.00      160.00
03003              40.00       80.00
03004              40.00       80.00
03005              40.00       40.00
03006              40.00        0.00
03007              40.00        0.00
03008               0.00      -40.00
03009              40.00      -80.00
03010              40.00      -80.00
03011              40.00     -160.00
03012             -40.00     -160.00
03013             -40.00     -160.00
03014             -40.00     -200.00
03015             -40.00     -240.00
03016               0.00     -320.00
03017               0.00     -320.00
03018             -40.00     -400.00
03019            -120.00     -480.00
03020            -120.00     -400.00
03021             -40.00     -400.00
03022             -80.00     -480.00
03023             -80.00     -480.00
03024             -80.00     -520.00
03025             -80.00     -560.00
03026            -120.00     -640.00
03027            -120.00     -640.00
03028             -80.00     -640.00
03029             -80.00     -680.00
03030            -120.00     -720.00
03031            -120.00     -760.00
03032            -120.00     -800.00
03033            -120.00     -840.00
03034            -120.00     -840.00
03035            -120.00     -880.00
03036            -120.00     -880.00
03037            -120.00     -960.00
03038            -160.00     -920.00
03039            -120.00    -1000.00
03040            -200.00    -1040.00
03041            -200.00    -1040.00
03042            -160.00    -1120.00
03043            -200.00    -1120.00
03044            -200.00    -1160.00
03045            -200.00    -1200.00
03046            -240.00    -1200.00
03047            -200.00    -1240.00
03048            -240.00    -1280.00
03049            -200.00    -1320.00
03050            -240.00    -1320.00
03051            -240.00    -1320.00
03052            -240.00    -1360.00
03053            -240.00    -1400.00
03054            -240.00    -1440.00
03055            -240.00    -1480.00
03056            -280.00    -1480.00
03057            -240.00    -1520.00
03058            -280.00    -1600.00
03059            -280.00    -1600.00
03060            -320.00    -1640.00
03061            -280.00    -1680.00
03062            -320.00    -1680.00
03063            -320.00    -1760.00
03064            -320.00    -1760.00
03065            -360.00    -1760.00
03066            -400.00    -1800.00
03067            -320.00    -1840.00
03068            -400.00    -1840.00
03069            -360.00    -1920.00
03070            -360.00    -1920.00
03071            -360.00    -1960.00
03072            -360.00    -1960.00
03073            -400.00    -2000.00
03074            -400.00    -2040.00
03075            -400.00    -2080.00
03076            -440.00    -2080.00
03077            -400.00    -2120.00
03078            -400.00    -2160.00
03079            -400.00    -2160.00
03080            -440.00    -2160.00
03081            -440.00    -2240.00
03082            -440.00    -2280.00
03083            -440.00    -2280.00
03084            -440.00    -2320.00
03085            -440.00    -2360.00
03086            -440.00    -2400.00
03087            -440.00    -2440.00
03088            -440.00    -2440.00
03089            -440.00    -2440.00
03090            -440.00    -2480.00
03091            -440.00    -2520.00
03092            -520.00    -2560.00
03093            -440.00    -2560.00
03094            -480.00    -2600.00
03095            -520.00    -2640.00
03096            -520.00    -2640.00
03097            -480.00    -2640.00
03098            -520.00    -2720.00
03099            -520.00    -2720.00
03100            -520.00    -2720.00
03101            -560.00    -2760.00
03102            -520.00    -2760.00
03103            -520.00    -2800.00
03104            -520.00    -2880.00
03105            -520.00    -2880.00
03106            -560.00    -2920.00
03107            -560.00    -2880.00
03108            -560.00    -2960.00
03109            -560.00    -2960.00
03110            -560.00    -2960.00
03111            -560.00    -3040.00
03112            -560.00    -3080.00
03113            -560.00    -3080.00
03114            -600.00    -3080.00
03115            -600.00    -3120.00
03116            -600.00    -3120.00
03117            -600.00    -3200.00
03118            -600.00    -3200.00
03119            -600.00    -3200.00
03120            -640.00    -3240.00
03121            -640.00    -3240.00
03122            -640.00    -3280.00
03123            -600.00    -3280.00
03124            -600.00    -3360.00
03125            -640.00    -3360.00
03126            -680.00    -3400.00
03127            -680.00    -3400.00
03128            -640.00    -3440.00
03129            -680.00    -3440.00
03130            -680.00    -3480.00
03131            -680.00    -3480.00
03132            -680.00    -3520.00
03133            -680.00    -3560.00
03134            -680.00    -3560.00
03135            -720.00    -3600.00
03136            -720.00    -3600.00
03137            -720.00    -3600.00
03138            -680.00    -3680.00
03139            -720.00    -3640.00
03140            -720.00    -3720.00
03141            -720.00    -3680.00
03142            -720.00    -3760.00
03143            -720.00    -3760.00
03144            -760.00    -3760.00
03145            -720.00    -3800.00
03146            -760.00    -3840.00
03147            -760.00    -3840.00
03148            -760.00    -3840.00
03149            -760.00    -3880.00
03150            -720.00    -3880.00
03151            -760.00    -3920.00
03152            -760.00    -3920.00
03153            -760.00    -3960.00
03154            -760.00    -4000.00
03155            -800.00    -4000.00
03156            -760.00    -4000.00
03157            -760.00    -4040.00
03158            -760.00    -4040.00
03159            -800.00    -4040.00
03160            -800.00    -4080.00
03161            -760.00    -4080.00
03162            -800.00    -4080.00
03163            -760.00    -4160.00
03164            -760.00    -4160.00
03165            -840.00    -4160.00
03166            -760.00    -4160.00
03167            -840.00    -4200.00
03168            -840.00    -4200.00
03169            -840.00    -4240.00
03170            -800.00    -4240.00
03171            -840.00    -4280.00
03172            -840.00    -4240.00
03173            -840.00    -4320.00
03174            -800.00    -4320.00
03175            -840.00    -4320.00
03176            -880.00    -4320.00
03177            -840.00    -4360.00
03178            -880.00    -4360.00
03179            -840.00    -4400.00
03180            -840.00    -4360.00
03181            -880.00    -4400.00
03182            -880.00    -4400.00
03183            -880.00    -4400.00
03184            -880.00    -4480.00
03185            -840.00    -4480.00
03186            -880.00    -4480.00
03187            -880.00    -4480.00
03188            -880.00    -4520.00
03189            -880.00    -4520.00
03190            -880.00    -4520.00
03191            -920.00    -4560.00
03192            -880.00    -4560.00
03193            -920.00    -4520.00
03194            -880.00    -4560.00
03195            -880.00    -4640.00
03196            -880.00    -4560.00
03197            -920.00    -4600.00
03198            -880.00    -4640.00
03199            -920.00    -4640.00
03200            -920.00    -4640.00
03201            -920.00    -4680.00
03202            -920.00    -4680.00
03203            -920.00    -4680.00
03204            -920.00    -4680.00
03205            -920.00    -4720.00
03206            -920.00    -4720.00
03207            -920.00    -4720.00
03208           -1000.00    -4720.00
03209            -920.00    -4760.00
03210            -920.00    -4760.00
03211            -920.00    -4720.00
03212            -920.00    -4760.00
03213            -920.00    -4800.00
03214            -920.00    -4760.00
03215            -960.00    -4800.00
03216            -920.00    -4840.00
03217            -920.00    -4800.00
03218            -920.00    -4800.00
03219            -920.00    -4800.00
03220            -960.00    -4800.00
03221            -920.00    -4840.00
03222            -960.00    -4840.00
03223            -960.00    -4880.00
03224            -920.00    -4840.00
03225            -920.00    -4840.00
03226            -960.00    -4880.00
03227            -920.00    -4880.00
03228            -920.00    -4880.00
03229            -920.00    -4880.00
03230            -920.00    -4880.00
03231           -1000.00    -4880.00
03232            -920.00    -4920.00
03233           -1000.00    -4920.00
03234            -960.00    -4880.00
03235            -960.00    -4920.00
03236            -960.00    -4960.00
03237            -960.00    -4920.00
03238            -960.00    -4880.00
03239            -920.00    -4920.00
03240            -960.00    -4960.00
03241            -920.00    -4960.00
03242           -1000.00    -4960.00
03243            -920.00    -4960.00
03244           -1000.00    -4960.00
03245           -1000.00    -4920.00
03246            -960.00    -4960.00
03247           -1000.00    -4960.00
03248            -960.00    -4960.00
03249           -1000.00    -4960.00
03250           -1000.00    -4960.00
03251           -1000.00    -4960.00
03252           -1000.00    -4960.00
03253           -1000.00    -4960.00
03254           -1040.00    -4960.00
03255           -1000.00    -4960.00
03256           -1000.00    -5000.00
03257           -1000.00    -4960.00
03258            -960.00    -5000.00
03259           -1000.00    -4960.00
03260           -1000.00    -4960.00
03261           -1000.00    -4960.00
03262           -1000.00    -4960.00
03263           -1000.00    -5000.00
03264           -1000.00    -4960.00
03265           -1000.00    -4960.00
03266           -1000.00    -4960.00
03267           -1000.00    -4960.00
03268           -1000.00    -4960.00
03269           -1000.00    -4960.00
03270           -1000.00    -4960.00
03271           -1000.00    -4960.00
03272           -1000.00    -4960.00
03273           -1000.00    -4960.00
03274           -1000.00    -4960.00
03275           -1000.00    -4960.00
03276           -1040.00    -4960.00
03277           -1000.00    -4960.00
03278           -1000.00    -4960.00
03279            -960.00    -4960.00
03280           -1000.00    -4920.00
03281            -960.00    -4960.00
03282            -960.00    -4920.00
03283            -920.00    -4920.00
03284           -1000.00    -4880.00
03285            -960.00    -4920.00
03286           -1000.00    -4920.00
03287           -1000.00    -4880.00
03288            -920.00    -4880.00
03289           -1000.00    -4880.00
03290            -960.00    -4880.00
03291            -960.00    -4880.00
03292           -1000.00    -4840.00
03293            -920.00    -4840.00
03294            -920.00    -4880.00
03295            -920.00    -4840.00
03296            -920.00    -4840.00
03297            -920.00    -4840.00
03298            -920.00    -4840.00
03299            -960.00    -4840.00
03300            -920.00    -4760.00
03301            -920.00    -4800.00
03302            -920.00    -4800.00
03303            -920.00    -4760.00
03304            -920.00    -4760.00
03305            -920.00    -4760.00
03306            -920.00    -4760.00
03307            -920.00    -4720.00
03308            -920.00    -4720.00
03309            -920.00    -4720.00
03310            -920.00    -4720.00
03311            -920.00    -4720.00
03312            -920.00    -4720.00
03313            -880.00    -4680.00
03314            -880.00    -4680.00
03315            -920.00    -4680.00
03316            -920.00    -4680.00
03317            -920.00    -4640.00
03318            -920.00    -4640.00
03319            -920.00    -4640.00
03320            -920.00    -4640.00
03321            -920.00    -4600.00
03322            -920.00    -4600.00
03323            -920.00    -4560.00
03324            -920.00    -4560.00
03325            -920.00    -4560.00
03326            -920.00    -4560.00
03327            -920.00    -4520.00
03328            -880.00    -4560.00
03329            -920.00    -4520.00
03330            -920.00    -4520.00
03331            -920.00    -4480.00
03332            -920.00    -4480.00
03333            -880.00    -4480.00
03334            -880.00    -4440.00
03335            -880.00    -4480.00
03336            -920.00    -4440.00
03337            -880.00    -4400.00
03338            -880.00    -4400.00
03339            -920.00    -4400.00
03340            -880.00    -4400.00
03341            -880.00    -4360.00
03342            -880.00    -4320.00
03343            -880.00    -4320.00
03344            -880.00    -4320.00
03345            -880.00    -4320.00
03346            -880.00    -4320.00
03347            -880.00    -4280.00
03348            -880.00    -4240.00
03349            -840.00    -4240.00
03350            -840.00    -4240.00
03351            -880.00    -4200.00
03352            -840.00    -4200.00
03353            -840.00    -4160.00
03354            -840.00    -4200.00
03355            -840.00    -4160.00
03356            -880.00    -4160.00
03357            -840.00    -4080.00
03358            -840.00    -4080.00
03359            -840.00    -4080.00
03360            -840.00    -4000.00
03361            -840.00    -4040.00
03362            -760.00    -4000.00
03363            -800.00    -4000.00
03364            -760.00    -3920.00
03365            -840.00    -3960.00
03366            -760.00    -3920.00
03367            -760.00    -3920.00
03368            -760.00    -3880.00
03369            -760.00    -3880.00
03370            -760.00    -3840.00
03371            -760.00    -3840.00
03372            -760.00    -3840.00
03373            -760.00    -3760.00
03374            -760.00    -3800.00
03375            -760.00    -3760.00
03376            -760.00    -3760.00
03377            -760.00    -3720.00
03378            -720.00    -3680.00
03379            -720.00    -3680.00
03380            -760.00    -3640.00
03381            -720.00    -3640.00
03382            -720.00    -3600.00
03383            -760.00    -3600.00
03384            -720.00    -3600.00
03385            -760.00    -3560.00
03386            -720.00    -3480.00
03387            -720.00    -3520.00
03388            -720.00    -3480.00
03389            -720.00    -3440.00
03390            -720.00    -3440.00
03391            -720.00    -3400.00
03392            -720.00    -3400.00
03393            -680.00    -3360.00
03394            -680.00    -3360.00
03395            -720.00    -3360.00
03396            -680.00    -3320.00
03397            -680.00    -3320.00
03398            -720.00    -3280.00
03399            -680.00    -3240.00
03400            -680.00    -3240.00
03401            -680.00    -3200.00
03402            -680.00    -3160.00
03403            -600.00    -3120.00
03404            -600.00    -3120.00
03405            -680.00    -3080.00
03406            -600.00    -3080.00
03407            -600.00    -3040.00
03408            -600.00    -3040.00
03409            -600.00    -3000.00
03410            -600.00    -2960.00
03411            -600.00    -2960.00
03412            -600.00    -2920.00
03413            -560.00    -2920.00
03414            -560.00    -2880.00
03415            -560.00    -2880.00
03416            -560.00    -2800.00
03417            -560.00    -2800.00
03418            -600.00    -2800.00
03419            -560.00    -2760.00
03420            -560.00    -2720.00
03421            -560.00    -2680.00
03422            -560.00    -2640.00
03423            -560.00    -2640.00
03424            -520.00    -2640.00
03425            -520.00    -2600.00
03426            -520.00    -2560.00
03427            -560.00    -2560.00
03428            -520.00    -2560.00
03429            -520.00    -2480.00
03430            -440.00    -2480.00
03431            -520.00    -2440.00
03432            -440.00    -2400.00
03433            -440.00    -2400.00
03434            -480.00    -2400.00
03435            -520.00    -2320.00
03436            -480.00    -2320.00
03437            -440.00    -2280.00
03438            -440.00    -2240.00
03439            -440.00    -2200.00
03440            -440.00    -2200.00
03441            -440.00    -2160.00
03442            -440.00    -2120.00
03443            -440.00    -2120.00
03444            -440.00    -2080.00
03445            -440.00    -2080.00
03446            -440.00    -2000.00
03447            -400.00    -2000.00
03448            -440.00    -1960.00
03449            -400.00    -1960.00
03450            -400.00    -1920.00
03451            -440.00    -1880.00
03452            -400.00    -1840.00
03453            -400.00    -1840.00
03454            -400.00    -1800.00
03455            -360.00    -1800.00
03456            -400.00    -1760.00
03457            -400.00    -1720.00
03458            -360.00    -1680.00
03459            -400.00    -1680.00
03460            -400.00    -1640.00
03461            -360.00    -1600.00
03462            -360.00    -1600.00
03463            -320.00    -1560.00
03464            -320.00    -1520.00
03465            -360.00    -1480.00
03466            -280.00    -1440.00
03467            -320.00    -1400.00
03468            -280.00    -1400.00
03469            -280.00    -1360.00
03470            -280.00    -1320.00
03471            -280.00    -1360.00
03472            -280.00    -1280.00
03473            -240.00    -1280.00
03474            -280.00    -1200.00
03475            -280.00    -1200.00
03476            -240.00    -1160.00
03477            -240.00    -1160.00
03478            -240.00    -1120.00
03479            -240.00    -1080.00
03480            -240.00    -1040.00
03481            -240.00    -1040.00
03482            -200.00    -1000.00
03483            -240.00     -960.00
03484            -200.00     -920.00
03485            -200.00     -880.00
03486            -200.00     -880.00
03487            -200.00     -840.00
03488            -120.00     -800.00
03489            -160.00     -800.00
03490            -120.00     -720.00
03491            -120.00     -720.00
03492            -120.00     -680.00
03493            -120.00     -680.00
03494            -120.00     -640.00
03495            -120.00     -640.00
03496            -120.00     -560.00
03497            -120.00     -520.00
03498            -120.00     -480.00
03499            -120.00     -480.00
03500            -120.00     -440.00
03501            -120.00     -400.00
03502             -80.00     -400.00
03503             -80.00     -360.00
03504             -80.00     -320.00
03505             -80.00     -320.00
03506             -80.00     -240.00
03507             -40.00     -240.00
03508             -80.00     -200.00
03509             -40.00     -160.00
03510             -80.00     -160.00
03511             -40.00     -120.00
03512             -40.00      -80.00
03513             -40.00      -40.00
03514             -80.00      -40.00
03515              40.00        0.00
03516             -40.00       40.00
03517             -40.00       80.00
03518               0.00      120.00
03519              40.00      120.00
03520               0.00      160.00
03521              40.00      160.00
03522              40.00      240.00
03523              80.00      280.00
03524              80.00      360.00
03525              80.00      360.00
03526              40.00      320.00
03527             -40.00      320.00
03528             -40.00      400.00
03529              80.00      440.00
03530              80.00      480.00
03531              80.00      480.00
03532              80.00      560.00
03533              80.00      560.00
03534              80.00      560.00
03535              80.00      640.00
03536             120.00      640.00
03537             120.00      720.00
03538              80.00      680.00
03539              80.00      760.00
03540             120.00      800.00
03541             160.00      800.00
03542             200.00      840.00
03543             200.00      880.00
03544             120.00      880.00
03545             120.00      920.00
03546             200.00      960.00
03547             160.00     1000.00
03548             200.00     1040.00
03549             160.00     1080.00
03550             200.00     1080.00
03551             200.00     1120.00
03552             200.00     1160.00
03553             240.00     1200.00
03554             240.00     1200.00
03555             200.00     1240.00
03556             240.00     1280.00
03557             240.00     1280.00
03558             280.00     1280.00
03559             280.00     1360.00
03560             280.00     1400.00
03561             240.00     1400.00
03562             280.00     1440.00
03563             280.00     1480.00
03564             280.00     1520.00
03565             280.00     1560.00
03566             280.00     1560.00
03567             280.00     1600.00
03568             320.00     1640.00
03569             280.00     1680.00
03570             360.00     1720.00
03571             360.00     1720.00
03572             360.00     1760.00
03573             360.00     1760.00
03574             360.00     1760.00
03575             360.00     1840.00
03576             360.00     1840.00
03577             360.00     1880.00
03578             360.00     1920.00
03579             360.00     1960.00
03580             360.00     1960.00
03581             400.00     2000.00
03582             400.00     2040.00
03583             400.00     2040.00
03584             400.00     2080.00
03585             360.00     2080.00
03586             400.00     2160.00
03587             400.00     2160.00
03588             400.00     2200.00
03589             400.00     2240.00
03590             400.00     2240.00
03591             440.00     2240.00
03592             400.00     2320.00
03593             440.00     2360.00
03594             440.00     2360.00
03595             480.00     2400.00
03596             440.00     2400.00
03597             440.00     2440.00
03598             480.00     2480.00
03599             480.00     2520.00
03600             520.00     2520.00
03601             520.00     2560.00
03602             520.00     2600.00
03603             520.00     2640.00
03604             520.00     2640.00
03605             520.00     2640.00
03606             520.00     2680.00
03607             520.00     2720.00
03608             520.00     2720.00
03609             560.00     2800.00
03610             520.00     2800.00
03611             560.00     2840.00
03612             560.00     2840.00
03613             560.00     2920.00
03614             560.00     2920.00
03615             560.00     2920.00
03616             520.00     2960.00
03617             600.00     2960.00
03618             600.00     3040.00
03619             560.00     3000.00
03620             600.00     3040.00
03621             600.00     3040.00
03622             600.00     3080.00
03623             600.00     3120.00
03624             600.00     3160.00
03625             600.00     3160.00
03626             640.00     3200.00
03627             680.00     3200.00
03628             680.00     3280.00
03629             600.00     3280.00
03630             680.00     3280.00
03631             640.00     3320.00
03632             680.00     3320.00
03633             680.00     3360.00
03634             680.00     3360.00
03635             680.00     3360.00
03636             680.00     3440.00
03637             720.00     3480.00
03638             680.00     3480.00
03639             720.00     3480.00
03640             680.00     3520.00
03641             720.00     3520.00
03642             720.00     3560.00
03643             720.00     3520.00
03644             720.00     3640.00
03645             720.00     3640.00
03646             720.00     3640.00
03647             680.00     3680.00
03648             720.00     3680.00
03649             720.00     3680.00
03650             720.00     3720.00
03651             720.00     3760.00
03652             720.00     3800.00
03653             760.00     3760.00
03654             720.00     3800.00
03655             720.00     3840.00
03656             720.00     3840.00
03657             720.00     3880.00
03658             720.00     3840.00
03659             720.00     3920.00
03660             760.00     3920.00
03661             760.00     3920.00
03662             760.00     3960.00
03663             760.00     3960.00
03664             800.00     4000.00
03665             760.00     4000.00
03666             760.00     4000.00
03667             760.00     4080.00
03668             760.00     4120.00
03669             840.00     4120.00
03670             840.00     4120.00
03671             840.00     4160.00
03672             840.00     4160.00
03673             840.00     4200.00
03674             840.00     4200.00
03675             840.00     4200.00
03676             840.00     4200.00
03677             840.00     4240.00
03678             840.00     4240.00
03679             840.00     4280.00
03680             840.00     4280.00
03681             840.00     4280.00
03682             880.00     4320.00
03683             840.00     4320.00
03684             880.00     4320.00
03685             880.00     4320.00
03686             880.00     4400.00
03687             840.00     4400.00
03688             880.00     4400.00
03689             880.00     4440.00
03690             880.00     4400.00
03691             880.00     4480.00
03692             880.00     4440.00
03693             920.00     4480.00
03694             880.00     4480.00
03695             920.00     4480.00
03696             880.00     4520.00
03697             880.00     4520.00
03698             880.00     4520.00
03699             920.00     4560.00
03700             880.00     4560.00
03701             920.00     4560.00
03702             920.00     4560.00
03703             920.00     4560.00
03704             880.00     4600.00
03705             920.00     4600.00
03706             920.00     4640.00
03707             880.00     4640.00
03708             960.00     4640.00
03709             920.00     4640.00
03710             920.00     4680.00
03711             920.00     4720.00
03712             920.00     4720.00
03713             920.00     4720.00
03714             920.00     4720.00
03715             920.00     4720.00
03716             920.00     4720.00
03717             920.00     4720.00
03718             920.00     4720.00
03719             920.00     4760.00
03720             920.00     4760.00
03721             920.00     4800.00
03722            1000.00     4800.00
03723             960.00     4800.00
03724             960.00     4800.00
03725             920.00     4800.00
03726             920.00     4800.00
03727             960.00     4800.00
03728             960.00     4800.00
03729             920.00     4840.00
03730             960.00     4840.00
03731             920.00     4880.00
03732            1000.00     4880.00
03733            1000.00     4880.00
03734            1000.00     4840.00
03735            1000.00     4880.00
03736             960.00     4880.00
03737             960.00     4880.00
03738            1000.00     4880.00
03739            1000.00     4880.00
03740             960.00     4920.00
03741            1000.00     4920.00
03742             960.00     4920.00
03743            1040.00     4920.00
03744            1000.00     4920.00
03745            1000.00     4920.00
03746            1000.00     4920.00
03747            1040.00     4960.00
03748            1040.00     4920.00
03749            1040.00     4920.00
03750            1000.00     4920.00
03751            1040.00     4960.00
03752            1000.00     4960.00
03753            1000.00     4960.00
03754            1040.00     4920.00
03755            1040.00     4960.00
03756            1000.00     4960.00
03757            1040.00     4960.00
03758            1000.00     4960.00
03759            1000.00     4960.00
03760            1000.00     4960.00
03761            1000.00     4960.00
03762            1000.00     4960.00
03763            1040.00     4960.00
03764            1000.00     5000.00
03765            1000.00     4960.00
03766            1000.00     4960.00
03767            1040.00     4960.00
03768            1000.00     4960.00
03769            1000.00     4960.00
03770            1000.00     4960.00
03771            1000.00     4960.00
03772            1040.00     4960.00
03773            1000.00     4960.00
03774            1000.00     5000.00
03775            1000.00     4960.00
03776            1040.00     4960.00
03777            1000.00     4960.00
03778            1000.00     4960.00
03779            1000.00     4960.00
03780            1040.00     4960.00
03781            1000.00     4960.00
03782            1000.00     4920.00
03783            1000.00     4960.00
03784            1000.00     4960.00
03785            1000.00     4920.00
03786            1000.00     4960.00
03787            1000.00     4920.00
03788            1000.00     4920.00
03789            1000.00     4920.00
03790            1000.00     4920.00
03791            1000.00     4920.00
03792            1040.00     4920.00
03793            1000.00     4920.00
03794            1000.00     4880.00
03795            1000.00     4920.00
03796            1000.00     4880.00
03797            1000.00     4880.00
03798            1000.00     4880.00
03799            1000.00     4880.00
03800            1000.00     4880.00
03801            1000.00     4880.00
03802            1000.00     4880.00
03803            1000.00     4880.00
03804            1000.00     4840.00
03805            1000.00     4880.00
03806            1000.00     4840.00
03807            1040.00     4840.00
03808             920.00     4800.00
03809            1000.00     4800.00
03810            1000.00     4800.00
03811             960.00     4800.00
03812            1000.00     4800.00
03813            1000.00     4800.00
03814             920.00     4800.00
03815            1000.00     4800.00
03816            1000.00     4760.00
03817             960.00     4760.00
03818            1000.00     4720.00
03819            1000.00     4720.00
03820             920.00     4720.00
03821            1000.00     4720.00
03822            1000.00     4720.00
03823             920.00     4720.00
03824             960.00     4720.00
03825            1000.00     4640.00
03826             920.00     4640.00
03827             920.00     4640.00
03828             920.00     4640.00
03829             960.00     4640.00
03830             920.00     4600.00
03831             920.00     4600.00
03832             920.00     4600.00
03833             920.00     4560.00
03834             920.00     4560.00
03835             920.00     4560.00
03836             960.00     4560.00
03837             920.00     4560.00
03838             920.00     4520.00
03839             920.00     4520.00
03840             920.00     4480.00
03841             920.00     4480.00
03842             880.00     4480.00
03843             880.00     4440.00
03844             920.00     4440.00
03845             880.00     4400.00
03846             880.00     4400.00
03847             880.00     4400.00
03848             880.00     4400.00
03849             880.00     4400.00
03850             880.00     4360.00
03851             880.00     4320.00
03852             880.00     4320.00
03853             840.00     4320.00
03854             840.00     4320.00
03855             840.00     4280.00
03856             880.00     4240.00
03857             840.00     4280.00
03858             840.00     4240.00
03859             840.00     4240.00
03860             840.00     4240.00
03861             840.00     4200.00
03862             840.00     4160.00
03863             840.00     4120.00
03864             840.00     4160.00
03865             840.00     4080.00
03866             840.00     4120.00
03867             840.00     4080.00
03868             840.00     4080.00
03869             840.00     4040.00
03870             840.00     4040.00
03871             840.00     4000.00
03872             840.00     3960.00
03873             840.00     3960.00
03874             800.00     3960.00
03875             760.00     3920.00
03876             800.00     3920.00
03877             760.00     3920.00
03878             760.00     3840.00
03879             800.00     3880.00
03880             760.00     3840.00
03881             760.00     3840.00
03882             760.00     3800.00
03883             760.00     3800.00
03884             760.00     3800.00
03885             760.00     3760.00
03886             760.00     3760.00
03887             760.00     3720.00
03888             760.00     3680.00
03889             760.00     3680.00
03890             760.00     3640.00
03891             720.00     3640.00
03892             720.00     3640.00
03893             720.00     3560.00
03894             720.00     3560.00
03895             720.00     3520.00
03896             720.00     3520.00
03897             720.00     3520.00
03898             720.00     3480.00
03899             720.00     3440.00
03900             720.00     3440.00
03901             680.00     3360.00
03902             720.00     3400.00
03903             720.00     3360.00
03904             680.00     3320.00
03905             680.00     3320.00
03906             680.00     3280.00
03907             680.00     3280.00
03908             680.00     3240.00
03909             680.00     3200.00
03910             680.00     3200.00
03911             680.00     3160.00
03912             640.00     3160.00
03913             600.00     3120.00
03914             600.00     3120.00
03915             640.00     3040.00
03916             600.00     3040.00
03917             600.00     3040.00
03918             600.00     3000.00
03919             600.00     2960.00
03920             600.00     2960.00
03921             560.00     2960.00
03922             600.00     2880.00
03923             600.00     2880.00
03924             560.00     2840.00
03925             560.00     2840.00
03926             560.00     2800.00
03927             560.00     2760.00
03928             560.00     2760.00
03929             560.00     2720.00
03930             560.00     2680.00
03931             560.00     2640.00
03932             560.00     2640.00
03933             520.00     2640.00
03934             520.00     2560.00
03935             520.00     2560.00
03936             520.00     2560.00
03937             520.00     2480.00
03938             520.00     2520.00
03939             520.00     2480.00
03940             520.00     2440.00
03941             520.00     2400.00
03942             520.00     2400.00
03943             520.00     2360.00
03944             520.00     2320.00
03945             520.00     2280.00
03946             520.00     2240.00
03947             440.00     2240.00
03948             440.00     2200.00
03949             520.00     2200.00
03950             440.00     2160.00
03951             440.00     2160.00
03952             480.00     2120.00
03953             440.00     2080.00
03954             440.00     2040.00
03955             440.00     2040.00
03956             440.00     2000.00
03957             440.00     2000.00
03958             440.00     1960.00
03959             400.00     1920.00
03960             400.00     1840.00
03961             400.00     1840.00
03962             400.00     1840.00
03963             400.00     1800.00
03964             400.00     1760.00
03965             400.00     1720.00
03966             360.00     1720.00
03967             360.00     1720.00
03968             360.00     1680.00
03969             360.00     1600.00
03970             360.00     1600.00
03971             360.00     1560.00
03972             280.00     1560.00
03973             320.00     1520.00
03974             320.00     1480.00
03975             320.00     1440.00
03976             280.00     1400.00
03977             280.00     1400.00
03978             280.00     1360.00
03979             280.00     1360.00
03980             280.00     1280.00
03981             280.00     1280.00
03982             240.00     1240.00
03983             280.00     1240.00
03984             240.00     1200.00
03985             240.00     1200.00
03986             240.00     1120.00
03987             240.00     1120.00
03988             240.00     1080.00
03989             240.00     1040.00
03990             240.00     1000.00
03991             240.00      960.00
03992             200.00      920.00
03993             240.00      920.00
03994             200.00      880.00
03995             200.00      880.00
03996             200.00      800.00
03997             200.00      800.00
03998             200.00      760.00
03999             200.00      720.00
04000             200.00      720.00
04001             160.00      680.00
04002             120.00      640.00
04003             160.00      640.00
04004             160.00      560.00
04005             120.00      560.00
04006             120.00      560.00
04007             120.00      480.00
04008             120.00      440.00
04009             120.00      440.00
04010              80.00      440.00
04011             120.00      400.00
04012              80.00      400.00
04013             120.00      320.00
04014              80.00      280.00
04015              80.00      240.00
04016              80.00      240.00
04017              80.00      160.00
04018              80.00      160.00
04019              80.00      120.00
04020              40.00       80.00
04021              40.00       80.00
04022              40.00       80.00
04023              80.00        0.00
04024              40.00        0.00
04025              40.00      -40.00
04026              40.00      -80.00
04027              40.00     -120.00
04028               0.00     -120.00
04029              40.00     -160.00
04030              40.00     -200.00
04031               0.00     -240.00
04032              40.00     -240.00
04033               0.00     -240.00
04034              40.00     -320.00
04035             -80.00     -400.00
04036            -160.00     -480.00
04037             -80.00     -400.00
04038             -40.00     -480.00
04039             -80.00     -520.00
04040            -120.00     -480.00
04041             -80.00     -560.00
04042             -80.00     -560.00
04043            -120.00     -640.00
04044            -120.00     -600.00
04045             -80.00     -640.00
04046            -120.00     -680.00
04047            -120.00     -720.00
04048            -120.00     -800.00
04049            -120.00     -800.00
04050            -200.00     -840.00
04051            -120.00     -840.00
04052            -120.00     -880.00
04053            -200.00     -880.00
04054            -160.00     -920.00
04055            -200.00     -960.00
04056            -120.00    -1000.00
04057            -200.00    -1040.00
04058            -200.00    -1040.00
04059            -200.00    -1120.00
04060            -200.00    -1120.00
04061            -200.00    -1160.00
04062            -200.00    -1200.00
04063            -240.00    -1200.00
04064            -240.00    -1240.00
04065            -200.00    -1280.00
04066            -240.00    -1280.00
04067            -240.00    -1320.00
04068            -240.00    -1360.00
04069            -240.00    -1400.00
04070            -240.00    -1440.00
04071            -280.00    -1480.00
04072            -240.00    -1480.00
04073            -240.00    -1520.00
04074            -240.00    -1560.00
04075            -240.00    -1600.00
04076            -280.00    -1600.00
04077            -280.00    -1640.00
04078            -240.00    -1640.00
04079            -280.00    -1680.00
04080            -280.00    -1680.00
04081            -280.00    -1760.00
04082            -360.00    -1800.00
04083            -320.00    -1800.00
04084            -360.00    -1840.00
04085            -360.00    -1880.00
04086            -360.00    -1880.00
04087            -360.00    -1920.00
04088            -360.00    -1960.00
04089            -400.00    -2000.00
04090            -360.00    -2000.00
04091            -400.00    -2080.00
04092            -400.00    -2080.00
04093            -400.00    -2120.00
04094            -400.00    -2120.00
04095            -400.00    -2160.00
04096            -400.00    -2160.00
04097            -400.00    -2200.00
04098            -440.00    -2200.00
04099            -440.00    -2280.00
04100            -440.00    -2280.00
04101            -440.00    -2320.00
04102            -400.00    -2360.00
04103            -440.00    -2400.00
04104            -480.00    -2400.00
04105            -440.00    -2440.00
04106            -480.00    -2480.00
04107            -440.00    -2480.00
04108            -480.00    -2520.00
04109            -520.00    -2520.00
04110            -520.00    -2560.00
04111            -520.00    -2600.00
04112            -520.00    -2640.00
04113            -520.00    -2600.00
04114            -560.00    -2640.00
04115            -560.00    -2720.00
04116            -520.00    -2720.00
04117            -560.00    -2760.00
04118            -560.00    -2760.00
04119            -560.00    -2800.00
04120            -520.00    -2880.00
04121            -560.00    -2840.00
04122            -560.00    -2880.00
04123            -560.00    -2920.00
04124            -560.00    -2920.00
04125            -560.00    -2960.00
04126            -560.00    -2960.00
04127            -560.00    -3000.00
04128            -600.00    -3040.00
04129            -600.00    -3040.00
04130            -560.00    -3080.00
04131            -600.00    -3080.00
04132            -560.00    -3120.00
04133            -600.00    -3120.00
04134            -600.00    -3200.00
04135            -600.00    -3200.00
04136            -600.00    -3200.00
04137            -600.00    -3280.00
04138            -600.00    -3280.00
04139            -600.00    -3280.00
04140            -600.00    -3280.00
04141            -600.00    -3360.00
04142            -600.00    -3360.00
04143            -600.00    -3400.00
04144            -680.00    -3400.00
04145            -600.00    -3440.00
04146            -640.00    -3440.00
04147            -680.00    -3440.00
04148            -680.00    -3480.00
04149            -680.00    -3520.00
04150            -680.00    -3480.00
04151            -680.00    -3560.00
04152            -680.00    -3560.00
04153            -680.00    -3600.00
04154            -680.00    -3600.00
04155            -720.00    -3640.00
04156            -720.00    -3680.00
04157            -720.00    -3680.00
04158            -680.00    -3720.00
04159            -720.00    -3720.00
04160            -720.00    -3720.00
04161            -760.00    -3760.00
04162            -720.00    -3760.00
04163            -720.00    -3800.00
04164            -720.00    -3840.00
04165            -760.00    -3840.00
04166            -760.00    -3880.00
04167            -760.00    -3920.00
04168            -760.00    -3920.00
04169            -760.00    -3920.00
04170            -760.00    -3920.00
04171            -760.00    -3920.00
04172            -760.00    -4000.00
04173            -760.00    -4000.00
04174            -800.00    -4000.00
04175            -760.00    -4040.00
04176            -760.00    -4040.00
04177            -840.00    -4080.00
04178            -800.00    -4080.00
04179            -840.00    -4120.00
04180            -840.00    -4160.00
04181            -800.00    -4160.00
04182            -840.00    -4160.00
04183            -840.00    -4200.00
04184            -840.00    -4200.00
04185            -840.00    -4240.00
04186            -840.00    -4240.00
04187            -840.00    -4240.00
04188            -880.00    -4240.00
04189            -840.00    -4280.00
04190            -840.00    -4320.00
04191            -840.00    -4320.00
04192            -880.00    -4320.00
04193            -840.00    -4360.00
04194            -840.00    -4360.00
04195            -840.00    -4360.00
04196            -840.00    -4360.00
04197            -880.00    -4400.00
04198            -840.00    -4400.00
04199            -880.00    -4440.00
04200            -880.00    -4440.00
04201            -880.00    -4440.00
04202            -880.00    -4440.00
04203            -840.00    -4480.00
04204            -880.00    -4480.00
04205            -880.00    -4520.00
04206            -880.00    -4480.00
04207            -880.00    -4520.00
04208            -880.00    -4560.00
04209            -880.00    -4560.00
04210            -880.00    -4560.00
04211            -880.00    -4600.00
04212            -880.00    -4600.00
04213            -880.00    -4640.00
04214            -880.00    -4640.00
04215            -880.00    -4640.00
04216            -920.00    -4640.00
04217            -880.00    -4640.00
04218            -880.00    -4680.00
04219            -880.00    -4680.00
04220            -920.00    -4680.00
04221            -880.00    -4680.00
04222            -880.00    -4720.00
04223            -920.00    -4720.00
04224            -920.00    -4720.00
04225            -920.00    -4720.00
04226            -920.00    -4720.00
04227            -920.00    -4720.00
04228            -920.00    -4760.00
04229            -920.00    -4760.00
04230            -920.00    -4760.00
04231            -960.00    -4760.00
04232            -920.00    -4800.00
04233            -920.00    -4800.00
04234            -920.00    -4800.00
04235           -1000.00    -4840.00
04236            -920.00    -4800.00
04237            -920.00    -4840.00
04238            -920.00    -4840.00
04239            -920.00    -4840.00
04240           -1000.00    -4880.00
04241            -920.00    -4880.00
04242           -1000.00    -4840.00
04243            -920.00    -4880.00
04244            -920.00    -4880.00
04245            -960.00    -4880.00
04246            -960.00    -4880.00
04247           -1000.00    -4880.00
04248            -920.00    -4880.00
04249           -1000.00    -4880.00
04250            -920.00    -4880.00
04251            -960.00    -4920.00
04252            -960.00    -4920.00
04253           -1000.00    -4920.00
04254           -1000.00    -4960.00
04255           -1000.00    -4960.00
04256           -1000.00    -4920.00
04257           -1000.00    -4960.00
04258           -1000.00    -4960.00
04259           -1000.00    -4960.00
04260           -1000.00    -4960.00
04261           -1000.00    -4960.00
04262           -1000.00    -4960.00
04263            -920.00    -4960.00
04264           -1000.00    -4960.00
04265           -1000.00    -4960.00
04266            -960.00    -4960.00
04267           -1000.00    -4960.00
04268           -1000.00    -4960.00
04269           -1000.00    -4960.00
04270           -1000.00    -5000.00
04271           -1000.00    -4960.00
04272            -960.00    -5000.00
04273           -1000.00    -4960.00
04274           -1000.00    -4960.00
04275            -960.00    -4960.00
04276           -1000.00    -4960.00
04277           -1000.00    -4960.00
04278           -1000.00    -4960.00
04279            -960.00    -4960.00
04280           -1000.00    -4960.00
04281            -920.00    -5000.00
04282           -1000.00    -4960.00
04283           -1000.00    -4960.00
04284           -1000.00    -4960.00
04285            -960.00    -4960.00
04286           -1000.00    -4960.00
04287           -1000.00    -4960.00
04288           -1000.00    -4960.00
04289            -960.00    -4960.00
04290           -1000.00    -4960.00
04291           -1000.00    -4960.00
04292            -960.00    -4960.00
04293           -1000.00    -4960.00
04294           -1000.00    -4920.00
04295           -1000.00    -4960.00
04296           -1000.00    -4920.00
04297           -1000.00    -4960.00
04298            -960.00    -4920.00
04299           -1000.00    -4880.00
04300           -1000.00    -4880.00
04301            -960.00    -4880.00
04302           -1000.00    -4880.00
04303            -960.00    -4880.00
04304            -960.00    -4880.00
04305            -960.00    -4880.00
04306           -1000.00    -4880.00
04307            -960.00    -4880.00
04308            -960.00    -4880.00
04309           -1000.00    -4840.00
04310           -1000.00    -4840.00
04311           -1000.00    -4840.00
04312           -1000.00    -4840.00
04313            -960.00    -4840.00
04314           -1000.00    -4840.00
04315            -960.00    -4840.00
04316           -1000.00    -4840.00
04317            -920.00    -4800.00
04318           -1000.00    -4760.00
04319            -920.00    -4800.00
04320            -920.00    -4800.00
04321            -960.00    -4760.00
04322            -920.00    -4760.00
04323            -920.00    -4760.00
04324            -960.00    -4760.00
04325            -920.00    -4720.00
04326            -920.00    -4720.00
04327            -920.00    -4720.00
04328            -920.00    -4680.00
04329            -920.00    -4720.00
04330            -960.00    -4680.00
04331            -920.00    -4680.00
04332            -920.00    -4680.00
04333            -920.00    -4680.00
04334            -920.00    -4640.00
04335            -920.00    -4640.00
04336            -920.00    -4640.00
04337            -880.00    -4640.00
04338            -920.00    -4640.00
04339            -880.00    -4640.00
04340            -880.00    -4600.00
04341            -880.00    -4560.00
04342            -880.00    -4560.00
04343            -920.00    -4520.00
04344            -920.00    -4520.00
04345            -880.00    -4560.00
04346            -880.00    -4520.00
04347            -920.00    -4520.00
04348            -880.00    -4520.00
04349            -880.00    -4480.00
04350            -920.00    -4480.00
04351            -880.00    -4480.00
04352            -880.00    -4440.00
04353            -880.00    -4440.00
04354            -880.00    -4400.00
04355            -880.00    -4360.00
04356            -880.00    -4360.00
04357            -880.00    -4400.00
04358            -880.00    -4360.00
04359            -840.00    -4360.00
04360            -920.00    -4320.00
04361            -880.00    -4320.00
04362            -880.00    -4280.00
04363            -840.00    -4280.00
04364            -880.00    -4280.00
04365            -880.00    -4240.00
04366            -880.00    -4240.00
04367            -840.00    -4200.00
04368            -880.00    -4200.00
04369            -840.00    -4200.00
04370            -880.00    -4200.00
04371            -880.00    -4160.00
04372            -880.00    -4120.00
04373            -840.00    -4120.00
04374            -880.00    -4080.00
04375            -840.00    -4080.00
04376            -840.00    -4080.00
04377            -880.00    -4040.00
04378            -880.00    -4040.00
04379            -840.00    -4040.00
04380            -840.00    -4000.00
04381            -840.00    -3960.00
04382            -800.00    -3960.00
04383            -840.00    -3920.00
04384            -760.00    -3920.00
04385            -840.00    -3880.00
04386            -800.00    -3880.00
04387            -800.00    -3880.00
04388            -760.00    -3840.00
04389            -760.00    -3800.00
04390            -760.00    -3840.00
04391            -760.00    -3760.00
04392            -760.00    -3760.00
04393            -760.00    -3760.00
04394            -760.00    -3720.00
04395            -760.00    -3720.00
04396            -760.00    -3680.00
04397            -760.00    -3680.00
04398            -720.00    -3640.00
04399            -760.00    -3600.00
04400            -720.00    -3600.00
04401            -720.00    -3560.00
04402            -720.00    -3520.00
04403            -720.00    -3520.00
04404            -720.00    -3480.00
04405            -720.00    -3440.00
04406            -720.00    -3440.00
04407            -720.00    -3440.00
04408            -720.00    -3440.00
04409            -680.00    -3360.00
04410            -720.00    -3360.00
04411            -680.00    -3400.00
04412            -680.00    -3320.00
04413            -680.00    -3320.00
04414            -680.00    -3280.00
04415            -680.00    -3280.00
04416            -680.00    -3240.00
04417            -680.00    -3240.00
04418            -640.00    -3200.00
04419            -600.00    -3200.00
04420            -600.00    -3120.00
04421            -640.00    -3120.00
04422            -600.00    -3120.00
04423            -600.00    -3080.00
04424            -600.00    -3040.00
04425            -640.00    -3040.00
04426            -600.00    -3000.00
04427            -600.00    -2960.00
04428            -600.00    -2920.00
04429            -600.00    -2920.00
04430            -600.00    -2920.00
04431            -600.00    -2880.00
04432            -560.00    -2880.00
04433            -600.00    -2800.00
04434            -600.00    -2800.00
04435            -600.00    -2760.00
04436            -560.00    -2760.00
04437            -560.00    -2720.00
04438            -560.00    -2680.00
04439            -560.00    -2680.00
04440            -560.00    -2640.00
04441            -560.00    -2600.00
04442            -560.00    -2600.00
04443            -560.00    -2560.00
04444            -520.00    -2560.00
04445            -560.00    -2520.00
04446            -520.00    -2480.00
04447            -560.00    -2480.00
04448            -520.00    -2440.00
04449            -520.00    -2400.00
04450            -520.00    -2400.00
04451            -480.00    -2360.00
04452            -440.00    -2320.00
04453            -480.00    -2320.00
04454            -440.00    -2280.00
04455            -440.00    -2240.00
04456            -440.00    -2200.00
04457            -440.00    -2200.00
04458            -440.00    -2160.00
04459            -440.00    -2120.00
04460            -440.00    -2120.00
04461            -440.00    -2120.00
04462            -440.00    -2040.00
04463            -440.00    -2000.00
04464            -440.00    -1960.00
04465            -440.00    -1960.00
04466            -400.00    -1920.00
04467            -400.00    -1920.00
04468            -400.00    -1920.00
04469            -400.00    -1840.00
04470            -400.00    -1800.00
04471            -360.00    -1800.00
04472            -400.00    -1760.00
04473            -400.00    -1760.00
04474            -360.00    -1680.00
04475            -360.00    -1680.00
04476            -360.00    -1640.00
04477            -360.00    -1640.00
04478            -280.00    -1600.00
04479            -360.00    -1600.00
04480            -280.00    -1520.00
04481            -320.00    -1520.00
04482            -280.00    -1480.00
04483            -320.00    -1440.00
04484            -280.00    -1400.00
04485            -280.00    -1360.00
04486            -280.00    -1360.00
04487            -240.00    -1320.00
04488            -280.00    -1320.00
04489            -240.00    -1280.00
04490            -240.00    -1240.00
04491            -280.00    -1200.00
04492            -240.00    -1160.00
04493            -280.00    -1160.00
04494            -240.00    -1160.00
04495            -240.00    -1120.00
04496            -240.00    -1040.00
04497            -200.00    -1040.00
04498            -240.00    -1000.00
04499            -240.00     -960.00
04500            -240.00     -920.00
04501            -240.00     -960.00
04502            -240.00     -880.00
04503            -200.00     -880.00
04504            -200.00     -840.00
04505            -200.00     -800.00
04506            -200.00     -800.00
04507            -120.00     -760.00
04508            -120.00     -720.00
04509            -200.00     -680.00
04510            -160.00     -640.00
04511            -160.00     -640.00
04512            -120.00     -600.00
04513            -120.00     -560.00
04514            -120.00     -560.00
04515            -120.00     -520.00
04516            -120.00     -480.00
04517            -120.00     -440.00
04518            -120.00     -400.00
04519            -120.00     -400.00
04520             -80.00     -320.00
04521             -80.00     -360.00
04522             -80.00     -320.00
04523             -80.00     -240.00
04524             -80.00     -200.00
04525             -40.00     -200.00
04526             -80.00     -160.00
04527             -40.00     -120.00
04528             -40.00      -80.00
04529             -80.00      -80.00
04530             -40.00      -40.00
04531             -40.00        0.00
04532             -40.00        0.00
04533             -40.00        0.00
04534              40.00       80.00
04535               0.00      120.00
04536              40.00      120.00
04537              40.00      160.00
04538              40.00      200.00
04539              80.00      240.00
04540              40.00      280.00
04541              80.00      360.00
04542              80.00      360.00
04543              40.00      320.00
04544             -80.00      360.00
04545              40.00      440.00
04546             120.00      440.00
04547              80.00      480.00
04548              80.00      480.00
04549              80.00      560.00
04550              80.00      600.00
04551              80.00      600.00
04552              80.00      640.00
04553             120.00      680.00
04554             120.00      720.00
04555              80.00      680.00
04556             120.00      720.00
04557             120.00      800.00
04558             120.00      800.00
04559             120.00      880.00
04560             120.00      880.00
04561             120.00      880.00
04562             160.00      920.00
04563             160.00      960.00
04564             200.00     1000.00
04565             200.00     1040.00
04566             200.00     1080.00
04567             200.00     1080.00
04568             200.00     1120.00
04569             200.00     1200.00
04570             200.00     1200.00
04571             240.00     1200.00
04572             200.00     1240.00
04573             240.00     1280.00
04574             240.00     1280.00
04575             240.00     1360.00
04576             240.00     1360.00
04577             240.00     1400.00
04578             240.00     1400.00
04579             240.00     1440.00
04580             280.00     1440.00
04581             280.00     1520.00
04582             280.00     1560.00
04583             280.00     1560.00
04584             280.00     1600.00
04585             280.00     1680.00
04586             360.00     1680.00
04587             360.00     1680.00
04588             320.00     1680.00
04589             360.00     1760.00
04590             320.00     1760.00
04591             360.00     1840.00
04592             360.00     1840.00
04593             360.00     1840.00
04594             400.00     1880.00
04595             400.00     1920.00
04596             400.00     1920.00
04597             400.00     2000.00
04598             400.00     2000.00
04599             400.00     2040.00
04600             400.00     2080.00
04601             400.00     2080.00
04602             400.00     2120.00
04603             400.00     2160.00
04604             400.00     2160.00
04605             400.00     2200.00
04606             440.00     2240.00
04607             440.00     2240.00
04608             440.00     2280.00
04609             440.00     2320.00
04610             440.00     2360.00
04611             440.00     2400.00
04612             440.00     2400.00
04613             480.00     2440.00
04614             520.00     2440.00
04615             440.00     2480.00
04616             520.00     2480.00
04617             520.00     2560.00
04618             520.00     2560.00
04619             520.00     2560.00
04620             520.00     2600.00
04621             520.00     2640.00
04622             520.00     2680.00
04623             520.00     2680.00
04624             520.00     2720.00
04625             520.00     2760.00
04626             520.00     2800.00
04627             520.00     2800.00
04628             560.00     2800.00
04629             560.00     2880.00
04630             520.00     2880.00
04631             560.00     2920.00
04632             560.00     2960.00
04633             560.00     2960.00
04634             560.00     3000.00
04635             560.00     3000.00
04636             560.00     3040.00
04637             560.00     3040.00
04638             600.00     3040.00
04639             560.00     3080.00
04640             600.00     3160.00
04641             600.00     3160.00
04642             560.00     3160.00
04643             600.00     3200.00
04644             600.00     3200.00
04645             680.00     3280.00
04646             640.00     3280.00
04647             600.00     3320.00
04648             600.00     3320.00
04649             680.00     3360.00
04650             600.00     3360.00
04651             680.00     3400.00
04652             680.00     3400.00
04653             680.00     3440.00
04654             680.00     3440.00
04655             680.00     3480.00
04656             680.00     3520.00
04657             680.00     3520.00
04658             720.00     3560.00
04659             680.00     3560.00
04660             720.00     3560.00
04661             680.00     3600.00
04662             720.00     3640.00
04663             720.00     3680.00
04664             720.00     3680.00
04665             720.00     3680.00
04666             720.00     3720.00
04667             720.00     3760.00
04668             720.00     3760.00
04669             720.00     3760.00
04670             720.00     3800.00
04671             720.00     3840.00
04672             760.00     3840.00
04673             760.00     3840.00
04674             760.00     3840.00
04675             760.00     3880.00
04676             760.00     3920.00
04677             760.00     3960.00
04678             800.00     3960.00
04679             760.00     3960.00
04680             760.00     4000.00
04681             800.00     4000.00
04682             760.00     4000.00
04683             800.00     4040.00
04684             840.00     4080.00
04685             760.00     4080.00
04686             760.00     4080.00
04687             800.00     4120.00
04688             760.00     4120.00
04689             800.00     4200.00
04690             840.00     4200.00
04691             840.00     4160.00
04692             840.00     4200.00
04693             840.00     4240.00
04694             840.00     4240.00
04695             840.00     4240.00
04696             840.00     4280.00
04697             840.00     4280.00
04698             840.00     4320.00
04699             840.00     4320.00
04700             840.00     4320.00
04701             840.00     4320.00
04702             840.00     4360.00
04703             840.00     4400.00
04704             840.00     4400.00
04705             840.00     4400.00
04706             880.00     4440.00
04707             880.00     4440.00
04708             880.00     4440.00
04709             880.00     4440.00
04710             840.00     4480.00
04711             880.00     4480.00
04712             880.00     4480.00
04713             880.00     4480.00
04714             920.00     4560.00
04715             880.00     4520.00
04716             880.00     4520.00
04717             920.00     4560.00
04718             880.00     4560.00
04719             880.00     4600.00
04720             880.00     4600.00
04721             880.00     4600.00
04722             880.00     4600.00
04723             920.00     4640.00
04724             920.00     4640.00
04725             920.00     4640.00
04726             920.00     4640.00
04727             920.00     4680.00
04728             920.00     4680.00
04729             920.00     4720.00
04730             960.00     4720.00
04731             920.00     4720.00
04732             920.00     4720.00
04733             920.00     4720.00
04734             960.00     4760.00
04735             960.00     4760.00
04736             920.00     4760.00
04737             920.00     4760.00
04738            1000.00     4760.00
04739            1000.00     4800.00
04740            1000.00     4760.00
04741            1000.00     4800.00
04742            1000.00     4800.00
04743            1000.00     4800.00
04744            1000.00     4800.00
04745             960.00     4840.00
04746            1000.00     4840.00
04747            1000.00     4880.00
04748             920.00     4880.00
04749            1000.00     4840.00
04750            1000.00     4880.00
04751             920.00     4880.00
04752            1000.00     4880.00
04753             920.00     4880.00
04754            1000.00     4880.00
04755             960.00     4880.00
04756            1000.00     4880.00
04757             960.00     4880.00
04758            1000.00     4920.00
04759            1000.00     4920.00
04760            1000.00     4920.00
04761             920.00     4920.00
04762            1000.00     4920.00
04763            1000.00     4920.00
04764             960.00     4920.00
04765            1000.00     4920.00
04766            1000.00     4960.00
04767            1040.00     4960.00
04768            1000.00     4920.00
04769            1040.00     4920.00
04770            1000.00     4920.00
04771            1000.00     4960.00
04772            1000.00     4960.00
04773            1000.00     4960.00
04774            1000.00     4960.00
04775            1000.00     5000.00
04776            1000.00     4960.00
04777            1000.00     4960.00
04778            1000.00     4960.00
04779            1000.00     4960.00
04780            1000.00     5000.00
04781            1000.00     4960.00
04782            1000.00     4960.00
04783            1040.00     5000.00
04784            1000.00     4960.00
04785            1040.00     4960.00
04786            1040.00     4960.00
04787            1000.00     4960.00
04788            1000.00     4960.00
04789            1040.00     4960.00
04790            1000.00     4960.00
04791            1000.00     4960.00
04792            1040.00     4960.00
04793            1000.00     4960.00
04794            1040.00     4960.00
04795            1040.00     4960.00
04796            1000.00     4960.00
04797            1000.00     4960.00
04798            1000.00     4960.00
04799            1000.00     4960.00
04800            1000.00     4920.00
04801            1000.00     4960.00
04802            1000.00     4960.00
04803            1000.00     4920.00
04804            1040.00     4920.00
04805            1040.00     4960.00
04806            1000.00     4920.00
04807            1040.00     4920.00
04808            1040.00     4920.00
04809            1040.00     4920.00
04810            1000.00     4920.00
04811            1000.00     4920.00
04812            1000.00     4920.00
04813            1000.00     4880.00
04814            1040.00     4880.00
04815             960.00     4880.00
04816            1000.00     4880.00
04817            1000.00     4880.00
04818            1000.00     4880.00
04819            1000.00     4880.00
04820            1000.00     4880.00
04821             960.00     4880.00
04822            1000.00     4880.00
04823             920.00     4840.00
04824            1000.00     4800.00
04825             920.00     4800.00
04826            1000.00     4800.00
04827            1000.00     4800.00
04828             920.00     4800.00
04829             960.00     4760.00
04830             920.00     4800.00
04831            1000.00     4760.00
04832            1000.00     4760.00
04833             960.00     4720.00
04834             920.00     4760.00
04835             960.00     4720.00
04836             920.00     4760.00
04837            1000.00     4720.00
04838             920.00     4720.00
04839            1000.00     4720.00
04840             920.00     4720.00
04841             960.00     4680.00
04842             920.00     4720.00
04843            1000.00     4640.00
04844             920.00     4640.00
04845             880.00     4640.00
04846             920.00     4600.00
04847             920.00     4600.00
04848             920.00     4600.00
04849             920.00     4600.00
04850             920.00     4560.00
04851             920.00     4560.00
04852             920.00     4560.00
04853             920.00     4560.00
04854             920.00     4560.00
04855             880.00     4520.00
04856             920.00     4520.00
04857             920.00     4520.00
04858             880.00     4480.00
04859             920.00     4480.00
04860             920.00     4440.00
04861             880.00     4440.00
04862             920.00     4440.00
04863             880.00     4400.00
04864             880.00     4400.00
04865             880.00     4400.00
04866             920.00     4400.00
04867             880.00     4400.00
04868             920.00     4320.00
04869             880.00     4320.00
04870             880.00     4320.00
04871             880.00     4280.00
04872             880.00     4280.00
04873             880.00     4280.00
04874             880.00     4240.00
04875             880.00     4240.00
04876             880.00     4200.00
04877             880.00     4160.00
04878             840.00     4200.00
04879             880.00     4200.00
04880             840.00     4160.00
04881             840.00     4160.00
04882             840.00     4120.00
04883             840.00     4080.00
04884             840.00     4080.00
04885             840.00     4080.00
04886             840.00     4040.00
04887             840.00     4000.00
04888             760.00     4000.00
04889             840.00     4000.00
04890             840.00     3960.00
04891             760.00     3960.00
04892             800.00     3920.00
04893             800.00     3920.00
04894             760.00     3920.00
04895             760.00     3880.00
04896             800.00     3840.00
04897             760.00     3840.00
04898             760.00     3800.00
04899             720.00     3800.00
04900             720.00     3760.00
04901             720.00     3760.00
04902             760.00     3760.00
04903             760.00     3680.00
04904             720.00     3680.00
04905             720.00     3680.00
04906             720.00     3680.00
04907             720.00     3640.00
04908             720.00     3600.00
04909             720.00     3600.00
04910             720.00     3560.00
04911             720.00     3520.00
04912             720.00     3520.00
04913             720.00     3480.00
04914             720.00     3480.00
04915             720.00     3480.00
04916             720.00     3440.00
04917             720.00     3440.00
04918             720.00     3400.00
04919             720.00     3360.00
04920             720.00     3360.00
04921             720.00     3320.00
04922             680.00     3320.00
04923             680.00     3280.00
04924             680.00     3280.00
04925             680.00     3240.00
04926             680.00     3200.00
04927             680.00     3200.00
04928             680.00     3160.00
04929             680.00     3160.00
04930             640.00     3120.00
04931             680.00     3080.00
04932             640.00     3040.00
04933             600.00     3040.00
04934             600.00     3000.00
04935             600.00     3000.00
04936             600.00     2960.00
04937             600.00     2960.00
04938             600.00     2920.00
04939             600.00     2880.00
04940             600.00     2880.00
04941             560.00     2880.00
04942             640.00     2800.00
04943             600.00     2800.00
04944             560.00     2800.00
04945             560.00     2800.00
04946             560.00     2720.00
04947             560.00     2720.00
04948             560.00     2640.00
04949             560.00     2640.00
04950             520.00     2640.00
04951             520.00     2560.00
04952             520.00     2560.00
04953             520.00     2560.00
04954             520.00     2480.00
04955             520.00     2480.00
04956             520.00     2480.00
04957             520.00     2400.00
04958             480.00     2400.00
04959             520.00     2360.00
04960             520.00     2360.00
04961             480.00     2360.00
04962             440.00     2320.00
04963             440.00     2240.00
04964             480.00     2240.00
04965             440.00     2200.00
04966             440.00     2200.00
04967             440.00     2160.00
04968             440.00     2160.00
04969             440.00     2080.00
04970             440.00     2080.00
04971             440.00     2040.00
04972             400.00     2000.00
04973             440.00     2000.00
04974             440.00     1960.00
04975             400.00     1920.00
04976             400.00     1920.00
04977             400.00     1880.00
04978             400.00     1840.00
04979             400.00     1840.00
04980             400.00     1760.00
04981             400.00     1760.00
04982             400.00     1720.00
04983             360.00     1680.00
04984             360.00     1680.00
04985             400.00     1640.00
04986             360.00     1640.00
04987             400.00     1600.00
04988             360.00     1560.00
04989             360.00     1560.00
04990             360.00     1520.00
04991             360.00     1520.00
04992             360.00     1440.00
04993             360.00     1400.00
04994             360.00     1400.00
04995             280.00     1360.00
04996             280.00     1320.00
04997             320.00     1320.00
04998             240.00     1280.00
04999             280.00     1240.00
05000             280.00     1200.00
