Unit:(mV)
                     CH1         CH2
Frequency              ?  98.336 kHz
00001            -200.00    -1360.00
00002            -240.00    -1360.00
00003            -160.00    -1440.00
00004            -240.00    -1440.00
00005            -200.00    -1480.00
00006            -240.00    -1520.00
00007            -200.00    -1560.00
00008            -240.00    -1600.00
00009            -200.00    -1640.00
00010            -240.00    -1640.00
00011            -240.00    -1680.00
00012            -240.00    -1680.00
00013            -240.00    -1720.00
00014            -240.00    -1760.00
00015            -240.00    -1760.00
00016            -240.00    -1800.00
00017            -240.00    -1840.00
00018            -240.00    -1840.00
00019            -240.00    -1880.00
00020            -240.00    -1920.00
00021            -280.00    -1960.00
00022            -280.00    -1960.00
00023            -280.00    -2000.00
00024            -280.00    -2080.00
00025            -280.00    -2080.00
00026            -280.00    -2120.00
00027            -280.00    -2160.00
00028            -360.00    -2160.00
00029            -280.00    -2200.00
00030            -280.00    -2200.00
00031            -360.00    -2240.00
00032            -320.00    -2240.00
00033            -320.00    -2280.00
00034            -360.00    -2320.00
00035            -360.00    -2360.00
00036            -360.00    -2400.00
00037            -360.00    -2440.00
00038            -320.00    -2440.00
00039            -360.00    -2480.00
00040            -400.00    -2480.00
00041            -360.00    -2520.00
00042            -400.00    -2560.00
00043            -360.00    -2560.00
00044            -400.00    -2600.00
00045            -400.00    -2640.00
00046            -400.00    -2640.00
00047            -400.00    -2680.00
00048            -400.00    -2720.00
00049            -440.00    -2720.00
00050            -400.00    -2760.00
00051            -400.00    -2800.00
00052            -440.00    -2800.00
00053            -440.00    -2880.00
00054            -400.00    -2880.00
00055            -440.00    -2920.00
00056            -440.00    -2920.00
00057            -440.00    -2960.00
00058            -440.00    -2960.00
00059            -440.00    -2960.00
00060            -440.00    -3000.00
00061            -440.00    -3040.00
00062            -440.00    -3080.00
00063            -440.00    -3080.00
00064            -440.00    -3120.00
00065            -440.00    -3120.00
00066            -480.00    -3160.00
00067            -480.00    -3200.00
00068            -480.00    -3200.00
00069            -520.00    -3200.00
00070            -440.00    -3240.00
00071            -520.00    -3280.00
00072            -440.00    -3280.00
00073            -480.00    -3360.00
00074            -480.00    -3360.00
00075            -520.00    -3360.00
00076            -480.00    -3400.00
00077            -520.00    -3400.00
00078            -520.00    -3440.00
00079            -440.00    -3440.00
00080            -520.00    -3440.00
00081            -560.00    -3520.00
00082            -520.00    -3480.00
00083            -520.00    -3520.00
00084            -520.00    -3560.00
00085            -520.00    -3600.00
00086            -560.00    -3600.00
00087            -520.00    -3600.00
00088            -560.00    -3680.00
00089            -520.00    -3720.00
00090            -560.00    -3680.00
00091            -560.00    -3760.00
00092            -560.00    -3720.00
00093            -560.00    -3760.00
00094            -560.00    -3760.00
00095            -560.00    -3800.00
00096            -560.00    -3800.00
00097            -560.00    -3840.00
00098            -560.00    -3840.00
00099            -560.00    -3880.00
00100            -560.00    -3880.00
00101            -560.00    -3920.00
00102            -560.00    -3920.00
00103            -560.00    -3960.00
00104            -560.00    -3960.00
00105            -600.00    -4000.00
00106            -600.00    -4000.00
00107            -600.00    -4040.00
00108            -600.00    -4040.00
00109            -600.00    -4080.00
00110            -600.00    -4080.00
00111            -600.00    -4120.00
00112            -600.00    -4080.00
00113            -600.00    -4160.00
00114            -600.00    -4160.00
00115            -600.00    -4160.00
00116            -600.00    -4200.00
00117            -640.00    -4200.00
00118            -640.00    -4240.00
00119            -680.00    -4240.00
00120            -600.00    -4240.00
00121            -680.00    -4240.00
00122            -640.00    -4280.00
00123            -600.00    -4280.00
00124            -640.00    -4320.00
00125            -640.00    -4320.00
00126            -680.00    -4400.00
00127            -640.00    -4360.00
00128            -680.00    -4360.00
00129            -680.00    -4360.00
00130            -680.00    -4400.00
00131            -680.00    -4440.00
00132            -600.00    -4400.00
00133            -680.00    -4440.00
00134            -640.00    -4480.00
00135            -680.00    -4480.00
00136            -720.00    -4480.00
00137            -680.00    -4480.00
00138            -680.00    -4520.00
00139            -680.00    -4520.00
00140            -680.00    -4520.00
00141            -680.00    -4520.00
00142            -720.00    -4560.00
00143            -680.00    -4560.00
00144            -720.00    -4560.00
00145            -720.00    -4600.00
00146            -680.00    -4600.00
00147            -680.00    -4640.00
00148            -720.00    -4640.00
00149            -720.00    -4640.00
00150            -720.00    -4640.00
00151            -720.00    -4640.00
00152            -680.00    -4680.00
00153            -720.00    -4680.00
00154            -680.00    -4680.00
00155            -720.00    -4720.00
00156            -720.00    -4680.00
00157            -720.00    -4720.00
00158            -720.00    -4720.00
00159            -720.00    -4720.00
00160            -720.00    -4720.00
00161            -720.00    -4760.00
00162            -720.00    -4720.00
00163            -720.00    -4760.00
00164            -720.00    -4800.00
00165            -720.00    -4800.00
00166            -720.00    -4760.00
00167            -760.00    -4800.00
00168            -760.00    -4800.00
00169            -720.00    -4800.00
00170            -720.00    -4840.00
00171            -760.00    -4840.00
00172            -720.00    -4840.00
00173            -760.00    -4840.00
00174            -760.00    -4880.00
00175            -760.00    -4880.00
00176            -760.00    -4880.00
00177            -760.00    -4840.00
00178            -760.00    -4880.00
00179            -760.00    -4880.00
00180            -760.00    -4880.00
00181            -760.00    -4880.00
00182            -760.00    -4880.00
00183            -760.00    -4880.00
00184            -760.00    -4880.00
00185            -760.00    -4880.00
00186            -760.00    -4920.00
00187            -760.00    -4920.00
00188            -760.00    -4920.00
00189            -760.00    -4920.00
00190            -760.00    -4960.00
00191            -760.00    -4960.00
00192            -760.00    -4960.00
00193            -760.00    -4960.00
00194            -760.00    -4960.00
00195            -760.00    -4960.00
00196            -760.00    -4960.00
00197            -760.00    -4960.00
00198            -760.00    -4960.00
00199            -760.00    -4960.00
00200            -760.00    -4960.00
00201            -760.00    -4960.00
00202            -760.00    -4920.00
00203            -760.00    -4960.00
00204            -760.00    -4960.00
00205            -760.00    -4960.00
00206            -760.00    -4960.00
00207            -760.00    -4960.00
00208            -760.00    -4960.00
00209            -760.00    -5000.00
00210            -760.00    -4960.00
00211            -760.00    -4960.00
00212            -760.00    -4960.00
00213            -760.00    -4960.00
00214            -760.00    -4960.00
00215            -760.00    -4960.00
00216            -760.00    -4960.00
00217            -760.00    -4960.00
00218            -760.00    -4960.00
00219            -720.00    -4960.00
00220            -760.00    -4960.00
00221            -760.00    -4960.00
00222            -760.00    -4960.00
00223            -760.00    -4960.00
00224            -760.00    -4960.00
00225            -760.00    -4960.00
00226            -760.00    -4960.00
00227            -760.00    -4920.00
00228            -720.00    -4960.00
00229            -720.00    -4920.00
00230            -760.00    -4960.00
00231            -760.00    -4960.00
00232            -760.00    -4880.00
00233            -760.00    -4880.00
00234            -720.00    -4880.00
00235            -760.00    -4880.00
00236            -760.00    -4880.00
00237            -760.00    -4880.00
00238            -760.00    -4880.00
00239            -760.00    -4880.00
00240            -760.00    -4880.00
00241            -760.00    -4880.00
00242            -760.00    -4840.00
00243            -760.00    -4880.00
00244            -760.00    -4840.00
00245            -760.00    -4840.00
00246            -760.00    -4840.00
00247            -760.00    -4800.00
00248            -720.00    -4840.00
00249            -760.00    -4760.00
00250            -760.00    -4800.00
00251            -760.00    -4800.00
00252            -760.00    -4760.00
00253            -760.00    -4760.00
00254            -760.00    -4760.00
00255            -760.00    -4800.00
00256            -760.00    -4760.00
00257            -760.00    -4720.00
00258            -760.00    -4720.00
00259            -720.00    -4760.00
00260            -760.00    -4720.00
00261            -720.00    -4720.00
00262            -720.00    -4680.00
00263            -720.00    -4680.00
00264            -760.00    -4680.00
00265            -720.00    -4680.00
00266            -680.00    -4640.00
00267            -720.00    -4640.00
00268            -720.00    -4640.00
00269            -720.00    -4640.00
00270            -720.00    -4640.00
00271            -720.00    -4640.00
00272            -720.00    -4600.00
00273            -720.00    -4600.00
00274            -720.00    -4560.00
00275            -720.00    -4560.00
00276            -720.00    -4520.00
00277            -680.00    -4520.00
00278            -720.00    -4560.00
00279            -720.00    -4520.00
00280            -680.00    -4520.00
00281            -680.00    -4480.00
00282            -680.00    -4480.00
00283            -680.00    -4480.00
00284            -680.00    -4480.00
00285            -680.00    -4440.00
00286            -680.00    -4400.00
00287            -680.00    -4400.00
00288            -720.00    -4400.00
00289            -680.00    -4360.00
00290            -680.00    -4360.00
00291            -680.00    -4360.00
00292            -680.00    -4320.00
00293            -680.00    -4320.00
00294            -640.00    -4320.00
00295            -680.00    -4280.00
00296            -680.00    -4320.00
00297            -640.00    -4240.00
00298            -640.00    -4240.00
00299            -600.00    -4200.00
00300            -680.00    -4200.00
00301            -680.00    -4200.00
00302            -600.00    -4160.00
00303            -640.00    -4160.00
00304            -600.00    -4160.00
00305            -680.00    -4080.00
00306            -640.00    -4120.00
00307            -680.00    -4080.00
00308            -600.00    -4080.00
00309            -600.00    -4040.00
00310            -640.00    -4000.00
00311            -600.00    -4040.00
00312            -600.00    -4000.00
00313            -600.00    -3960.00
00314            -600.00    -3960.00
00315            -600.00    -3960.00
00316            -600.00    -3920.00
00317            -600.00    -3920.00
00318            -600.00    -3880.00
00319            -600.00    -3840.00
00320            -600.00    -3840.00
00321            -560.00    -3840.00
00322            -600.00    -3800.00
00323            -600.00    -3760.00
00324            -560.00    -3760.00
00325            -600.00    -3760.00
00326            -600.00    -3720.00
00327            -600.00    -3720.00
00328            -560.00    -3720.00
00329            -600.00    -3680.00
00330            -560.00    -3680.00
00331            -560.00    -3600.00
00332            -560.00    -3600.00
00333            -560.00    -3600.00
00334            -560.00    -3560.00
00335            -560.00    -3560.00
00336            -560.00    -3560.00
00337            -560.00    -3480.00
00338            -560.00    -3480.00
00339            -520.00    -3440.00
00340            -560.00    -3400.00
00341            -520.00    -3400.00
00342            -560.00    -3400.00
00343            -520.00    -3360.00
00344            -520.00    -3320.00
00345            -560.00    -3360.00
00346            -520.00    -3280.00
00347            -520.00    -3280.00
00348            -480.00    -3240.00
00349            -520.00    -3240.00
00350            -480.00    -3200.00
00351            -440.00    -3200.00
00352            -520.00    -3160.00
00353            -480.00    -3120.00
00354            -480.00    -3120.00
00355            -520.00    -3080.00
00356            -440.00    -3040.00
00357            -440.00    -3040.00
00358            -440.00    -3000.00
00359            -440.00    -3000.00
00360            -440.00    -2960.00
00361            -480.00    -2960.00
00362            -440.00    -2920.00
00363            -440.00    -2880.00
00364            -440.00    -2880.00
00365            -440.00    -2800.00
00366            -440.00    -2800.00
00367            -440.00    -2800.00
00368            -400.00    -2720.00
00369            -440.00    -2720.00
00370            -440.00    -2720.00
00371            -440.00    -2680.00
00372            -440.00    -2680.00
00373            -440.00    -2600.00
00374            -440.00    -2600.00
00375            -440.00    -2600.00
00376            -440.00    -2560.00
00377            -440.00    -2520.00
00378            -400.00    -2520.00
00379            -400.00    -2480.00
00380            -400.00    -2480.00
00381            -400.00    -2440.00
00382            -400.00    -2400.00
00383            -400.00    -2400.00
00384            -400.00    -2320.00
00385            -400.00    -2280.00
00386            -400.00    -2280.00
00387            -400.00    -2280.00
00388            -400.00    -2200.00
00389            -400.00    -2200.00
00390            -360.00    -2160.00
00391            -360.00    -2160.00
00392            -400.00    -2120.00
00393            -360.00    -2080.00
00394            -360.00    -2080.00
00395            -320.00    -2000.00
00396            -280.00    -2000.00
00397            -360.00    -1960.00
00398            -360.00    -1960.00
00399            -280.00    -1920.00
00400            -320.00    -1920.00
00401            -280.00    -1840.00
00402            -280.00    -1840.00
00403            -280.00    -1800.00
00404            -240.00    -1800.00
00405            -280.00    -1760.00
00406            -280.00    -1760.00
00407            -240.00    -1680.00
00408            -280.00    -1680.00
00409            -280.00    -1640.00
00410            -240.00    -1600.00
00411            -240.00    -1600.00
00412            -240.00    -1560.00
00413            -240.00    -1520.00
00414            -240.00    -1480.00
00415            -240.00    -1440.00
00416            -240.00    -1440.00
00417            -240.00    -1440.00
00418            -240.00    -1360.00
00419            -200.00    -1360.00
00420            -200.00    -1320.00
00421            -200.00    -1320.00
00422            -200.00    -1280.00
00423            -200.00    -1240.00
00424            -200.00    -1280.00
00425            -200.00    -1200.00
00426            -200.00    -1160.00
00427            -200.00    -1120.00
00428            -160.00    -1120.00
00429            -120.00    -1040.00
00430            -160.00    -1040.00
00431            -200.00    -1000.00
00432            -200.00     -960.00
00433            -200.00     -920.00
00434            -160.00     -920.00
00435            -120.00     -880.00
00436            -200.00     -880.00
00437            -120.00     -840.00
00438            -120.00     -800.00
00439            -120.00     -800.00
00440            -120.00     -720.00
00441            -120.00     -680.00
00442            -120.00     -680.00
00443            -120.00     -640.00
00444            -120.00     -600.00
00445            -120.00     -560.00
00446            -120.00     -560.00
00447            -120.00     -520.00
00448             -80.00     -480.00
00449             -80.00     -480.00
00450            -120.00     -440.00
00451             -80.00     -400.00
00452             -80.00     -360.00
00453             -80.00     -360.00
00454             -80.00     -320.00
00455            -120.00     -280.00
00456             -80.00     -240.00
00457             -80.00     -240.00
00458             -80.00     -160.00
00459             -80.00     -160.00
00460             -80.00      -80.00
00461             -80.00      -80.00
00462             -40.00      -40.00
00463             -40.00      -40.00
00464             -40.00        0.00
00465             -40.00        0.00
00466               0.00       40.00
00467              40.00       80.00
00468               0.00      120.00
00469               0.00      160.00
00470              40.00      160.00
00471               0.00      240.00
00472              40.00      240.00
00473              80.00      320.00
00474              80.00      360.00
00475              80.00      360.00
00476             -40.00      320.00
00477             -40.00      360.00
00478              80.00      440.00
00479              80.00      480.00
00480              80.00      480.00
00481              80.00      520.00
00482              80.00      560.00
00483              80.00      560.00
00484              40.00      600.00
00485              80.00      640.00
00486             120.00      680.00
00487              80.00      720.00
00488              40.00      720.00
00489             120.00      760.00
00490              80.00      800.00
00491              80.00      840.00
00492             120.00      880.00
00493             200.00      880.00
00494             120.00      920.00
00495             120.00      960.00
00496             120.00     1000.00
00497             120.00     1000.00
00498              80.00     1080.00
00499             160.00     1080.00
00500             120.00     1080.00
00501             120.00     1120.00
00502             160.00     1200.00
00503             160.00     1200.00
00504             200.00     1200.00
00505             160.00     1240.00
00506             200.00     1280.00
00507             200.00     1280.00
00508             200.00     1360.00
00509             200.00     1360.00
00510             200.00     1400.00
00511             200.00     1440.00
00512             200.00     1440.00
00513             200.00     1520.00
00514             200.00     1520.00
00515             200.00     1560.00
00516             200.00     1600.00
00517             240.00     1640.00
00518             240.00     1640.00
00519             240.00     1680.00
00520             240.00     1720.00
00521             240.00     1720.00
00522             240.00     1760.00
00523             240.00     1800.00
00524             280.00     1840.00
00525             280.00     1840.00
00526             240.00     1880.00
00527             280.00     1880.00
00528             280.00     1920.00
00529             280.00     2000.00
00530             280.00     2000.00
00531             280.00     2000.00
00532             280.00     2080.00
00533             280.00     2080.00
00534             320.00     2120.00
00535             280.00     2120.00
00536             320.00     2160.00
00537             320.00     2160.00
00538             360.00     2200.00
00539             360.00     2240.00
00540             360.00     2280.00
00541             360.00     2280.00
00542             360.00     2320.00
00543             360.00     2360.00
00544             360.00     2400.00
00545             360.00     2400.00
00546             360.00     2440.00
00547             360.00     2480.00
00548             360.00     2520.00
00549             400.00     2520.00
00550             360.00     2520.00
00551             360.00     2560.00
00552             400.00     2600.00
00553             400.00     2640.00
00554             400.00     2640.00
00555             400.00     2680.00
00556             400.00     2720.00
00557             400.00     2720.00
00558             400.00     2760.00
00559             440.00     2800.00
00560             400.00     2800.00
00561             440.00     2840.00
00562             400.00     2880.00
00563             440.00     2920.00
00564             440.00     2920.00
00565             400.00     2960.00
00566             440.00     2960.00
00567             440.00     2960.00
00568             400.00     3040.00
00569             440.00     3040.00
00570             400.00     3040.00
00571             440.00     3080.00
00572             440.00     3120.00
00573             480.00     3120.00
00574             440.00     3160.00
00575             440.00     3160.00
00576             440.00     3200.00
00577             480.00     3200.00
00578             440.00     3280.00
00579             480.00     3240.00
00580             480.00     3320.00
00581             440.00     3320.00
00582             480.00     3360.00
00583             480.00     3360.00
00584             520.00     3360.00
00585             520.00     3440.00
00586             520.00     3440.00
00587             520.00     3480.00
00588             520.00     3480.00
00589             520.00     3520.00
00590             520.00     3520.00
00591             520.00     3520.00
00592             520.00     3560.00
00593             520.00     3600.00
00594             520.00     3600.00
00595             560.00     3640.00
00596             520.00     3640.00
00597             560.00     3680.00
00598             520.00     3680.00
00599             560.00     3680.00
00600             560.00     3760.00
00601             520.00     3760.00
00602             560.00     3800.00
00603             560.00     3800.00
00604             560.00     3840.00
00605             600.00     3840.00
00606             560.00     3840.00
00607             560.00     3880.00
00608             560.00     3920.00
00609             600.00     3920.00
00610             600.00     3960.00
00611             560.00     3960.00
00612             600.00     3960.00
00613             600.00     3960.00
00614             600.00     4000.00
00615             600.00     4000.00
00616             600.00     4080.00
00617             600.00     4080.00
00618             600.00     4120.00
00619             680.00     4080.00
00620             600.00     4120.00
00621             640.00     4160.00
00622             600.00     4160.00
00623             600.00     4200.00
00624             600.00     4200.00
00625             640.00     4240.00
00626             640.00     4240.00
00627             600.00     4240.00
00628             600.00     4240.00
00629             680.00     4240.00
00630             600.00     4280.00
00631             680.00     4320.00
00632             640.00     4320.00
00633             640.00     4320.00
00634             640.00     4360.00
00635             680.00     4360.00
00636             680.00     4360.00
00637             680.00     4400.00
00638             680.00     4400.00
00639             640.00     4400.00
00640             680.00     4440.00
00641             680.00     4440.00
00642             680.00     4480.00
00643             680.00     4440.00
00644             680.00     4480.00
00645             680.00     4480.00
00646             680.00     4480.00
00647             680.00     4480.00
00648             680.00     4560.00
00649             680.00     4560.00
00650             680.00     4560.00
00651             720.00     4560.00
00652             680.00     4600.00
00653             720.00     4600.00
00654             680.00     4600.00
00655             720.00     4640.00
00656             720.00     4640.00
00657             720.00     4640.00
00658             720.00     4640.00
00659             720.00     4680.00
00660             720.00     4640.00
00661             720.00     4680.00
00662             680.00     4720.00
00663             720.00     4720.00
00664             720.00     4720.00
00665             720.00     4720.00
00666             720.00     4760.00
00667             720.00     4760.00
00668             720.00     4760.00
00669             720.00     4760.00
00670             720.00     4760.00
00671             720.00     4760.00
00672             720.00     4800.00
00673             720.00     4760.00
00674             720.00     4800.00
00675             720.00     4800.00
00676             720.00     4800.00
00677             720.00     4840.00
00678             760.00     4840.00
00679             720.00     4880.00
00680             720.00     4840.00
00681             760.00     4880.00
00682             720.00     4840.00
00683             760.00     4880.00
00684             720.00     4880.00
00685             720.00     4880.00
00686             760.00     4880.00
00687             720.00     4880.00
00688             760.00     4920.00
00689             720.00     4880.00
00690             760.00     4880.00
00691             760.00     4920.00
00692             760.00     4920.00
00693             720.00     4920.00
00694             720.00     4920.00
00695             720.00     4920.00
00696             720.00     4920.00
00697             720.00     4920.00
00698             720.00     4920.00
00699             720.00     4920.00
00700             720.00     4960.00
00701             720.00     4920.00
00702             760.00     4960.00
00703             760.00     4920.00
00704             760.00     4920.00
00705             760.00     4960.00
00706             720.00     4960.00
00707             760.00     4960.00
00708             720.00     4960.00
00709             720.00     4960.00
00710             760.00     4960.00
00711             760.00     4960.00
00712             760.00     4960.00
00713             760.00     4960.00
00714             720.00     4960.00
00715             720.00     4960.00
00716             720.00     4960.00
00717             720.00     4960.00
00718             760.00     4960.00
00719             720.00     4960.00
00720             720.00     4960.00
00721             760.00     4960.00
00722             760.00     4960.00
00723             760.00     4960.00
00724             760.00     4960.00
00725             760.00     4960.00
00726             760.00     4960.00
00727             760.00     4960.00
00728             760.00     4960.00
00729             760.00     4960.00
00730             800.00     4960.00
00731             760.00     4960.00
00732             760.00     4960.00
00733             760.00     4960.00
00734             720.00     4960.00
00735             760.00     4920.00
00736             760.00     4920.00
00737             760.00     4920.00
00738             760.00     4920.00
00739             760.00     4920.00
00740             760.00     4920.00
00741             720.00     4920.00
00742             760.00     4920.00
00743             760.00     4880.00
00744             760.00     4920.00
00745             720.00     4880.00
00746             760.00     4880.00
00747             760.00     4880.00
00748             760.00     4880.00
00749             760.00     4880.00
00750             760.00     4880.00
00751             760.00     4880.00
00752             760.00     4880.00
00753             760.00     4880.00
00754             760.00     4880.00
00755             720.00     4800.00
00756             760.00     4840.00
00757             720.00     4800.00
00758             720.00     4800.00
00759             720.00     4800.00
00760             760.00     4800.00
00761             720.00     4800.00
00762             720.00     4800.00
00763             720.00     4760.00
00764             720.00     4760.00
00765             720.00     4800.00
00766             720.00     4760.00
00767             760.00     4720.00
00768             720.00     4720.00
00769             720.00     4720.00
00770             720.00     4720.00
00771             720.00     4720.00
00772             720.00     4680.00
00773             720.00     4720.00
00774             720.00     4680.00
00775             720.00     4640.00
00776             720.00     4640.00
00777             720.00     4640.00
00778             720.00     4600.00
00779             720.00     4640.00
00780             720.00     4640.00
00781             720.00     4600.00
00782             680.00     4600.00
00783             720.00     4600.00
00784             680.00     4560.00
00785             720.00     4520.00
00786             680.00     4560.00
00787             720.00     4480.00
00788             680.00     4480.00
00789             720.00     4480.00
00790             680.00     4480.00
00791             680.00     4480.00
00792             720.00     4440.00
00793             680.00     4440.00
00794             680.00     4440.00
00795             680.00     4400.00
00796             720.00     4400.00
00797             680.00     4400.00
00798             680.00     4360.00
00799             720.00     4360.00
00800             680.00     4360.00
00801             680.00     4320.00
00802             680.00     4320.00
00803             680.00     4320.00
00804             680.00     4280.00
00805             680.00     4280.00
00806             680.00     4240.00
00807             680.00     4240.00
00808             680.00     4240.00
00809             680.00     4240.00
00810             680.00     4200.00
00811             680.00     4200.00
00812             680.00     4160.00
00813             680.00     4120.00
00814             640.00     4160.00
00815             680.00     4120.00
00816             680.00     4120.00
00817             680.00     4040.00
00818             600.00     4080.00
00819             600.00     4000.00
00820             640.00     4000.00
00821             680.00     4000.00
00822             600.00     4000.00
00823             600.00     3960.00
00824             600.00     3920.00
00825             600.00     3920.00
00826             600.00     3920.00
00827             600.00     3880.00
00828             560.00     3840.00
00829             600.00     3840.00
00830             560.00     3800.00
00831             560.00     3800.00
00832             560.00     3800.00
00833             600.00     3760.00
00834             560.00     3760.00
00835             560.00     3760.00
00836             520.00     3680.00
00837             560.00     3680.00
00838             520.00     3680.00
00839             560.00     3640.00
00840             560.00     3640.00
00841             520.00     3600.00
00842             560.00     3600.00
00843             520.00     3560.00
00844             560.00     3520.00
00845             560.00     3520.00
00846             520.00     3480.00
00847             520.00     3440.00
00848             520.00     3440.00
00849             520.00     3440.00
00850             520.00     3400.00
00851             520.00     3360.00
00852             520.00     3360.00
00853             520.00     3320.00
00854             520.00     3320.00
00855             520.00     3280.00
00856             520.00     3280.00
00857             520.00     3280.00
00858             520.00     3240.00
00859             520.00     3160.00
00860             520.00     3160.00
00861             520.00     3160.00
00862             520.00     3160.00
00863             520.00     3120.00
00864             520.00     3080.00
00865             520.00     3040.00
00866             520.00     3040.00
00867             480.00     3000.00
00868             440.00     3000.00
00869             440.00     2960.00
00870             440.00     2960.00
00871             440.00     2880.00
00872             440.00     2920.00
00873             440.00     2840.00
00874             440.00     2840.00
00875             440.00     2800.00
00876             440.00     2800.00
00877             440.00     2720.00
00878             440.00     2720.00
00879             440.00     2680.00
00880             440.00     2680.00
00881             440.00     2640.00
00882             400.00     2640.00
00883             440.00     2600.00
00884             400.00     2560.00
00885             400.00     2560.00
00886             400.00     2520.00
00887             400.00     2480.00
00888             400.00     2480.00
00889             400.00     2400.00
00890             360.00     2400.00
00891             360.00     2400.00
00892             360.00     2400.00
00893             360.00     2320.00
00894             400.00     2320.00
00895             360.00     2280.00
00896             360.00     2240.00
00897             360.00     2240.00
00898             360.00     2200.00
00899             360.00     2160.00
00900             360.00     2160.00
00901             360.00     2080.00
00902             360.00     2080.00
00903             360.00     2040.00
00904             320.00     2040.00
00905             280.00     2000.00
00906             320.00     2000.00
00907             280.00     1920.00
00908             280.00     1920.00
00909             320.00     1880.00
00910             280.00     1840.00
00911             280.00     1840.00
00912             280.00     1760.00
00913             280.00     1760.00
00914             320.00     1760.00
00915             280.00     1720.00
00916             280.00     1680.00
00917             240.00     1680.00
00918             280.00     1600.00
00919             280.00     1640.00
00920             240.00     1600.00
00921             240.00     1560.00
00922             240.00     1520.00
00923             280.00     1520.00
00924             240.00     1440.00
00925             280.00     1400.00
00926             240.00     1400.00
00927             240.00     1400.00
00928             240.00     1360.00
00929             240.00     1320.00
00930             240.00     1280.00
00931             200.00     1280.00
00932             240.00     1240.00
00933             200.00     1200.00
00934             200.00     1200.00
00935             200.00     1200.00
00936             200.00     1080.00
00937             200.00     1080.00
00938             200.00     1040.00
00939             200.00     1040.00
00940             200.00      960.00
00941             160.00      960.00
00942             200.00      920.00
00943             160.00      920.00
00944             200.00      880.00
00945             160.00      840.00
00946             120.00      800.00
00947             120.00      800.00
00948             120.00      720.00
00949             120.00      720.00
00950             120.00      680.00
00951             120.00      640.00
00952             120.00      640.00
00953             120.00      600.00
00954             120.00      560.00
00955              80.00      520.00
00956              80.00      480.00
00957              80.00      440.00
00958              80.00      440.00
00959              80.00      400.00
00960              80.00      400.00
00961              80.00      360.00
00962              80.00      360.00
00963              80.00      280.00
00964              40.00      280.00
00965              40.00      240.00
00966              80.00      160.00
00967              40.00      160.00
00968              40.00      120.00
00969              40.00      120.00
00970              40.00       80.00
00971              40.00       40.00
00972              40.00       40.00
00973              40.00        0.00
00974              40.00      -40.00
00975               0.00      -80.00
00976             -40.00      -80.00
00977              40.00     -160.00
00978             -40.00     -160.00
00979               0.00     -200.00
00980             -40.00     -240.00
00981               0.00     -240.00
00982             -40.00     -280.00
00983               0.00     -280.00
00984             -40.00     -360.00
00985             -80.00     -480.00
00986            -120.00     -480.00
00987             -40.00     -400.00
00988              40.00     -480.00
00989             -80.00     -480.00
00990             -80.00     -480.00
00991             -40.00     -560.00
00992             -40.00     -640.00
00993            -120.00     -640.00
00994             -80.00     -640.00
00995             -40.00     -680.00
00996             -80.00     -720.00
00997            -120.00     -720.00
00998             -80.00     -800.00
00999             -80.00     -840.00
01000            -120.00     -840.00
01001            -120.00     -840.00
01002            -120.00     -880.00
01003            -120.00     -920.00
01004            -120.00     -960.00
01005            -120.00     -960.00
01006             -80.00    -1080.00
01007            -160.00    -1040.00
01008            -120.00    -1080.00
01009            -120.00    -1120.00
01010            -120.00    -1160.00
01011            -120.00    -1200.00
01012            -160.00    -1200.00
01013            -200.00    -1200.00
01014            -160.00    -1280.00
01015            -200.00    -1280.00
01016            -200.00    -1320.00
01017            -200.00    -1320.00
01018            -200.00    -1360.00
01019            -200.00    -1400.00
01020            -200.00    -1440.00
01021            -200.00    -1440.00
01022            -240.00    -1520.00
01023            -240.00    -1520.00
01024            -240.00    -1560.00
01025            -240.00    -1600.00
01026            -240.00    -1600.00
01027            -240.00    -1640.00
01028            -240.00    -1680.00
01029            -240.00    -1680.00
01030            -240.00    -1760.00
01031            -240.00    -1760.00
01032            -240.00    -1800.00
01033            -280.00    -1800.00
01034            -240.00    -1840.00
01035            -280.00    -1880.00
01036            -280.00    -1920.00
01037            -280.00    -1920.00
01038            -280.00    -1960.00
01039            -280.00    -2000.00
01040            -280.00    -2000.00
01041            -320.00    -2040.00
01042            -320.00    -2080.00
01043            -280.00    -2080.00
01044            -360.00    -2120.00
01045            -280.00    -2160.00
01046            -280.00    -2240.00
01047            -360.00    -2200.00
01048            -360.00    -2240.00
01049            -360.00    -2280.00
01050            -280.00    -2320.00
01051            -360.00    -2320.00
01052            -360.00    -2400.00
01053            -360.00    -2400.00
01054            -360.00    -2440.00
01055            -360.00    -2440.00
01056            -400.00    -2480.00
01057            -360.00    -2480.00
01058            -360.00    -2520.00
01059            -400.00    -2520.00
01060            -360.00    -2560.00
01061            -400.00    -2600.00
01062            -400.00    -2640.00
01063            -360.00    -2640.00
01064            -360.00    -2680.00
01065            -400.00    -2720.00
01066            -400.00    -2720.00
01067            -400.00    -2760.00
01068            -440.00    -2800.00
01069            -400.00    -2800.00
01070            -400.00    -2880.00
01071            -440.00    -2880.00
01072            -400.00    -2880.00
01073            -440.00    -2920.00
01074            -440.00    -2920.00
01075            -440.00    -2960.00
01076            -440.00    -2960.00
01077            -440.00    -3040.00
01078            -440.00    -3040.00
01079            -400.00    -3080.00
01080            -440.00    -3080.00
01081            -440.00    -3120.00
01082            -440.00    -3120.00
01083            -440.00    -3200.00
01084            -440.00    -3200.00
01085            -440.00    -3240.00
01086            -480.00    -3240.00
01087            -520.00    -3240.00
01088            -480.00    -3280.00
01089            -520.00    -3280.00
01090            -520.00    -3360.00
01091            -520.00    -3360.00
01092            -520.00    -3360.00
01093            -520.00    -3400.00
01094            -520.00    -3400.00
01095            -520.00    -3440.00
01096            -520.00    -3440.00
01097            -520.00    -3480.00
01098            -520.00    -3520.00
01099            -520.00    -3520.00
01100            -560.00    -3560.00
01101            -520.00    -3560.00
01102            -520.00    -3600.00
01103            -560.00    -3600.00
01104            -560.00    -3640.00
01105            -560.00    -3680.00
01106            -560.00    -3680.00
01107            -560.00    -3680.00
01108            -560.00    -3760.00
01109            -560.00    -3760.00
01110            -560.00    -3760.00
01111            -560.00    -3760.00
01112            -560.00    -3800.00
01113            -560.00    -3840.00
01114            -560.00    -3840.00
01115            -600.00    -3880.00
01116            -560.00    -3880.00
01117            -560.00    -3920.00
01118            -560.00    -3920.00
01119            -600.00    -3920.00
01120            -560.00    -3920.00
01121            -600.00    -4000.00
01122            -600.00    -4000.00
01123            -600.00    -4000.00
01124            -600.00    -4040.00
01125            -560.00    -4080.00
01126            -600.00    -4040.00
01127            -560.00    -4080.00
01128            -600.00    -4080.00
01129            -600.00    -4160.00
01130            -600.00    -4120.00
01131            -600.00    -4160.00
01132            -600.00    -4160.00
01133            -600.00    -4200.00
01134            -600.00    -4200.00
01135            -600.00    -4200.00
01136            -600.00    -4240.00
01137            -600.00    -4240.00
01138            -680.00    -4280.00
01139            -600.00    -4320.00
01140            -600.00    -4320.00
01141            -680.00    -4320.00
01142            -600.00    -4320.00
01143            -600.00    -4360.00
01144            -680.00    -4360.00
01145            -640.00    -4400.00
01146            -600.00    -4400.00
01147            -680.00    -4400.00
01148            -680.00    -4400.00
01149            -680.00    -4480.00
01150            -680.00    -4440.00
01151            -680.00    -4440.00
01152            -680.00    -4480.00
01153            -680.00    -4480.00
01154            -680.00    -4520.00
01155            -720.00    -4520.00
01156            -680.00    -4520.00
01157            -680.00    -4520.00
01158            -680.00    -4560.00
01159            -720.00    -4560.00
01160            -720.00    -4560.00
01161            -720.00    -4560.00
01162            -720.00    -4640.00
01163            -680.00    -4600.00
01164            -720.00    -4640.00
01165            -720.00    -4640.00
01166            -680.00    -4640.00
01167            -720.00    -4640.00
01168            -720.00    -4680.00
01169            -720.00    -4680.00
01170            -760.00    -4680.00
01171            -720.00    -4680.00
01172            -760.00    -4720.00
01173            -720.00    -4720.00
01174            -720.00    -4720.00
01175            -720.00    -4720.00
01176            -720.00    -4720.00
01177            -720.00    -4760.00
01178            -720.00    -4720.00
01179            -720.00    -4800.00
01180            -720.00    -4760.00
01181            -720.00    -4760.00
01182            -720.00    -4760.00
01183            -760.00    -4840.00
01184            -760.00    -4840.00
01185            -760.00    -4800.00
01186            -720.00    -4840.00
01187            -720.00    -4840.00
01188            -760.00    -4840.00
01189            -720.00    -4840.00
01190            -720.00    -4880.00
01191            -720.00    -4840.00
01192            -760.00    -4840.00
01193            -720.00    -4880.00
01194            -720.00    -4840.00
01195            -760.00    -4880.00
01196            -720.00    -4880.00
01197            -760.00    -4880.00
01198            -760.00    -4880.00
01199            -760.00    -4920.00
01200            -720.00    -4880.00
01201            -720.00    -4920.00
01202            -720.00    -4880.00
01203            -720.00    -4920.00
01204            -760.00    -4880.00
01205            -760.00    -4960.00
01206            -760.00    -4920.00
01207            -760.00    -4960.00
01208            -760.00    -4960.00
01209            -760.00    -4960.00
01210            -760.00    -4920.00
01211            -760.00    -4960.00
01212            -760.00    -4960.00
01213            -760.00    -4960.00
01214            -760.00    -4960.00
01215            -760.00    -4960.00
01216            -760.00    -4960.00
01217            -760.00    -4960.00
01218            -760.00    -4960.00
01219            -760.00    -4960.00
01220            -760.00    -5000.00
01221            -760.00    -4960.00
01222            -760.00    -4960.00
01223            -760.00    -5000.00
01224            -760.00    -4960.00
01225            -760.00    -4960.00
01226            -760.00    -4960.00
01227            -760.00    -4960.00
01228            -760.00    -4960.00
01229            -760.00    -5000.00
01230            -760.00    -4960.00
01231            -760.00    -4960.00
01232            -760.00    -4960.00
01233            -760.00    -4960.00
01234            -760.00    -5000.00
01235            -760.00    -4960.00
01236            -760.00    -4960.00
01237            -760.00    -4960.00
01238            -760.00    -4960.00
01239            -760.00    -4960.00
01240            -760.00    -4960.00
01241            -760.00    -4960.00
01242            -760.00    -4920.00
01243            -760.00    -4960.00
01244            -760.00    -4960.00
01245            -760.00    -4920.00
01246            -760.00    -4920.00
01247            -720.00    -4920.00
01248            -760.00    -4920.00
01249            -760.00    -4880.00
01250            -760.00    -4920.00
01251            -720.00    -4880.00
01252            -760.00    -4880.00
01253            -720.00    -4880.00
01254            -760.00    -4880.00
01255            -760.00    -4880.00
01256            -760.00    -4880.00
01257            -720.00    -4840.00
01258            -720.00    -4880.00
01259            -720.00    -4880.00
01260            -720.00    -4840.00
01261            -760.00    -4840.00
01262            -760.00    -4840.00
01263            -720.00    -4840.00
01264            -760.00    -4840.00
01265            -760.00    -4840.00
01266            -720.00    -4760.00
01267            -720.00    -4800.00
01268            -720.00    -4800.00
01269            -760.00    -4760.00
01270            -720.00    -4800.00
01271            -720.00    -4760.00
01272            -720.00    -4760.00
01273            -720.00    -4760.00
01274            -720.00    -4720.00
01275            -720.00    -4720.00
01276            -720.00    -4720.00
01277            -760.00    -4720.00
01278            -720.00    -4720.00
01279            -760.00    -4720.00
01280            -720.00    -4680.00
01281            -720.00    -4680.00
01282            -720.00    -4680.00
01283            -720.00    -4640.00
01284            -760.00    -4640.00
01285            -720.00    -4640.00
01286            -720.00    -4640.00
01287            -720.00    -4640.00
01288            -720.00    -4640.00
01289            -720.00    -4600.00
01290            -720.00    -4560.00
01291            -720.00    -4560.00
01292            -760.00    -4560.00
01293            -720.00    -4520.00
01294            -720.00    -4520.00
01295            -720.00    -4520.00
01296            -720.00    -4520.00
01297            -680.00    -4480.00
01298            -720.00    -4520.00
01299            -720.00    -4480.00
01300            -680.00    -4440.00
01301            -720.00    -4440.00
01302            -680.00    -4440.00
01303            -720.00    -4400.00
01304            -680.00    -4400.00
01305            -680.00    -4400.00
01306            -680.00    -4360.00
01307            -680.00    -4360.00
01308            -680.00    -4360.00
01309            -680.00    -4320.00
01310            -680.00    -4320.00
01311            -680.00    -4320.00
01312            -680.00    -4280.00
01313            -640.00    -4280.00
01314            -680.00    -4240.00
01315            -680.00    -4240.00
01316            -680.00    -4240.00
01317            -680.00    -4240.00
01318            -600.00    -4200.00
01319            -600.00    -4160.00
01320            -640.00    -4160.00
01321            -680.00    -4160.00
01322            -600.00    -4120.00
01323            -640.00    -4080.00
01324            -600.00    -4080.00
01325            -600.00    -4080.00
01326            -600.00    -4080.00
01327            -600.00    -4000.00
01328            -600.00    -4040.00
01329            -600.00    -4000.00
01330            -600.00    -4000.00
01331            -600.00    -4000.00
01332            -600.00    -3920.00
01333            -600.00    -3920.00
01334            -600.00    -3880.00
01335            -600.00    -3880.00
01336            -600.00    -3880.00
01337            -560.00    -3840.00
01338            -600.00    -3840.00
01339            -560.00    -3840.00
01340            -600.00    -3760.00
01341            -560.00    -3760.00
01342            -560.00    -3760.00
01343            -560.00    -3720.00
01344            -560.00    -3720.00
01345            -560.00    -3680.00
01346            -560.00    -3680.00
01347            -560.00    -3640.00
01348            -560.00    -3640.00
01349            -600.00    -3600.00
01350            -560.00    -3600.00
01351            -560.00    -3480.00
01352            -560.00    -3520.00
01353            -560.00    -3520.00
01354            -560.00    -3480.00
01355            -560.00    -3480.00
01356            -560.00    -3440.00
01357            -560.00    -3440.00
01358            -560.00    -3400.00
01359            -520.00    -3360.00
01360            -560.00    -3360.00
01361            -520.00    -3360.00
01362            -520.00    -3320.00
01363            -520.00    -3280.00
01364            -560.00    -3280.00
01365            -520.00    -3280.00
01366            -520.00    -3200.00
01367            -520.00    -3200.00
01368            -520.00    -3200.00
01369            -520.00    -3160.00
01370            -520.00    -3120.00
01371            -520.00    -3120.00
01372            -520.00    -3080.00
01373            -520.00    -3080.00
01374            -440.00    -3040.00
01375            -520.00    -3000.00
01376            -440.00    -3000.00
01377            -440.00    -2960.00
01378            -440.00    -2920.00
01379            -440.00    -2920.00
01380            -440.00    -2880.00
01381            -440.00    -2880.00
01382            -440.00    -2880.00
01383            -440.00    -2800.00
01384            -440.00    -2800.00
01385            -440.00    -2720.00
01386            -440.00    -2760.00
01387            -400.00    -2680.00
01388            -440.00    -2680.00
01389            -440.00    -2640.00
01390            -400.00    -2600.00
01391            -400.00    -2640.00
01392            -400.00    -2560.00
01393            -400.00    -2560.00
01394            -440.00    -2560.00
01395            -400.00    -2480.00
01396            -400.00    -2520.00
01397            -360.00    -2440.00
01398            -400.00    -2440.00
01399            -360.00    -2400.00
01400            -400.00    -2360.00
01401            -400.00    -2320.00
01402            -360.00    -2320.00
01403            -400.00    -2320.00
01404            -360.00    -2200.00
01405            -360.00    -2240.00
01406            -360.00    -2200.00
01407            -360.00    -2200.00
01408            -360.00    -2160.00
01409            -360.00    -2120.00
01410            -400.00    -2120.00
01411            -360.00    -2040.00
01412            -360.00    -2000.00
01413            -360.00    -2000.00
01414            -360.00    -2000.00
01415            -360.00    -1960.00
01416            -280.00    -1920.00
01417            -320.00    -1880.00
01418            -280.00    -1840.00
01419            -320.00    -1840.00
01420            -280.00    -1840.00
01421            -320.00    -1800.00
01422            -280.00    -1760.00
01423            -280.00    -1760.00
01424            -280.00    -1680.00
01425            -280.00    -1680.00
01426            -280.00    -1640.00
01427            -280.00    -1640.00
01428            -240.00    -1600.00
01429            -240.00    -1560.00
01430            -240.00    -1520.00
01431            -280.00    -1480.00
01432            -240.00    -1480.00
01433            -240.00    -1440.00
01434            -240.00    -1400.00
01435            -240.00    -1400.00
01436            -240.00    -1360.00
01437            -200.00    -1320.00
01438            -240.00    -1280.00
01439            -200.00    -1280.00
01440            -200.00    -1280.00
01441            -200.00    -1200.00
01442            -200.00    -1160.00
01443            -200.00    -1160.00
01444            -200.00    -1120.00
01445            -200.00    -1120.00
01446            -200.00    -1080.00
01447            -160.00    -1000.00
01448            -160.00    -1000.00
01449            -160.00     -960.00
01450            -120.00     -920.00
01451            -120.00     -920.00
01452            -120.00     -880.00
01453            -120.00     -840.00
01454            -120.00     -800.00
01455            -120.00     -800.00
01456            -120.00     -760.00
01457            -120.00     -720.00
01458            -120.00     -720.00
01459            -120.00     -680.00
01460            -120.00     -640.00
01461            -120.00     -640.00
01462             -80.00     -560.00
01463            -120.00     -560.00
01464            -120.00     -520.00
01465             -80.00     -480.00
01466             -80.00     -480.00
01467             -80.00     -440.00
01468             -80.00     -400.00
01469             -80.00     -400.00
01470             -80.00     -360.00
01471             -40.00     -320.00
01472             -80.00     -240.00
01473             -80.00     -240.00
01474             -40.00     -240.00
01475             -40.00     -200.00
01476             -40.00     -160.00
01477             -40.00     -160.00
01478             -40.00      -80.00
01479             -40.00      -80.00
01480             -40.00      -40.00
01481             -40.00        0.00
01482               0.00       40.00
01483             -40.00       80.00
01484               0.00       80.00
01485             -40.00      120.00
01486             -40.00      160.00
01487              40.00      160.00
01488              40.00      240.00
01489               0.00      240.00
01490              40.00      320.00
01491              40.00      400.00
01492              40.00      360.00
01493             -40.00      280.00
01494             -80.00      360.00
01495              40.00      440.00
01496              80.00      480.00
01497              40.00      520.00
01498              80.00      520.00
01499              80.00      560.00
01500              80.00      560.00
01501              40.00      600.00
01502              80.00      640.00
01503              80.00      680.00
01504              80.00      680.00
01505              80.00      720.00
01506              80.00      760.00
01507              80.00      800.00
01508              80.00      800.00
01509             120.00      880.00
01510             120.00      880.00
01511             120.00      920.00
01512             120.00      960.00
01513             120.00     1040.00
01514             120.00     1000.00
01515             120.00     1080.00
01516             160.00     1080.00
01517             160.00     1120.00
01518             120.00     1120.00
01519             200.00     1200.00
01520             200.00     1200.00
01521             200.00     1200.00
01522             120.00     1280.00
01523             200.00     1280.00
01524             200.00     1280.00
01525             200.00     1360.00
01526             200.00     1360.00
01527             200.00     1400.00
01528             240.00     1440.00
01529             200.00     1480.00
01530             200.00     1520.00
01531             240.00     1520.00
01532             200.00     1560.00
01533             240.00     1560.00
01534             240.00     1640.00
01535             240.00     1680.00
01536             240.00     1680.00
01537             200.00     1720.00
01538             240.00     1720.00
01539             240.00     1760.00
01540             240.00     1760.00
01541             280.00     1840.00
01542             240.00     1880.00
01543             280.00     1880.00
01544             240.00     1920.00
01545             240.00     1960.00
01546             280.00     1960.00
01547             280.00     2000.00
01548             280.00     2000.00
01549             280.00     2040.00
01550             280.00     2080.00
01551             280.00     2120.00
01552             280.00     2120.00
01553             280.00     2160.00
01554             280.00     2200.00
01555             280.00     2200.00
01556             280.00     2240.00
01557             360.00     2240.00
01558             320.00     2320.00
01559             360.00     2360.00
01560             360.00     2360.00
01561             320.00     2400.00
01562             360.00     2400.00
01563             360.00     2400.00
01564             360.00     2480.00
01565             360.00     2480.00
01566             360.00     2520.00
01567             360.00     2520.00
01568             360.00     2600.00
01569             400.00     2600.00
01570             400.00     2600.00
01571             400.00     2640.00
01572             400.00     2680.00
01573             400.00     2720.00
01574             400.00     2720.00
01575             400.00     2760.00
01576             400.00     2800.00
01577             400.00     2800.00
01578             400.00     2880.00
01579             400.00     2840.00
01580             400.00     2880.00
01581             400.00     2920.00
01582             440.00     2960.00
01583             440.00     3000.00
01584             440.00     2960.00
01585             440.00     3000.00
01586             440.00     3040.00
01587             440.00     3080.00
01588             480.00     3120.00
01589             440.00     3120.00
01590             440.00     3160.00
01591             480.00     3160.00
01592             480.00     3200.00
01593             440.00     3200.00
01594             520.00     3240.00
01595             520.00     3280.00
01596             520.00     3280.00
01597             520.00     3320.00
01598             520.00     3320.00
01599             520.00     3360.00
01600             520.00     3360.00
01601             520.00     3400.00
01602             520.00     3400.00
01603             520.00     3440.00
01604             520.00     3480.00
01605             520.00     3480.00
01606             520.00     3520.00
01607             520.00     3520.00
01608             520.00     3520.00
01609             520.00     3560.00
01610             520.00     3600.00
01611             520.00     3640.00
01612             520.00     3640.00
01613             560.00     3680.00
01614             520.00     3680.00
01615             520.00     3680.00
01616             520.00     3720.00
01617             560.00     3760.00
01618             560.00     3760.00
01619             520.00     3800.00
01620             560.00     3800.00
01621             560.00     3800.00
01622             560.00     3840.00
01623             560.00     3840.00
01624             560.00     3880.00
01625             560.00     3920.00
01626             560.00     3920.00
01627             560.00     3920.00
01628             560.00     3960.00
01629             600.00     3960.00
01630             560.00     4000.00
01631             560.00     4000.00
01632             600.00     4000.00
01633             600.00     4040.00
01634             560.00     4080.00
01635             640.00     4080.00
01636             600.00     4120.00
01637             600.00     4120.00
01638             600.00     4160.00
01639             640.00     4120.00
01640             600.00     4200.00
01641             600.00     4160.00
01642             600.00     4200.00
01643             640.00     4240.00
01644             680.00     4280.00
01645             640.00     4280.00
01646             680.00     4280.00
01647             640.00     4320.00
01648             680.00     4280.00
01649             680.00     4320.00
01650             680.00     4320.00
01651             680.00     4320.00
01652             680.00     4400.00
01653             680.00     4400.00
01654             680.00     4360.00
01655             680.00     4400.00
01656             680.00     4400.00
01657             720.00     4400.00
01658             680.00     4440.00
01659             680.00     4480.00
01660             680.00     4480.00
01661             720.00     4480.00
01662             680.00     4480.00
01663             720.00     4560.00
01664             680.00     4520.00
01665             680.00     4520.00
01666             680.00     4560.00
01667             720.00     4560.00
01668             720.00     4560.00
01669             680.00     4600.00
01670             680.00     4600.00
01671             720.00     4600.00
01672             720.00     4640.00
01673             720.00     4640.00
01674             680.00     4640.00
01675             720.00     4640.00
01676             720.00     4640.00
01677             680.00     4680.00
01678             680.00     4720.00
01679             720.00     4720.00
01680             680.00     4680.00
01681             720.00     4720.00
01682             720.00     4720.00
01683             720.00     4720.00
01684             680.00     4760.00
01685             720.00     4760.00
01686             720.00     4760.00
01687             680.00     4760.00
01688             720.00     4760.00
01689             720.00     4800.00
01690             720.00     4760.00
01691             720.00     4800.00
01692             720.00     4800.00
01693             720.00     4800.00
01694             720.00     4800.00
01695             720.00     4880.00
01696             720.00     4840.00
01697             720.00     4880.00
01698             720.00     4880.00
01699             720.00     4880.00
01700             760.00     4880.00
01701             720.00     4880.00
01702             760.00     4880.00
01703             720.00     4880.00
01704             720.00     4880.00
01705             720.00     4880.00
01706             720.00     4920.00
01707             760.00     4880.00
01708             760.00     4920.00
01709             760.00     4920.00
01710             760.00     4920.00
01711             760.00     4920.00
01712             720.00     4920.00
01713             760.00     4920.00
01714             760.00     4920.00
01715             720.00     4920.00
01716             760.00     4960.00
01717             720.00     4960.00
01718             840.00     4920.00
01719             760.00     4960.00
01720             760.00     4960.00
01721             760.00     4920.00
01722             720.00     4920.00
01723             760.00     4960.00
01724             760.00     4960.00
01725             760.00     4960.00
01726             760.00     4920.00
01727             760.00     4960.00
01728             760.00     4960.00
01729             760.00     4960.00
01730             760.00     4960.00
01731             720.00     4960.00
01732             760.00     4960.00
01733             760.00     4960.00
01734             760.00     4960.00
01735             720.00     4960.00
01736             760.00     4960.00
01737             720.00     4960.00
01738             720.00     4960.00
01739             760.00     4960.00
01740             760.00     4960.00
01741             720.00     4960.00
01742             720.00     4960.00
01743             720.00     4960.00
01744             720.00     4960.00
01745             720.00     4960.00
01746             760.00     4960.00
01747             760.00     4960.00
01748             720.00     4960.00
01749             720.00     4960.00
01750             760.00     4920.00
01751             720.00     4960.00
01752             720.00     4920.00
01753             720.00     4920.00
01754             760.00     4960.00
01755             720.00     4920.00
01756             720.00     4920.00
01757             720.00     4920.00
01758             720.00     4920.00
01759             720.00     4880.00
01760             760.00     4920.00
01761             720.00     4920.00
01762             720.00     4880.00
01763             760.00     4880.00
01764             760.00     4880.00
01765             720.00     4880.00
01766             720.00     4880.00
01767             720.00     4880.00
01768             760.00     4880.00
01769             720.00     4880.00
01770             720.00     4840.00
01771             720.00     4880.00
01772             720.00     4800.00
01773             720.00     4800.00
01774             720.00     4840.00
01775             760.00     4800.00
01776             760.00     4800.00
01777             720.00     4800.00
01778             720.00     4800.00
01779             720.00     4800.00
01780             720.00     4800.00
01781             720.00     4800.00
01782             720.00     4760.00
01783             720.00     4760.00
01784             720.00     4760.00
01785             720.00     4720.00
01786             720.00     4720.00
01787             720.00     4720.00
01788             720.00     4720.00
01789             720.00     4680.00
01790             720.00     4680.00
01791             720.00     4640.00
01792             720.00     4640.00
01793             720.00     4640.00
01794             720.00     4640.00
01795             720.00     4600.00
01796             720.00     4600.00
01797             720.00     4600.00
01798             720.00     4560.00
01799             680.00     4560.00
01800             720.00     4600.00
01801             680.00     4560.00
01802             720.00     4560.00
01803             680.00     4560.00
01804             680.00     4520.00
01805             720.00     4480.00
01806             680.00     4480.00
01807             720.00     4480.00
01808             680.00     4480.00
01809             680.00     4440.00
01810             680.00     4440.00
01811             680.00     4440.00
01812             680.00     4440.00
01813             680.00     4400.00
01814             680.00     4400.00
01815             680.00     4400.00
01816             680.00     4400.00
01817             680.00     4360.00
01818             680.00     4320.00
01819             680.00     4320.00
01820             680.00     4280.00
01821             680.00     4240.00
01822             680.00     4280.00
01823             680.00     4240.00
01824             640.00     4240.00
01825             680.00     4240.00
01826             680.00     4200.00
01827             680.00     4200.00
01828             640.00     4160.00
01829             680.00     4200.00
01830             680.00     4160.00
01831             680.00     4120.00
01832             640.00     4120.00
01833             680.00     4080.00
01834             640.00     4080.00
01835             640.00     4040.00
01836             680.00     4000.00
01837             600.00     4000.00
01838             640.00     3960.00
01839             600.00     4000.00
01840             640.00     3920.00
01841             600.00     3960.00
01842             600.00     3920.00
01843             680.00     3880.00
01844             600.00     3880.00
01845             680.00     3840.00
01846             560.00     3840.00
01847             600.00     3840.00
01848             600.00     3800.00
01849             600.00     3800.00
01850             600.00     3760.00
01851             600.00     3760.00
01852             560.00     3720.00
01853             560.00     3720.00
01854             560.00     3680.00
01855             600.00     3680.00
01856             560.00     3680.00
01857             560.00     3640.00
01858             560.00     3600.00
01859             560.00     3560.00
01860             560.00     3600.00
01861             560.00     3520.00
01862             560.00     3520.00
01863             560.00     3480.00
01864             560.00     3480.00
01865             560.00     3440.00
01866             560.00     3440.00
01867             520.00     3400.00
01868             520.00     3400.00
01869             520.00     3360.00
01870             520.00     3320.00
01871             520.00     3320.00
01872             520.00     3280.00
01873             520.00     3280.00
01874             520.00     3200.00
01875             520.00     3240.00
01876             520.00     3200.00
01877             520.00     3160.00
01878             520.00     3160.00
01879             520.00     3120.00
01880             480.00     3120.00
01881             480.00     3080.00
01882             480.00     3040.00
01883             520.00     3000.00
01884             440.00     3000.00
01885             440.00     2960.00
01886             440.00     2960.00
01887             480.00     2960.00
01888             440.00     2880.00
01889             480.00     2920.00
01890             440.00     2840.00
01891             400.00     2840.00
01892             440.00     2800.00
01893             400.00     2800.00
01894             440.00     2760.00
01895             400.00     2720.00
01896             400.00     2680.00
01897             400.00     2680.00
01898             400.00     2640.00
01899             400.00     2600.00
01900             400.00     2640.00
01901             400.00     2560.00
01902             400.00     2560.00
01903             400.00     2520.00
01904             400.00     2480.00
01905             400.00     2480.00
01906             400.00     2440.00
01907             400.00     2400.00
01908             400.00     2400.00
01909             400.00     2360.00
01910             360.00     2320.00
01911             400.00     2320.00
01912             400.00     2240.00
01913             360.00     2240.00
01914             360.00     2240.00
01915             360.00     2200.00
01916             360.00     2160.00
01917             360.00     2160.00
01918             360.00     2120.00
01919             360.00     2080.00
01920             360.00     2040.00
01921             360.00     2000.00
01922             320.00     2000.00
01923             320.00     2000.00
01924             360.00     1960.00
01925             320.00     1920.00
01926             280.00     1920.00
01927             280.00     1840.00
01928             360.00     1840.00
01929             320.00     1760.00
01930             280.00     1760.00
01931             240.00     1760.00
01932             280.00     1720.00
01933             240.00     1720.00
01934             280.00     1680.00
01935             240.00     1640.00
01936             240.00     1600.00
01937             240.00     1600.00
01938             240.00     1560.00
01939             240.00     1520.00
01940             240.00     1520.00
01941             240.00     1440.00
01942             240.00     1440.00
01943             200.00     1400.00
01944             200.00     1360.00
01945             240.00     1320.00
01946             200.00     1320.00
01947             200.00     1280.00
01948             200.00     1240.00
01949             200.00     1240.00
01950             200.00     1200.00
01951             160.00     1200.00
01952             160.00     1120.00
01953             200.00     1120.00
01954             200.00     1080.00
01955             200.00     1040.00
01956             160.00     1040.00
01957             200.00      960.00
01958             120.00      960.00
01959             160.00      920.00
01960             120.00      880.00
01961             160.00      880.00
01962             120.00      800.00
01963             160.00      800.00
01964             120.00      760.00
01965             120.00      760.00
01966             120.00      720.00
01967              80.00      680.00
01968             120.00      680.00
01969             120.00      640.00
01970             120.00      600.00
01971             120.00      560.00
01972              80.00      560.00
01973              80.00      560.00
01974              80.00      480.00
01975             120.00      440.00
01976              80.00      400.00
01977              80.00      400.00
01978              80.00      360.00
01979              80.00      320.00
01980              80.00      320.00
01981              80.00      280.00
01982              80.00      240.00
01983              80.00      200.00
01984              40.00      160.00
01985              40.00      120.00
01986              40.00      120.00
01987              40.00       80.00
01988              40.00       80.00
01989              40.00        0.00
01990              40.00      -40.00
01991              40.00      -40.00
01992              40.00      -80.00
01993               0.00      -80.00
01994              40.00     -160.00
01995               0.00     -160.00
01996              40.00     -200.00
01997               0.00     -200.00
01998              40.00     -240.00
01999               0.00     -240.00
02000              40.00     -320.00
02001             -40.00     -360.00
02002             -80.00     -400.00
02003            -120.00     -440.00
02004             -40.00     -360.00
02005               0.00     -480.00
02006            -120.00     -520.00
02007             -40.00     -520.00
02008             -80.00     -520.00
02009             -80.00     -640.00
02010            -120.00     -680.00
02011             -80.00     -640.00
02012             -80.00     -680.00
02013            -120.00     -720.00
02014            -120.00     -760.00
02015            -120.00     -800.00
02016            -120.00     -840.00
02017            -120.00     -840.00
02018             -80.00     -840.00
02019            -120.00     -920.00
02020            -120.00     -920.00
02021            -120.00     -960.00
02022            -120.00    -1000.00
02023            -120.00    -1040.00
02024            -120.00    -1040.00
02025            -120.00    -1080.00
02026            -120.00    -1120.00
02027            -120.00    -1160.00
02028            -120.00    -1160.00
02029            -120.00    -1200.00
02030            -160.00    -1240.00
02031            -200.00    -1280.00
02032            -120.00    -1280.00
02033            -200.00    -1320.00
02034            -200.00    -1360.00
02035            -200.00    -1400.00
02036            -200.00    -1440.00
02037            -200.00    -1440.00
02038            -240.00    -1480.00
02039            -240.00    -1480.00
02040            -200.00    -1520.00
02041            -200.00    -1600.00
02042            -240.00    -1600.00
02043            -240.00    -1640.00
02044            -200.00    -1640.00
02045            -240.00    -1680.00
02046            -240.00    -1720.00
02047            -240.00    -1760.00
02048            -240.00    -1800.00
02049            -240.00    -1800.00
02050            -240.00    -1840.00
02051            -240.00    -1880.00
02052            -240.00    -1880.00
02053            -240.00    -1920.00
02054            -240.00    -1960.00
02055            -280.00    -1960.00
02056            -280.00    -2000.00
02057            -280.00    -2080.00
02058            -280.00    -2080.00
02059            -280.00    -2080.00
02060            -280.00    -2120.00
02061            -320.00    -2160.00
02062            -320.00    -2160.00
02063            -320.00    -2160.00
02064            -360.00    -2240.00
02065            -360.00    -2200.00
02066            -320.00    -2280.00
02067            -360.00    -2320.00
02068            -360.00    -2320.00
02069            -360.00    -2400.00
02070            -360.00    -2400.00
02071            -360.00    -2440.00
02072            -360.00    -2440.00
02073            -400.00    -2440.00
02074            -400.00    -2480.00
02075            -400.00    -2560.00
02076            -400.00    -2560.00
02077            -400.00    -2600.00
02078            -400.00    -2600.00
02079            -400.00    -2640.00
02080            -400.00    -2640.00
02081            -400.00    -2680.00
02082            -400.00    -2720.00
02083            -400.00    -2720.00
02084            -400.00    -2760.00
02085            -440.00    -2800.00
02086            -440.00    -2840.00
02087            -440.00    -2840.00
02088            -400.00    -2880.00
02089            -440.00    -2880.00
02090            -440.00    -2920.00
02091            -440.00    -2920.00
02092            -440.00    -2960.00
02093            -440.00    -3000.00
02094            -400.00    -3040.00
02095            -440.00    -3040.00
02096            -440.00    -3080.00
02097            -440.00    -3080.00
02098            -480.00    -3120.00
02099            -440.00    -3120.00
02100            -440.00    -3160.00
02101            -440.00    -3200.00
02102            -440.00    -3240.00
02103            -440.00    -3240.00
02104            -520.00    -3240.00
02105            -440.00    -3280.00
02106            -440.00    -3320.00
02107            -480.00    -3360.00
02108            -520.00    -3360.00
02109            -480.00    -3360.00
02110            -480.00    -3400.00
02111            -520.00    -3400.00
02112            -520.00    -3440.00
02113            -520.00    -3440.00
02114            -520.00    -3440.00
02115            -520.00    -3520.00
02116            -520.00    -3520.00
02117            -520.00    -3560.00
02118            -520.00    -3560.00
02119            -520.00    -3560.00
02120            -560.00    -3600.00
02121            -560.00    -3680.00
02122            -560.00    -3680.00
02123            -560.00    -3680.00
02124            -560.00    -3680.00
02125            -560.00    -3720.00
02126            -560.00    -3760.00
02127            -560.00    -3760.00
02128            -560.00    -3800.00
02129            -560.00    -3800.00
02130            -560.00    -3800.00
02131            -600.00    -3840.00
02132            -560.00    -3840.00
02133            -600.00    -3920.00
02134            -600.00    -3880.00
02135            -600.00    -3920.00
02136            -600.00    -3920.00
02137            -600.00    -3960.00
02138            -600.00    -3960.00
02139            -560.00    -4000.00
02140            -600.00    -4000.00
02141            -600.00    -4040.00
02142            -600.00    -4040.00
02143            -600.00    -4080.00
02144            -640.00    -4080.00
02145            -600.00    -4080.00
02146            -600.00    -4120.00
02147            -600.00    -4160.00
02148            -600.00    -4160.00
02149            -640.00    -4160.00
02150            -600.00    -4160.00
02151            -640.00    -4200.00
02152            -640.00    -4240.00
02153            -680.00    -4240.00
02154            -600.00    -4240.00
02155            -680.00    -4280.00
02156            -680.00    -4280.00
02157            -640.00    -4320.00
02158            -600.00    -4320.00
02159            -640.00    -4320.00
02160            -640.00    -4360.00
02161            -680.00    -4360.00
02162            -600.00    -4400.00
02163            -680.00    -4400.00
02164            -680.00    -4400.00
02165            -680.00    -4400.00
02166            -680.00    -4440.00
02167            -680.00    -4440.00
02168            -680.00    -4480.00
02169            -720.00    -4480.00
02170            -600.00    -4480.00
02171            -680.00    -4520.00
02172            -680.00    -4520.00
02173            -680.00    -4520.00
02174            -680.00    -4520.00
02175            -680.00    -4520.00
02176            -680.00    -4560.00
02177            -720.00    -4560.00
02178            -720.00    -4560.00
02179            -680.00    -4560.00
02180            -680.00    -4600.00
02181            -680.00    -4640.00
02182            -680.00    -4640.00
02183            -720.00    -4640.00
02184            -680.00    -4680.00
02185            -720.00    -4680.00
02186            -720.00    -4680.00
02187            -720.00    -4680.00
02188            -720.00    -4680.00
02189            -720.00    -4720.00
02190            -720.00    -4720.00
02191            -720.00    -4720.00
02192            -720.00    -4720.00
02193            -720.00    -4760.00
02194            -720.00    -4720.00
02195            -760.00    -4760.00
02196            -720.00    -4720.00
02197            -720.00    -4800.00
02198            -760.00    -4760.00
02199            -760.00    -4800.00
02200            -720.00    -4840.00
02201            -760.00    -4800.00
02202            -720.00    -4800.00
02203            -760.00    -4800.00
02204            -760.00    -4840.00
02205            -760.00    -4840.00
02206            -760.00    -4840.00
02207            -760.00    -4840.00
02208            -760.00    -4880.00
02209            -760.00    -4840.00
02210            -760.00    -4880.00
02211            -720.00    -4880.00
02212            -760.00    -4880.00
02213            -760.00    -4880.00
02214            -760.00    -4880.00
02215            -760.00    -4880.00
02216            -720.00    -4880.00
02217            -760.00    -4880.00
02218            -760.00    -4920.00
02219            -760.00    -4920.00
02220            -760.00    -4920.00
02221            -760.00    -4920.00
02222            -760.00    -4960.00
02223            -760.00    -4880.00
02224            -760.00    -4960.00
02225            -760.00    -4960.00
02226            -760.00    -4920.00
02227            -760.00    -4960.00
02228            -760.00    -4960.00
02229            -760.00    -4960.00
02230            -760.00    -4960.00
02231            -760.00    -4960.00
02232            -760.00    -5000.00
02233            -720.00    -4960.00
02234            -760.00    -4960.00
02235            -720.00    -4960.00
02236            -760.00    -4960.00
02237            -760.00    -4960.00
02238            -760.00    -4960.00
02239            -760.00    -4960.00
02240            -760.00    -5000.00
02241            -760.00    -4960.00
02242            -760.00    -4960.00
02243            -760.00    -4960.00
02244            -760.00    -4960.00
02245            -720.00    -4960.00
02246            -760.00    -4960.00
02247            -760.00    -4960.00
02248            -760.00    -4960.00
02249            -760.00    -4960.00
02250            -760.00    -4960.00
02251            -760.00    -4960.00
02252            -760.00    -4960.00
02253            -720.00    -4960.00
02254            -760.00    -4920.00
02255            -760.00    -4960.00
02256            -760.00    -4920.00
02257            -760.00    -4960.00
02258            -760.00    -4960.00
02259            -760.00    -4920.00
02260            -760.00    -4960.00
02261            -760.00    -4920.00
02262            -760.00    -4960.00
02263            -760.00    -4880.00
02264            -800.00    -4960.00
02265            -760.00    -4880.00
02266            -760.00    -4880.00
02267            -760.00    -4920.00
02268            -760.00    -4880.00
02269            -760.00    -4920.00
02270            -760.00    -4880.00
02271            -760.00    -4880.00
02272            -760.00    -4880.00
02273            -760.00    -4880.00
02274            -760.00    -4880.00
02275            -760.00    -4840.00
02276            -760.00    -4840.00
02277            -760.00    -4880.00
02278            -760.00    -4840.00
02279            -720.00    -4840.00
02280            -760.00    -4840.00
02281            -760.00    -4840.00
02282            -760.00    -4760.00
02283            -760.00    -4800.00
02284            -760.00    -4760.00
02285            -760.00    -4800.00
02286            -760.00    -4760.00
02287            -760.00    -4760.00
02288            -720.00    -4760.00
02289            -760.00    -4760.00
02290            -720.00    -4760.00
02291            -720.00    -4720.00
02292            -760.00    -4720.00
02293            -720.00    -4720.00
02294            -720.00    -4720.00
02295            -720.00    -4720.00
02296            -760.00    -4680.00
02297            -760.00    -4680.00
02298            -720.00    -4680.00
02299            -720.00    -4680.00
02300            -720.00    -4640.00
02301            -680.00    -4640.00
02302            -720.00    -4640.00
02303            -720.00    -4640.00
02304            -720.00    -4640.00
02305            -720.00    -4600.00
02306            -720.00    -4600.00
02307            -680.00    -4560.00
02308            -680.00    -4560.00
02309            -680.00    -4560.00
02310            -680.00    -4560.00
02311            -720.00    -4520.00
02312            -720.00    -4520.00
02313            -720.00    -4520.00
02314            -680.00    -4520.00
02315            -720.00    -4480.00
02316            -680.00    -4480.00
02317            -680.00    -4480.00
02318            -680.00    -4400.00
02319            -680.00    -4480.00
02320            -720.00    -4440.00
02321            -680.00    -4400.00
02322            -680.00    -4400.00
02323            -680.00    -4360.00
02324            -680.00    -4360.00
02325            -680.00    -4360.00
02326            -680.00    -4320.00
02327            -640.00    -4320.00
02328            -680.00    -4320.00
02329            -680.00    -4320.00
02330            -680.00    -4280.00
02331            -680.00    -4240.00
02332            -680.00    -4240.00
02333            -680.00    -4240.00
02334            -680.00    -4200.00
02335            -680.00    -4200.00
02336            -680.00    -4200.00
02337            -600.00    -4160.00
02338            -680.00    -4160.00
02339            -680.00    -4080.00
02340            -680.00    -4080.00
02341            -640.00    -4080.00
02342            -640.00    -4080.00
02343            -680.00    -4040.00
02344            -680.00    -4040.00
02345            -600.00    -4000.00
02346            -640.00    -4000.00
02347            -600.00    -4000.00
02348            -600.00    -3920.00
02349            -600.00    -3960.00
02350            -600.00    -3920.00
02351            -600.00    -3880.00
02352            -600.00    -3880.00
02353            -600.00    -3880.00
02354            -600.00    -3880.00
02355            -600.00    -3840.00
02356            -600.00    -3800.00
02357            -600.00    -3760.00
02358            -600.00    -3760.00
02359            -600.00    -3760.00
02360            -600.00    -3760.00
02361            -560.00    -3720.00
02362            -560.00    -3680.00
02363            -600.00    -3680.00
02364            -560.00    -3680.00
02365            -560.00    -3640.00
02366            -560.00    -3600.00
02367            -560.00    -3600.00
02368            -560.00    -3560.00
02369            -560.00    -3560.00
02370            -560.00    -3520.00
02371            -560.00    -3480.00
02372            -560.00    -3440.00
02373            -520.00    -3440.00
02374            -560.00    -3440.00
02375            -560.00    -3400.00
02376            -560.00    -3360.00
02377            -520.00    -3360.00
02378            -520.00    -3360.00
02379            -520.00    -3320.00
02380            -520.00    -3280.00
02381            -520.00    -3280.00
02382            -520.00    -3240.00
02383            -520.00    -3200.00
02384            -480.00    -3240.00
02385            -520.00    -3160.00
02386            -440.00    -3160.00
02387            -520.00    -3120.00
02388            -480.00    -3120.00
02389            -520.00    -3080.00
02390            -440.00    -3040.00
02391            -440.00    -3040.00
02392            -480.00    -3000.00
02393            -440.00    -2960.00
02394            -440.00    -2960.00
02395            -440.00    -2960.00
02396            -440.00    -2920.00
02397            -440.00    -2880.00
02398            -440.00    -2880.00
02399            -440.00    -2800.00
02400            -440.00    -2800.00
02401            -440.00    -2800.00
02402            -440.00    -2760.00
02403            -440.00    -2720.00
02404            -440.00    -2720.00
02405            -440.00    -2640.00
02406            -440.00    -2640.00
02407            -440.00    -2640.00
02408            -440.00    -2600.00
02409            -400.00    -2600.00
02410            -440.00    -2520.00
02411            -400.00    -2560.00
02412            -400.00    -2480.00
02413            -440.00    -2480.00
02414            -400.00    -2480.00
02415            -400.00    -2440.00
02416            -400.00    -2400.00
02417            -400.00    -2360.00
02418            -400.00    -2360.00
02419            -400.00    -2320.00
02420            -400.00    -2280.00
02421            -360.00    -2280.00
02422            -360.00    -2200.00
02423            -360.00    -2160.00
02424            -360.00    -2160.00
02425            -360.00    -2160.00
02426            -360.00    -2120.00
02427            -360.00    -2080.00
02428            -360.00    -2080.00
02429            -280.00    -2000.00
02430            -360.00    -2000.00
02431            -320.00    -1960.00
02432            -320.00    -1960.00
02433            -280.00    -1920.00
02434            -280.00    -1920.00
02435            -320.00    -1840.00
02436            -280.00    -1840.00
02437            -280.00    -1840.00
02438            -320.00    -1760.00
02439            -240.00    -1760.00
02440            -280.00    -1680.00
02441            -280.00    -1680.00
02442            -240.00    -1680.00
02443            -240.00    -1640.00
02444            -240.00    -1600.00
02445            -240.00    -1600.00
02446            -240.00    -1560.00
02447            -240.00    -1520.00
02448            -240.00    -1480.00
02449            -240.00    -1480.00
02450            -240.00    -1440.00
02451            -240.00    -1400.00
02452            -240.00    -1400.00
02453            -240.00    -1320.00
02454            -240.00    -1320.00
02455            -240.00    -1320.00
02456            -240.00    -1280.00
02457            -200.00    -1240.00
02458            -240.00    -1200.00
02459            -200.00    -1160.00
02460            -200.00    -1160.00
02461            -240.00    -1120.00
02462            -200.00    -1120.00
02463            -200.00    -1040.00
02464            -200.00    -1040.00
02465            -200.00    -1000.00
02466            -200.00     -920.00
02467            -200.00     -920.00
02468            -160.00     -880.00
02469            -200.00     -880.00
02470            -120.00     -840.00
02471            -160.00     -800.00
02472            -120.00     -800.00
02473            -120.00     -800.00
02474            -160.00     -720.00
02475            -120.00     -720.00
02476            -120.00     -680.00
02477            -120.00     -640.00
02478            -120.00     -600.00
02479            -120.00     -560.00
02480            -120.00     -560.00
02481            -120.00     -520.00
02482             -80.00     -480.00
02483             -80.00     -480.00
02484            -120.00     -400.00
02485             -80.00     -400.00
02486             -80.00     -360.00
02487             -80.00     -320.00
02488            -120.00     -320.00
02489             -80.00     -320.00
02490             -80.00     -240.00
02491             -40.00     -240.00
02492             -80.00     -160.00
02493             -80.00     -160.00
02494             -40.00     -120.00
02495             -40.00     -120.00
02496             -40.00      -40.00
02497               0.00      -40.00
02498             -40.00        0.00
02499               0.00       40.00
02500             -40.00       80.00
02501              40.00       80.00
02502               0.00      120.00
02503              40.00      160.00
02504              40.00      160.00
02505              40.00      240.00
02506              40.00      240.00
02507              40.00      280.00
02508              80.00      360.00
02509              40.00      360.00
02510               0.00      280.00
02511             -40.00      400.00
02512              40.00      440.00
02513              80.00      480.00
02514              80.00      480.00
02515              80.00      560.00
02516              80.00      560.00
02517              80.00      560.00
02518              80.00      600.00
02519              80.00      640.00
02520             120.00      720.00
02521              80.00      720.00
02522              80.00      720.00
02523             120.00      800.00
02524              80.00      800.00
02525              80.00      880.00
02526              80.00      880.00
02527             120.00      920.00
02528              80.00      880.00
02529              80.00      960.00
02530             120.00      960.00
02531             160.00     1040.00
02532             120.00     1080.00
02533             120.00     1080.00
02534             120.00     1120.00
02535             120.00     1120.00
02536             200.00     1200.00
02537             200.00     1240.00
02538             160.00     1240.00
02539             160.00     1240.00
02540             160.00     1280.00
02541             200.00     1280.00
02542             200.00     1360.00
02543             200.00     1360.00
02544             200.00     1400.00
02545             200.00     1400.00
02546             240.00     1480.00
02547             240.00     1520.00
02548             200.00     1520.00
02549             240.00     1560.00
02550             200.00     1560.00
02551             240.00     1640.00
02552             240.00     1680.00
02553             240.00     1680.00
02554             240.00     1720.00
02555             240.00     1760.00
02556             240.00     1760.00
02557             240.00     1800.00
02558             280.00     1840.00
02559             280.00     1840.00
02560             240.00     1880.00
02561             280.00     1920.00
02562             280.00     1920.00
02563             280.00     1960.00
02564             280.00     2000.00
02565             280.00     2040.00
02566             320.00     2040.00
02567             280.00     2080.00
02568             360.00     2080.00
02569             360.00     2160.00
02570             280.00     2160.00
02571             320.00     2200.00
02572             360.00     2240.00
02573             360.00     2240.00
02574             360.00     2240.00
02575             360.00     2320.00
02576             360.00     2360.00
02577             360.00     2360.00
02578             360.00     2360.00
02579             360.00     2400.00
02580             360.00     2440.00
02581             400.00     2480.00
02582             360.00     2480.00
02583             360.00     2520.00
02584             360.00     2560.00
02585             360.00     2560.00
02586             360.00     2600.00
02587             400.00     2640.00
02588             400.00     2640.00
02589             360.00     2680.00
02590             400.00     2720.00
02591             400.00     2720.00
02592             400.00     2760.00
02593             400.00     2760.00
02594             400.00     2800.00
02595             400.00     2840.00
02596             400.00     2880.00
02597             440.00     2920.00
02598             400.00     2920.00
02599             400.00     2920.00
02600             400.00     2960.00
02601             440.00     2960.00
02602             440.00     3000.00
02603             440.00     3040.00
02604             440.00     3040.00
02605             440.00     3080.00
02606             440.00     3120.00
02607             440.00     3120.00
02608             440.00     3160.00
02609             440.00     3200.00
02610             520.00     3200.00
02611             480.00     3200.00
02612             440.00     3240.00
02613             520.00     3280.00
02614             520.00     3320.00
02615             520.00     3320.00
02616             480.00     3360.00
02617             520.00     3360.00
02618             440.00     3440.00
02619             520.00     3400.00
02620             520.00     3480.00
02621             480.00     3480.00
02622             560.00     3480.00
02623             520.00     3520.00
02624             520.00     3520.00
02625             520.00     3520.00
02626             560.00     3520.00
02627             520.00     3600.00
02628             520.00     3600.00
02629             560.00     3640.00
02630             560.00     3640.00
02631             560.00     3680.00
02632             520.00     3720.00
02633             560.00     3720.00
02634             560.00     3760.00
02635             560.00     3760.00
02636             560.00     3800.00
02637             560.00     3800.00
02638             560.00     3840.00
02639             560.00     3840.00
02640             600.00     3840.00
02641             560.00     3880.00
02642             600.00     3920.00
02643             560.00     3920.00
02644             600.00     3920.00
02645             560.00     3920.00
02646             600.00     3960.00
02647             600.00     4000.00
02648             560.00     4000.00
02649             640.00     4040.00
02650             600.00     4040.00
02651             600.00     4080.00
02652             600.00     4080.00
02653             560.00     4120.00
02654             640.00     4120.00
02655             600.00     4120.00
02656             600.00     4120.00
02657             600.00     4200.00
02658             600.00     4200.00
02659             600.00     4240.00
02660             600.00     4240.00
02661             600.00     4240.00
02662             600.00     4240.00
02663             680.00     4280.00
02664             640.00     4280.00
02665             600.00     4280.00
02666             640.00     4320.00
02667             600.00     4320.00
02668             680.00     4320.00
02669             600.00     4320.00
02670             680.00     4400.00
02671             640.00     4400.00
02672             680.00     4400.00
02673             600.00     4440.00
02674             680.00     4440.00
02675             680.00     4440.00
02676             680.00     4480.00
02677             680.00     4480.00
02678             680.00     4480.00
02679             680.00     4480.00
02680             680.00     4520.00
02681             680.00     4560.00
02682             680.00     4560.00
02683             720.00     4560.00
02684             680.00     4560.00
02685             680.00     4560.00
02686             720.00     4560.00
02687             720.00     4600.00
02688             720.00     4600.00
02689             720.00     4640.00
02690             680.00     4640.00
02691             720.00     4640.00
02692             720.00     4680.00
02693             720.00     4640.00
02694             720.00     4680.00
02695             720.00     4720.00
02696             720.00     4720.00
02697             720.00     4720.00
02698             720.00     4720.00
02699             720.00     4760.00
02700             720.00     4760.00
02701             720.00     4760.00
02702             720.00     4760.00
02703             720.00     4760.00
02704             720.00     4760.00
02705             720.00     4800.00
02706             720.00     4800.00
02707             720.00     4760.00
02708             720.00     4800.00
02709             760.00     4800.00
02710             720.00     4800.00
02711             720.00     4800.00
02712             720.00     4800.00
02713             720.00     4840.00
02714             760.00     4840.00
02715             720.00     4880.00
02716             720.00     4880.00
02717             760.00     4880.00
02718             720.00     4880.00
02719             760.00     4880.00
02720             720.00     4880.00
02721             720.00     4880.00
02722             720.00     4880.00
02723             720.00     4880.00
02724             760.00     4920.00
02725             720.00     4880.00
02726             760.00     4920.00
02727             720.00     4920.00
02728             720.00     4920.00
02729             720.00     4920.00
02730             760.00     4920.00
02731             720.00     4920.00
02732             760.00     4920.00
02733             720.00     4920.00
02734             720.00     4920.00
02735             760.00     4920.00
02736             720.00     4960.00
02737             760.00     4920.00
02738             760.00     4920.00
02739             760.00     4960.00
02740             720.00     4920.00
02741             760.00     4920.00
02742             760.00     4960.00
02743             760.00     4960.00
02744             760.00     4960.00
02745             760.00     4960.00
02746             760.00     4960.00
02747             760.00     4960.00
02748             720.00     4960.00
02749             760.00     4960.00
02750             760.00     4960.00
02751             760.00     4960.00
02752             760.00     4960.00
02753             760.00     4960.00
02754             760.00     4960.00
02755             760.00     4960.00
02756             760.00     4960.00
02757             760.00     4960.00
02758             760.00     4960.00
02759             760.00     4960.00
02760             760.00     4960.00
02761             760.00     4960.00
02762             760.00     4960.00
02763             760.00     4960.00
02764             760.00     4920.00
02765             760.00     4960.00
02766             760.00     4960.00
02767             760.00     4960.00
02768             760.00     4920.00
02769             760.00     4920.00
02770             760.00     4960.00
02771             720.00     4920.00
02772             760.00     4920.00
02773             760.00     4920.00
02774             760.00     4920.00
02775             760.00     4920.00
02776             720.00     4920.00
02777             760.00     4920.00
02778             760.00     4920.00
02779             760.00     4880.00
02780             760.00     4880.00
02781             720.00     4880.00
02782             760.00     4880.00
02783             760.00     4880.00
02784             720.00     4880.00
02785             720.00     4880.00
02786             760.00     4880.00
02787             720.00     4880.00
02788             720.00     4880.00
02789             760.00     4840.00
02790             720.00     4800.00
02791             760.00     4800.00
02792             720.00     4800.00
02793             720.00     4800.00
02794             720.00     4800.00
02795             720.00     4760.00
02796             720.00     4760.00
02797             720.00     4800.00
02798             720.00     4760.00
02799             720.00     4720.00
02800             720.00     4720.00
02801             720.00     4720.00
02802             720.00     4720.00
02803             720.00     4720.00
02804             720.00     4720.00
02805             720.00     4720.00
02806             720.00     4720.00
02807             720.00     4680.00
02808             720.00     4680.00
02809             720.00     4640.00
02810             720.00     4640.00
02811             720.00     4640.00
02812             720.00     4600.00
02813             720.00     4600.00
02814             720.00     4600.00
02815             720.00     4560.00
02816             720.00     4560.00
02817             720.00     4560.00
02818             680.00     4560.00
02819             720.00     4560.00
02820             720.00     4560.00
02821             720.00     4520.00
02822             720.00     4480.00
02823             680.00     4480.00
02824             680.00     4480.00
02825             680.00     4440.00
02826             680.00     4440.00
02827             720.00     4440.00
02828             680.00     4440.00
02829             720.00     4400.00
02830             720.00     4400.00
02831             680.00     4400.00
02832             680.00     4400.00
02833             720.00     4360.00
02834             720.00     4360.00
02835             680.00     4320.00
02836             680.00     4320.00
02837             680.00     4280.00
02838             680.00     4320.00
02839             680.00     4280.00
02840             680.00     4240.00
02841             680.00     4240.00
02842             680.00     4240.00
02843             680.00     4200.00
02844             680.00     4200.00
02845             640.00     4160.00
02846             680.00     4120.00
02847             640.00     4120.00
02848             600.00     4120.00
02849             600.00     4120.00
02850             600.00     4080.00
02851             600.00     4080.00
02852             640.00     4040.00
02853             640.00     4000.00
02854             640.00     4000.00
02855             600.00     4000.00
02856             600.00     3960.00
02857             600.00     3960.00
02858             600.00     3920.00
02859             600.00     3920.00
02860             600.00     3920.00
02861             560.00     3840.00
02862             600.00     3840.00
02863             600.00     3880.00
02864             560.00     3800.00
02865             600.00     3800.00
02866             560.00     3760.00
02867             560.00     3760.00
02868             600.00     3760.00
02869             560.00     3760.00
02870             560.00     3720.00
02871             560.00     3680.00
02872             520.00     3680.00
02873             560.00     3640.00
02874             560.00     3640.00
02875             560.00     3600.00
02876             560.00     3560.00
02877             560.00     3560.00
02878             560.00     3520.00
02879             520.00     3520.00
02880             560.00     3480.00
02881             520.00     3480.00
02882             520.00     3440.00
02883             520.00     3400.00
02884             560.00     3400.00
02885             560.00     3360.00
02886             520.00     3320.00
02887             520.00     3280.00
02888             520.00     3280.00
02889             520.00     3280.00
02890             520.00     3280.00
02891             520.00     3280.00
02892             520.00     3200.00
02893             520.00     3200.00
02894             520.00     3160.00
02895             520.00     3160.00
02896             520.00     3120.00
02897             520.00     3120.00
02898             520.00     3040.00
02899             520.00     3080.00
02900             520.00     3000.00
02901             520.00     3000.00
02902             520.00     2960.00
02903             520.00     2960.00
02904             440.00     2920.00
02905             440.00     2920.00
02906             480.00     2920.00
02907             440.00     2840.00
02908             440.00     2840.00
02909             440.00     2800.00
02910             440.00     2800.00
02911             440.00     2720.00
02912             440.00     2720.00
02913             400.00     2680.00
02914             400.00     2680.00
02915             440.00     2640.00
02916             400.00     2600.00
02917             400.00     2560.00
02918             400.00     2560.00
02919             400.00     2560.00
02920             400.00     2520.00
02921             400.00     2480.00
02922             400.00     2480.00
02923             400.00     2440.00
02924             400.00     2400.00
02925             400.00     2400.00
02926             360.00     2360.00
02927             360.00     2320.00
02928             360.00     2320.00
02929             360.00     2240.00
02930             360.00     2240.00
02931             360.00     2200.00
02932             360.00     2200.00
02933             360.00     2200.00
02934             320.00     2160.00
02935             360.00     2080.00
02936             360.00     2080.00
02937             360.00     2080.00
02938             360.00     2040.00
02939             320.00     2000.00
02940             360.00     2000.00
02941             280.00     1920.00
02942             320.00     1920.00
02943             360.00     1880.00
02944             280.00     1840.00
02945             320.00     1840.00
02946             360.00     1800.00
02947             280.00     1760.00
02948             280.00     1760.00
02949             280.00     1720.00
02950             280.00     1720.00
02951             280.00     1680.00
02952             280.00     1600.00
02953             280.00     1640.00
02954             240.00     1560.00
02955             280.00     1560.00
02956             240.00     1520.00
02957             240.00     1480.00
02958             240.00     1440.00
02959             240.00     1400.00
02960             240.00     1400.00
02961             240.00     1360.00
02962             240.00     1360.00
02963             200.00     1320.00
02964             240.00     1280.00
02965             240.00     1280.00
02966             200.00     1200.00
02967             200.00     1200.00
02968             200.00     1160.00
02969             200.00     1160.00
02970             200.00     1120.00
02971             200.00     1080.00
02972             200.00     1040.00
02973             200.00     1040.00
02974             120.00      960.00
02975             160.00      960.00
02976             120.00      880.00
02977             120.00      880.00
02978             160.00      880.00
02979             120.00      840.00
02980             160.00      840.00
02981             120.00      760.00
02982             120.00      760.00
02983              80.00      720.00
02984              80.00      680.00
02985             120.00      640.00
02986              80.00      640.00
02987              80.00      600.00
02988              80.00      560.00
02989              80.00      560.00
02990              80.00      480.00
02991              80.00      480.00
02992              80.00      440.00
02993              80.00      400.00
02994              40.00      400.00
02995              80.00      360.00
02996              80.00      320.00
02997              40.00      320.00
02998              40.00      280.00
02999              40.00      240.00
03000              40.00      200.00
03001              40.00      160.00
03002              40.00      120.00
03003              40.00       80.00
03004              40.00       80.00
03005              40.00       80.00
03006              40.00        0.00
03007              40.00        0.00
03008               0.00      -40.00
03009               0.00      -80.00
03010              40.00      -80.00
03011              40.00     -120.00
03012               0.00     -160.00
03013               0.00     -200.00
03014               0.00     -240.00
03015              40.00     -240.00
03016              40.00     -280.00
03017              40.00     -320.00
03018             -40.00     -400.00
03019             -80.00     -480.00
03020             -80.00     -440.00
03021             -40.00     -400.00
03022               0.00     -480.00
03023             -80.00     -480.00
03024             -40.00     -520.00
03025             -40.00     -520.00
03026             -80.00     -640.00
03027            -120.00     -640.00
03028             -80.00     -640.00
03029             -40.00     -680.00
03030             -80.00     -720.00
03031            -120.00     -760.00
03032            -120.00     -800.00
03033             -80.00     -840.00
03034            -120.00     -840.00
03035             -80.00     -840.00
03036            -120.00     -880.00
03037            -120.00     -920.00
03038            -120.00     -960.00
03039             -80.00     -960.00
03040            -120.00    -1040.00
03041            -120.00    -1040.00
03042            -120.00    -1080.00
03043            -120.00    -1120.00
03044            -200.00    -1160.00
03045            -200.00    -1200.00
03046            -200.00    -1200.00
03047            -120.00    -1240.00
03048            -200.00    -1280.00
03049            -200.00    -1320.00
03050            -200.00    -1320.00
03051            -200.00    -1360.00
03052            -200.00    -1400.00
03053            -200.00    -1440.00
03054            -240.00    -1440.00
03055            -240.00    -1480.00
03056            -200.00    -1520.00
03057            -240.00    -1520.00
03058            -240.00    -1600.00
03059            -240.00    -1600.00
03060            -240.00    -1600.00
03061            -240.00    -1640.00
03062            -240.00    -1680.00
03063            -240.00    -1720.00
03064            -240.00    -1720.00
03065            -240.00    -1760.00
03066            -240.00    -1800.00
03067            -240.00    -1840.00
03068            -240.00    -1840.00
03069            -280.00    -1880.00
03070            -280.00    -1920.00
03071            -240.00    -1920.00
03072            -280.00    -2000.00
03073            -280.00    -2000.00
03074            -280.00    -2000.00
03075            -280.00    -2080.00
03076            -280.00    -2080.00
03077            -280.00    -2120.00
03078            -280.00    -2120.00
03079            -280.00    -2160.00
03080            -280.00    -2200.00
03081            -360.00    -2200.00
03082            -280.00    -2280.00
03083            -360.00    -2280.00
03084            -360.00    -2280.00
03085            -360.00    -2320.00
03086            -280.00    -2360.00
03087            -320.00    -2400.00
03088            -360.00    -2440.00
03089            -400.00    -2480.00
03090            -360.00    -2480.00
03091            -360.00    -2480.00
03092            -360.00    -2560.00
03093            -400.00    -2560.00
03094            -400.00    -2560.00
03095            -400.00    -2640.00
03096            -400.00    -2640.00
03097            -400.00    -2680.00
03098            -400.00    -2720.00
03099            -400.00    -2720.00
03100            -400.00    -2720.00
03101            -400.00    -2760.00
03102            -400.00    -2800.00
03103            -400.00    -2840.00
03104            -440.00    -2800.00
03105            -440.00    -2880.00
03106            -440.00    -2880.00
03107            -400.00    -2920.00
03108            -440.00    -2960.00
03109            -440.00    -2960.00
03110            -440.00    -3000.00
03111            -440.00    -3040.00
03112            -440.00    -3080.00
03113            -440.00    -3080.00
03114            -480.00    -3080.00
03115            -440.00    -3080.00
03116            -520.00    -3120.00
03117            -480.00    -3160.00
03118            -440.00    -3200.00
03119            -480.00    -3200.00
03120            -440.00    -3280.00
03121            -480.00    -3280.00
03122            -520.00    -3280.00
03123            -520.00    -3280.00
03124            -520.00    -3360.00
03125            -520.00    -3360.00
03126            -480.00    -3400.00
03127            -520.00    -3400.00
03128            -520.00    -3400.00
03129            -520.00    -3440.00
03130            -520.00    -3440.00
03131            -520.00    -3520.00
03132            -520.00    -3480.00
03133            -520.00    -3560.00
03134            -520.00    -3560.00
03135            -520.00    -3560.00
03136            -560.00    -3640.00
03137            -560.00    -3600.00
03138            -560.00    -3680.00
03139            -560.00    -3680.00
03140            -560.00    -3680.00
03141            -560.00    -3720.00
03142            -560.00    -3760.00
03143            -560.00    -3760.00
03144            -560.00    -3760.00
03145            -560.00    -3840.00
03146            -560.00    -3800.00
03147            -560.00    -3840.00
03148            -560.00    -3840.00
03149            -560.00    -3880.00
03150            -560.00    -3880.00
03151            -560.00    -3880.00
03152            -560.00    -3920.00
03153            -560.00    -3920.00
03154            -600.00    -3960.00
03155            -600.00    -4000.00
03156            -560.00    -4000.00
03157            -600.00    -4000.00
03158            -600.00    -4040.00
03159            -560.00    -4040.00
03160            -600.00    -4080.00
03161            -560.00    -4080.00
03162            -600.00    -4120.00
03163            -600.00    -4080.00
03164            -600.00    -4160.00
03165            -600.00    -4160.00
03166            -600.00    -4200.00
03167            -600.00    -4240.00
03168            -680.00    -4200.00
03169            -600.00    -4240.00
03170            -640.00    -4240.00
03171            -640.00    -4240.00
03172            -680.00    -4280.00
03173            -600.00    -4320.00
03174            -720.00    -4320.00
03175            -640.00    -4320.00
03176            -680.00    -4320.00
03177            -640.00    -4360.00
03178            -680.00    -4360.00
03179            -680.00    -4360.00
03180            -680.00    -4360.00
03181            -680.00    -4400.00
03182            -680.00    -4400.00
03183            -680.00    -4400.00
03184            -680.00    -4480.00
03185            -680.00    -4480.00
03186            -720.00    -4480.00
03187            -680.00    -4480.00
03188            -680.00    -4520.00
03189            -720.00    -4520.00
03190            -720.00    -4520.00
03191            -680.00    -4560.00
03192            -720.00    -4560.00
03193            -720.00    -4560.00
03194            -720.00    -4560.00
03195            -720.00    -4560.00
03196            -720.00    -4600.00
03197            -720.00    -4640.00
03198            -720.00    -4640.00
03199            -720.00    -4680.00
03200            -720.00    -4640.00
03201            -720.00    -4680.00
03202            -720.00    -4640.00
03203            -720.00    -4680.00
03204            -720.00    -4680.00
03205            -720.00    -4680.00
03206            -720.00    -4680.00
03207            -720.00    -4720.00
03208            -720.00    -4720.00
03209            -720.00    -4720.00
03210            -720.00    -4720.00
03211            -720.00    -4760.00
03212            -720.00    -4760.00
03213            -720.00    -4760.00
03214            -720.00    -4800.00
03215            -720.00    -4760.00
03216            -720.00    -4760.00
03217            -720.00    -4800.00
03218            -760.00    -4800.00
03219            -720.00    -4840.00
03220            -720.00    -4840.00
03221            -760.00    -4840.00
03222            -760.00    -4840.00
03223            -720.00    -4880.00
03224            -720.00    -4840.00
03225            -760.00    -4880.00
03226            -720.00    -4880.00
03227            -760.00    -4880.00
03228            -720.00    -4880.00
03229            -760.00    -4880.00
03230            -760.00    -4880.00
03231            -760.00    -4880.00
03232            -760.00    -4880.00
03233            -720.00    -4880.00
03234            -760.00    -4880.00
03235            -720.00    -4880.00
03236            -760.00    -4880.00
03237            -760.00    -4920.00
03238            -760.00    -4960.00
03239            -760.00    -4920.00
03240            -720.00    -4960.00
03241            -760.00    -4960.00
03242            -760.00    -4960.00
03243            -760.00    -4960.00
03244            -760.00    -4960.00
03245            -760.00    -4960.00
03246            -760.00    -4960.00
03247            -760.00    -4960.00
03248            -760.00    -4960.00
03249            -760.00    -4960.00
03250            -760.00    -4960.00
03251            -760.00    -4960.00
03252            -760.00    -4960.00
03253            -760.00    -4960.00
03254            -760.00    -4960.00
03255            -760.00    -4960.00
03256            -760.00    -4960.00
03257            -760.00    -4960.00
03258            -760.00    -4960.00
03259            -760.00    -4960.00
03260            -760.00    -4960.00
03261            -760.00    -5000.00
03262            -760.00    -4960.00
03263            -760.00    -4960.00
03264            -760.00    -4960.00
03265            -720.00    -4960.00
03266            -760.00    -4960.00
03267            -760.00    -4960.00
03268            -760.00    -4960.00
03269            -760.00    -4960.00
03270            -760.00    -4960.00
03271            -760.00    -4960.00
03272            -760.00    -4960.00
03273            -760.00    -4960.00
03274            -760.00    -4960.00
03275            -760.00    -4960.00
03276            -760.00    -4960.00
03277            -760.00    -4960.00
03278            -760.00    -4920.00
03279            -760.00    -4960.00
03280            -720.00    -4960.00
03281            -760.00    -4920.00
03282            -760.00    -4920.00
03283            -720.00    -4920.00
03284            -760.00    -4920.00
03285            -760.00    -4880.00
03286            -760.00    -4880.00
03287            -760.00    -4880.00
03288            -720.00    -4880.00
03289            -720.00    -4880.00
03290            -760.00    -4880.00
03291            -760.00    -4880.00
03292            -760.00    -4880.00
03293            -760.00    -4880.00
03294            -720.00    -4840.00
03295            -760.00    -4840.00
03296            -720.00    -4840.00
03297            -760.00    -4840.00
03298            -720.00    -4760.00
03299            -720.00    -4840.00
03300            -720.00    -4760.00
03301            -720.00    -4800.00
03302            -720.00    -4760.00
03303            -760.00    -4760.00
03304            -760.00    -4760.00
03305            -720.00    -4760.00
03306            -760.00    -4800.00
03307            -720.00    -4760.00
03308            -760.00    -4720.00
03309            -760.00    -4720.00
03310            -760.00    -4720.00
03311            -760.00    -4720.00
03312            -720.00    -4680.00
03313            -760.00    -4680.00
03314            -720.00    -4680.00
03315            -720.00    -4680.00
03316            -720.00    -4640.00
03317            -760.00    -4680.00
03318            -760.00    -4640.00
03319            -720.00    -4640.00
03320            -720.00    -4640.00
03321            -720.00    -4600.00
03322            -720.00    -4640.00
03323            -720.00    -4640.00
03324            -720.00    -4560.00
03325            -720.00    -4560.00
03326            -720.00    -4560.00
03327            -720.00    -4560.00
03328            -720.00    -4520.00
03329            -720.00    -4520.00
03330            -680.00    -4520.00
03331            -720.00    -4480.00
03332            -720.00    -4480.00
03333            -680.00    -4480.00
03334            -720.00    -4400.00
03335            -680.00    -4480.00
03336            -680.00    -4440.00
03337            -680.00    -4400.00
03338            -720.00    -4400.00
03339            -680.00    -4400.00
03340            -680.00    -4360.00
03341            -680.00    -4360.00
03342            -640.00    -4360.00
03343            -680.00    -4320.00
03344            -680.00    -4320.00
03345            -680.00    -4320.00
03346            -680.00    -4280.00
03347            -680.00    -4280.00
03348            -680.00    -4240.00
03349            -640.00    -4240.00
03350            -680.00    -4240.00
03351            -680.00    -4240.00
03352            -600.00    -4200.00
03353            -640.00    -4160.00
03354            -640.00    -4160.00
03355            -640.00    -4160.00
03356            -680.00    -4160.00
03357            -600.00    -4080.00
03358            -600.00    -4120.00
03359            -640.00    -4040.00
03360            -600.00    -4040.00
03361            -640.00    -4040.00
03362            -600.00    -4040.00
03363            -640.00    -4000.00
03364            -600.00    -4000.00
03365            -600.00    -3960.00
03366            -600.00    -3920.00
03367            -600.00    -3920.00
03368            -600.00    -3920.00
03369            -600.00    -3880.00
03370            -600.00    -3880.00
03371            -600.00    -3840.00
03372            -600.00    -3840.00
03373            -600.00    -3840.00
03374            -600.00    -3840.00
03375            -600.00    -3760.00
03376            -600.00    -3760.00
03377            -560.00    -3760.00
03378            -560.00    -3720.00
03379            -560.00    -3680.00
03380            -560.00    -3680.00
03381            -560.00    -3680.00
03382            -560.00    -3600.00
03383            -560.00    -3600.00
03384            -560.00    -3600.00
03385            -560.00    -3560.00
03386            -560.00    -3560.00
03387            -560.00    -3480.00
03388            -560.00    -3480.00
03389            -560.00    -3440.00
03390            -560.00    -3440.00
03391            -560.00    -3440.00
03392            -560.00    -3400.00
03393            -560.00    -3400.00
03394            -520.00    -3360.00
03395            -520.00    -3360.00
03396            -520.00    -3320.00
03397            -560.00    -3280.00
03398            -520.00    -3280.00
03399            -520.00    -3240.00
03400            -520.00    -3240.00
03401            -520.00    -3240.00
03402            -520.00    -3160.00
03403            -520.00    -3160.00
03404            -520.00    -3120.00
03405            -520.00    -3120.00
03406            -520.00    -3080.00
03407            -440.00    -3080.00
03408            -480.00    -3000.00
03409            -440.00    -3000.00
03410            -480.00    -2960.00
03411            -440.00    -2960.00
03412            -440.00    -2960.00
03413            -440.00    -2920.00
03414            -440.00    -2880.00
03415            -440.00    -2840.00
03416            -440.00    -2800.00
03417            -440.00    -2800.00
03418            -440.00    -2760.00
03419            -440.00    -2720.00
03420            -440.00    -2720.00
03421            -440.00    -2720.00
03422            -400.00    -2680.00
03423            -440.00    -2640.00
03424            -400.00    -2640.00
03425            -440.00    -2600.00
03426            -400.00    -2560.00
03427            -400.00    -2560.00
03428            -400.00    -2520.00
03429            -400.00    -2480.00
03430            -400.00    -2480.00
03431            -400.00    -2440.00
03432            -400.00    -2400.00
03433            -400.00    -2400.00
03434            -400.00    -2360.00
03435            -400.00    -2320.00
03436            -400.00    -2320.00
03437            -400.00    -2280.00
03438            -400.00    -2280.00
03439            -400.00    -2200.00
03440            -360.00    -2200.00
03441            -360.00    -2160.00
03442            -360.00    -2160.00
03443            -360.00    -2120.00
03444            -360.00    -2080.00
03445            -360.00    -2040.00
03446            -360.00    -2000.00
03447            -360.00    -2000.00
03448            -280.00    -1960.00
03449            -360.00    -1960.00
03450            -360.00    -1920.00
03451            -320.00    -1880.00
03452            -360.00    -1840.00
03453            -320.00    -1840.00
03454            -280.00    -1800.00
03455            -280.00    -1800.00
03456            -280.00    -1760.00
03457            -280.00    -1680.00
03458            -280.00    -1680.00
03459            -280.00    -1680.00
03460            -280.00    -1640.00
03461            -280.00    -1600.00
03462            -280.00    -1600.00
03463            -240.00    -1520.00
03464            -240.00    -1520.00
03465            -240.00    -1480.00
03466            -240.00    -1440.00
03467            -240.00    -1440.00
03468            -240.00    -1440.00
03469            -240.00    -1360.00
03470            -240.00    -1320.00
03471            -240.00    -1320.00
03472            -200.00    -1280.00
03473            -200.00    -1280.00
03474            -240.00    -1200.00
03475            -200.00    -1200.00
03476            -200.00    -1160.00
03477            -200.00    -1160.00
03478            -200.00    -1120.00
03479            -200.00    -1080.00
03480            -120.00    -1080.00
03481            -160.00    -1000.00
03482            -200.00    -1000.00
03483            -160.00     -920.00
03484            -120.00     -920.00
03485            -120.00     -880.00
03486            -120.00     -880.00
03487            -160.00     -840.00
03488            -120.00     -800.00
03489            -120.00     -800.00
03490            -120.00     -720.00
03491            -120.00     -720.00
03492            -120.00     -680.00
03493            -120.00     -680.00
03494            -120.00     -640.00
03495            -120.00     -640.00
03496            -120.00     -560.00
03497            -120.00     -560.00
03498            -120.00     -520.00
03499            -120.00     -520.00
03500             -80.00     -440.00
03501             -80.00     -400.00
03502            -120.00     -400.00
03503            -120.00     -360.00
03504             -80.00     -320.00
03505             -80.00     -320.00
03506             -80.00     -280.00
03507             -40.00     -240.00
03508             -80.00     -240.00
03509             -40.00     -200.00
03510             -80.00     -160.00
03511             -40.00     -120.00
03512             -80.00      -80.00
03513             -40.00      -80.00
03514             -40.00        0.00
03515             -40.00        0.00
03516             -40.00        0.00
03517             -40.00       80.00
03518              40.00       80.00
03519             -40.00      120.00
03520              40.00      120.00
03521             -40.00      160.00
03522              40.00      200.00
03523              40.00      240.00
03524              40.00      320.00
03525              80.00      360.00
03526              80.00      360.00
03527             -40.00      280.00
03528             -40.00      360.00
03529              80.00      440.00
03530              80.00      480.00
03531              80.00      480.00
03532              80.00      520.00
03533              40.00      560.00
03534              40.00      560.00
03535              40.00      640.00
03536             120.00      640.00
03537              80.00      720.00
03538              80.00      720.00
03539              80.00      720.00
03540              80.00      800.00
03541              80.00      800.00
03542              80.00      840.00
03543             120.00      880.00
03544             120.00      880.00
03545              80.00      920.00
03546             120.00      920.00
03547             200.00     1000.00
03548             120.00      960.00
03549             120.00     1040.00
03550             120.00     1080.00
03551             160.00     1120.00
03552             160.00     1120.00
03553             200.00     1200.00
03554             200.00     1200.00
03555             200.00     1240.00
03556             200.00     1240.00
03557             200.00     1280.00
03558             200.00     1320.00
03559             200.00     1360.00
03560             240.00     1360.00
03561             200.00     1400.00
03562             200.00     1440.00
03563             240.00     1480.00
03564             200.00     1480.00
03565             200.00     1560.00
03566             200.00     1560.00
03567             200.00     1600.00
03568             240.00     1640.00
03569             240.00     1640.00
03570             240.00     1680.00
03571             240.00     1720.00
03572             240.00     1760.00
03573             240.00     1760.00
03574             240.00     1760.00
03575             240.00     1840.00
03576             240.00     1840.00
03577             240.00     1880.00
03578             280.00     1920.00
03579             280.00     1920.00
03580             240.00     2000.00
03581             280.00     2000.00
03582             280.00     2040.00
03583             280.00     2040.00
03584             280.00     2080.00
03585             280.00     2080.00
03586             280.00     2160.00
03587             280.00     2160.00
03588             320.00     2160.00
03589             280.00     2200.00
03590             320.00     2280.00
03591             360.00     2320.00
03592             320.00     2320.00
03593             360.00     2320.00
03594             280.00     2360.00
03595             360.00     2400.00
03596             400.00     2400.00
03597             360.00     2480.00
03598             360.00     2480.00
03599             360.00     2480.00
03600             360.00     2520.00
03601             400.00     2520.00
03602             360.00     2560.00
03603             400.00     2560.00
03604             400.00     2640.00
03605             360.00     2640.00
03606             400.00     2680.00
03607             400.00     2680.00
03608             400.00     2720.00
03609             400.00     2720.00
03610             400.00     2800.00
03611             400.00     2800.00
03612             400.00     2840.00
03613             440.00     2840.00
03614             400.00     2920.00
03615             440.00     2920.00
03616             440.00     2960.00
03617             440.00     2960.00
03618             440.00     3000.00
03619             440.00     3000.00
03620             440.00     3040.00
03621             440.00     3080.00
03622             440.00     3120.00
03623             520.00     3120.00
03624             440.00     3160.00
03625             480.00     3160.00
03626             440.00     3200.00
03627             440.00     3200.00
03628             480.00     3240.00
03629             440.00     3280.00
03630             520.00     3280.00
03631             440.00     3280.00
03632             520.00     3320.00
03633             520.00     3320.00
03634             520.00     3360.00
03635             440.00     3360.00
03636             480.00     3440.00
03637             480.00     3480.00
03638             520.00     3480.00
03639             520.00     3480.00
03640             520.00     3520.00
03641             520.00     3520.00
03642             520.00     3560.00
03643             520.00     3600.00
03644             520.00     3600.00
03645             520.00     3600.00
03646             560.00     3640.00
03647             560.00     3680.00
03648             520.00     3680.00
03649             520.00     3720.00
03650             520.00     3760.00
03651             520.00     3760.00
03652             520.00     3760.00
03653             560.00     3760.00
03654             560.00     3800.00
03655             560.00     3840.00
03656             560.00     3840.00
03657             560.00     3840.00
03658             560.00     3840.00
03659             600.00     3920.00
03660             600.00     3920.00
03661             600.00     3920.00
03662             600.00     4000.00
03663             600.00     3960.00
03664             600.00     4000.00
03665             600.00     4000.00
03666             600.00     4000.00
03667             600.00     4040.00
03668             600.00     4080.00
03669             680.00     4080.00
03670             600.00     4080.00
03671             600.00     4120.00
03672             600.00     4120.00
03673             600.00     4160.00
03674             600.00     4200.00
03675             680.00     4160.00
03676             640.00     4240.00
03677             680.00     4240.00
03678             680.00     4240.00
03679             640.00     4280.00
03680             680.00     4280.00
03681             680.00     4320.00
03682             680.00     4280.00
03683             680.00     4320.00
03684             640.00     4320.00
03685             680.00     4320.00
03686             680.00     4360.00
03687             680.00     4400.00
03688             680.00     4400.00
03689             680.00     4400.00
03690             680.00     4440.00
03691             680.00     4440.00
03692             680.00     4440.00
03693             680.00     4440.00
03694             720.00     4480.00
03695             640.00     4480.00
03696             680.00     4480.00
03697             680.00     4480.00
03698             680.00     4520.00
03699             680.00     4560.00
03700             680.00     4520.00
03701             680.00     4560.00
03702             680.00     4600.00
03703             680.00     4560.00
03704             680.00     4600.00
03705             720.00     4600.00
03706             680.00     4600.00
03707             680.00     4640.00
03708             720.00     4640.00
03709             720.00     4640.00
03710             680.00     4680.00
03711             680.00     4680.00
03712             680.00     4680.00
03713             720.00     4720.00
03714             680.00     4720.00
03715             720.00     4720.00
03716             680.00     4720.00
03717             720.00     4760.00
03718             720.00     4760.00
03719             720.00     4760.00
03720             720.00     4760.00
03721             720.00     4800.00
03722             720.00     4760.00
03723             720.00     4760.00
03724             720.00     4760.00
03725             720.00     4800.00
03726             720.00     4800.00
03727             720.00     4800.00
03728             760.00     4800.00
03729             720.00     4840.00
03730             720.00     4800.00
03731             720.00     4880.00
03732             760.00     4880.00
03733             720.00     4840.00
03734             720.00     4880.00
03735             760.00     4880.00
03736             720.00     4880.00
03737             760.00     4880.00
03738             760.00     4880.00
03739             720.00     4880.00
03740             720.00     4880.00
03741             760.00     4920.00
03742             760.00     4880.00
03743             720.00     4920.00
03744             760.00     4920.00
03745             760.00     4920.00
03746             720.00     4920.00
03747             760.00     4920.00
03748             760.00     4920.00
03749             720.00     4920.00
03750             760.00     4960.00
03751             760.00     4920.00
03752             760.00     4920.00
03753             760.00     4960.00
03754             760.00     4920.00
03755             760.00     4960.00
03756             760.00     4960.00
03757             720.00     4960.00
03758             720.00     4960.00
03759             760.00     4960.00
03760             760.00     4960.00
03761             720.00     4960.00
03762             720.00     4960.00
03763             760.00     4960.00
03764             720.00     4960.00
03765             760.00     4960.00
03766             720.00     4960.00
03767             760.00     4960.00
03768             760.00     4960.00
03769             720.00     4960.00
03770             760.00     4960.00
03771             760.00     4960.00
03772             720.00     4960.00
03773             760.00     4960.00
03774             760.00     4960.00
03775             760.00     4960.00
03776             720.00     4960.00
03777             760.00     4960.00
03778             720.00     4960.00
03779             760.00     4960.00
03780             720.00     4960.00
03781             720.00     4960.00
03782             760.00     4960.00
03783             720.00     4960.00
03784             720.00     4960.00
03785             720.00     4920.00
03786             760.00     4960.00
03787             720.00     4920.00
03788             760.00     4920.00
03789             760.00     4920.00
03790             760.00     4920.00
03791             720.00     4920.00
03792             720.00     4920.00
03793             760.00     4880.00
03794             720.00     4920.00
03795             720.00     4880.00
03796             760.00     4880.00
03797             760.00     4880.00
03798             760.00     4880.00
03799             720.00     4880.00
03800             720.00     4880.00
03801             760.00     4880.00
03802             760.00     4840.00
03803             720.00     4840.00
03804             720.00     4880.00
03805             760.00     4880.00
03806             760.00     4800.00
03807             720.00     4840.00
03808             760.00     4840.00
03809             760.00     4800.00
03810             720.00     4800.00
03811             760.00     4800.00
03812             720.00     4800.00
03813             720.00     4800.00
03814             720.00     4760.00
03815             760.00     4760.00
03816             720.00     4760.00
03817             760.00     4760.00
03818             720.00     4720.00
03819             720.00     4720.00
03820             720.00     4720.00
03821             720.00     4720.00
03822             720.00     4720.00
03823             720.00     4720.00
03824             720.00     4720.00
03825             720.00     4680.00
03826             720.00     4640.00
03827             720.00     4640.00
03828             720.00     4600.00
03829             720.00     4640.00
03830             720.00     4600.00
03831             720.00     4600.00
03832             720.00     4600.00
03833             680.00     4560.00
03834             720.00     4560.00
03835             720.00     4560.00
03836             680.00     4560.00
03837             680.00     4560.00
03838             720.00     4480.00
03839             680.00     4480.00
03840             680.00     4520.00
03841             680.00     4480.00
03842             680.00     4480.00
03843             680.00     4440.00
03844             680.00     4440.00
03845             680.00     4440.00
03846             680.00     4400.00
03847             720.00     4400.00
03848             680.00     4400.00
03849             680.00     4400.00
03850             680.00     4360.00
03851             720.00     4320.00
03852             680.00     4320.00
03853             680.00     4320.00
03854             680.00     4280.00
03855             680.00     4280.00
03856             680.00     4240.00
03857             680.00     4240.00
03858             640.00     4240.00
03859             680.00     4160.00
03860             680.00     4200.00
03861             680.00     4200.00
03862             680.00     4200.00
03863             640.00     4160.00
03864             680.00     4160.00
03865             680.00     4120.00
03866             680.00     4120.00
03867             600.00     4120.00
03868             600.00     4080.00
03869             680.00     4040.00
03870             600.00     4000.00
03871             600.00     4000.00
03872             600.00     4000.00
03873             640.00     3960.00
03874             600.00     3960.00
03875             600.00     3960.00
03876             600.00     3920.00
03877             600.00     3880.00
03878             600.00     3840.00
03879             600.00     3880.00
03880             600.00     3840.00
03881             600.00     3800.00
03882             600.00     3800.00
03883             600.00     3760.00
03884             600.00     3760.00
03885             600.00     3760.00
03886             560.00     3760.00
03887             560.00     3720.00
03888             560.00     3680.00
03889             560.00     3680.00
03890             520.00     3640.00
03891             560.00     3600.00
03892             560.00     3600.00
03893             560.00     3560.00
03894             560.00     3520.00
03895             560.00     3520.00
03896             520.00     3480.00
03897             520.00     3480.00
03898             520.00     3480.00
03899             520.00     3440.00
03900             520.00     3440.00
03901             520.00     3440.00
03902             520.00     3360.00
03903             520.00     3360.00
03904             520.00     3320.00
03905             520.00     3320.00
03906             440.00     3280.00
03907             520.00     3280.00
03908             520.00     3240.00
03909             520.00     3240.00
03910             520.00     3200.00
03911             480.00     3200.00
03912             520.00     3160.00
03913             440.00     3120.00
03914             520.00     3120.00
03915             440.00     3080.00
03916             480.00     3040.00
03917             520.00     3040.00
03918             440.00     3000.00
03919             520.00     2960.00
03920             440.00     2960.00
03921             480.00     2920.00
03922             440.00     2920.00
03923             440.00     2880.00
03924             480.00     2840.00
03925             440.00     2800.00
03926             440.00     2800.00
03927             440.00     2800.00
03928             440.00     2800.00
03929             440.00     2720.00
03930             440.00     2680.00
03931             440.00     2680.00
03932             400.00     2640.00
03933             440.00     2640.00
03934             400.00     2560.00
03935             400.00     2560.00
03936             400.00     2520.00
03937             400.00     2480.00
03938             440.00     2480.00
03939             400.00     2480.00
03940             400.00     2440.00
03941             400.00     2400.00
03942             400.00     2360.00
03943             400.00     2360.00
03944             400.00     2360.00
03945             360.00     2320.00
03946             360.00     2280.00
03947             400.00     2240.00
03948             360.00     2240.00
03949             360.00     2200.00
03950             360.00     2160.00
03951             360.00     2160.00
03952             360.00     2120.00
03953             360.00     2080.00
03954             360.00     2080.00
03955             320.00     2040.00
03956             280.00     2000.00
03957             360.00     2000.00
03958             280.00     1920.00
03959             320.00     1920.00
03960             280.00     1880.00
03961             280.00     1880.00
03962             280.00     1840.00
03963             280.00     1800.00
03964             280.00     1760.00
03965             280.00     1720.00
03966             280.00     1680.00
03967             280.00     1680.00
03968             240.00     1680.00
03969             240.00     1640.00
03970             240.00     1600.00
03971             280.00     1560.00
03972             240.00     1520.00
03973             240.00     1520.00
03974             240.00     1520.00
03975             200.00     1440.00
03976             240.00     1440.00
03977             200.00     1400.00
03978             200.00     1360.00
03979             200.00     1360.00
03980             240.00     1320.00
03981             200.00     1280.00
03982             200.00     1240.00
03983             200.00     1240.00
03984             200.00     1160.00
03985             200.00     1200.00
03986             200.00     1120.00
03987             200.00     1120.00
03988             200.00     1080.00
03989             200.00     1040.00
03990             200.00     1000.00
03991             200.00      960.00
03992             200.00      960.00
03993             200.00      920.00
03994             200.00      880.00
03995             200.00      880.00
03996             120.00      840.00
03997             160.00      800.00
03998             120.00      760.00
03999             120.00      720.00
04000             120.00      720.00
04001             120.00      640.00
04002             120.00      640.00
04003             120.00      640.00
04004             120.00      600.00
04005              80.00      560.00
04006              80.00      560.00
04007              80.00      480.00
04008              80.00      480.00
04009              80.00      440.00
04010              80.00      400.00
04011              80.00      400.00
04012              80.00      360.00
04013              80.00      320.00
04014              80.00      280.00
04015              80.00      240.00
04016              80.00      200.00
04017              40.00      200.00
04018              40.00      160.00
04019              40.00      120.00
04020              40.00       80.00
04021              40.00       80.00
04022              40.00       80.00
04023              40.00        0.00
04024              40.00      -40.00
04025               0.00      -40.00
04026               0.00      -80.00
04027              40.00      -80.00
04028               0.00     -120.00
04029             -40.00     -160.00
04030             -40.00     -200.00
04031             -40.00     -200.00
04032             -40.00     -240.00
04033               0.00     -240.00
04034              40.00     -320.00
04035             -40.00     -400.00
04036            -120.00     -480.00
04037            -120.00     -440.00
04038             -40.00     -400.00
04039             -40.00     -480.00
04040             -80.00     -520.00
04041             -80.00     -520.00
04042             -80.00     -560.00
04043             -80.00     -640.00
04044            -120.00     -640.00
04045             -80.00     -640.00
04046             -40.00     -720.00
04047            -120.00     -720.00
04048             -80.00     -760.00
04049             -80.00     -760.00
04050            -120.00     -840.00
04051            -120.00     -840.00
04052            -120.00     -880.00
04053            -120.00     -920.00
04054            -120.00     -960.00
04055            -160.00     -960.00
04056            -120.00    -1000.00
04057            -120.00    -1040.00
04058            -160.00    -1040.00
04059            -120.00    -1080.00
04060            -120.00    -1120.00
04061            -120.00    -1160.00
04062            -120.00    -1200.00
04063            -160.00    -1200.00
04064            -120.00    -1240.00
04065            -160.00    -1280.00
04066            -160.00    -1280.00
04067            -200.00    -1320.00
04068            -160.00    -1360.00
04069            -200.00    -1360.00
04070            -200.00    -1400.00
04071            -200.00    -1480.00
04072            -200.00    -1480.00
04073            -200.00    -1480.00
04074            -240.00    -1520.00
04075            -200.00    -1560.00
04076            -240.00    -1600.00
04077            -240.00    -1640.00
04078            -200.00    -1680.00
04079            -240.00    -1680.00
04080            -240.00    -1720.00
04081            -240.00    -1760.00
04082            -240.00    -1800.00
04083            -240.00    -1800.00
04084            -240.00    -1840.00
04085            -280.00    -1840.00
04086            -280.00    -1880.00
04087            -280.00    -1920.00
04088            -240.00    -1920.00
04089            -280.00    -1960.00
04090            -280.00    -2000.00
04091            -280.00    -2040.00
04092            -320.00    -2080.00
04093            -360.00    -2120.00
04094            -320.00    -2120.00
04095            -320.00    -2160.00
04096            -320.00    -2160.00
04097            -360.00    -2200.00
04098            -360.00    -2240.00
04099            -280.00    -2240.00
04100            -320.00    -2280.00
04101            -360.00    -2320.00
04102            -360.00    -2320.00
04103            -360.00    -2360.00
04104            -400.00    -2400.00
04105            -360.00    -2440.00
04106            -400.00    -2440.00
04107            -400.00    -2480.00
04108            -400.00    -2520.00
04109            -400.00    -2560.00
04110            -400.00    -2560.00
04111            -400.00    -2600.00
04112            -400.00    -2640.00
04113            -400.00    -2640.00
04114            -400.00    -2680.00
04115            -440.00    -2720.00
04116            -400.00    -2720.00
04117            -400.00    -2760.00
04118            -400.00    -2800.00
04119            -440.00    -2800.00
04120            -400.00    -2840.00
04121            -440.00    -2840.00
04122            -440.00    -2880.00
04123            -440.00    -2880.00
04124            -440.00    -2920.00
04125            -440.00    -2960.00
04126            -400.00    -2960.00
04127            -440.00    -3000.00
04128            -440.00    -3040.00
04129            -440.00    -3040.00
04130            -440.00    -3080.00
04131            -440.00    -3080.00
04132            -440.00    -3120.00
04133            -440.00    -3120.00
04134            -480.00    -3200.00
04135            -440.00    -3200.00
04136            -440.00    -3240.00
04137            -440.00    -3240.00
04138            -440.00    -3280.00
04139            -520.00    -3280.00
04140            -520.00    -3280.00
04141            -480.00    -3320.00
04142            -520.00    -3360.00
04143            -520.00    -3360.00
04144            -480.00    -3400.00
04145            -520.00    -3440.00
04146            -520.00    -3440.00
04147            -480.00    -3440.00
04148            -520.00    -3480.00
04149            -560.00    -3520.00
04150            -560.00    -3520.00
04151            -560.00    -3560.00
04152            -560.00    -3560.00
04153            -560.00    -3600.00
04154            -560.00    -3600.00
04155            -560.00    -3640.00
04156            -560.00    -3680.00
04157            -560.00    -3720.00
04158            -560.00    -3680.00
04159            -600.00    -3760.00
04160            -560.00    -3760.00
04161            -560.00    -3760.00
04162            -560.00    -3760.00
04163            -560.00    -3800.00
04164            -600.00    -3840.00
04165            -600.00    -3840.00
04166            -600.00    -3840.00
04167            -600.00    -3880.00
04168            -600.00    -3920.00
04169            -560.00    -3920.00
04170            -560.00    -3920.00
04171            -600.00    -4000.00
04172            -600.00    -4000.00
04173            -560.00    -4000.00
04174            -600.00    -4040.00
04175            -600.00    -4040.00
04176            -600.00    -4040.00
04177            -600.00    -4080.00
04178            -600.00    -4120.00
04179            -600.00    -4160.00
04180            -600.00    -4120.00
04181            -600.00    -4160.00
04182            -600.00    -4160.00
04183            -600.00    -4160.00
04184            -640.00    -4200.00
04185            -600.00    -4200.00
04186            -600.00    -4240.00
04187            -640.00    -4240.00
04188            -600.00    -4240.00
04189            -640.00    -4280.00
04190            -600.00    -4280.00
04191            -600.00    -4320.00
04192            -680.00    -4320.00
04193            -680.00    -4360.00
04194            -600.00    -4360.00
04195            -680.00    -4400.00
04196            -600.00    -4360.00
04197            -640.00    -4400.00
04198            -680.00    -4400.00
04199            -680.00    -4400.00
04200            -640.00    -4440.00
04201            -680.00    -4480.00
04202            -680.00    -4480.00
04203            -680.00    -4480.00
04204            -680.00    -4520.00
04205            -680.00    -4520.00
04206            -680.00    -4520.00
04207            -720.00    -4520.00
04208            -680.00    -4560.00
04209            -680.00    -4560.00
04210            -720.00    -4560.00
04211            -680.00    -4560.00
04212            -680.00    -4560.00
04213            -720.00    -4600.00
04214            -680.00    -4640.00
04215            -680.00    -4640.00
04216            -680.00    -4640.00
04217            -760.00    -4680.00
04218            -680.00    -4680.00
04219            -720.00    -4640.00
04220            -720.00    -4680.00
04221            -720.00    -4720.00
04222            -720.00    -4680.00
04223            -720.00    -4720.00
04224            -720.00    -4720.00
04225            -720.00    -4720.00
04226            -720.00    -4720.00
04227            -720.00    -4720.00
04228            -720.00    -4760.00
04229            -720.00    -4760.00
04230            -720.00    -4760.00
04231            -720.00    -4800.00
04232            -720.00    -4800.00
04233            -720.00    -4800.00
04234            -760.00    -4840.00
04235            -760.00    -4800.00
04236            -720.00    -4840.00
04237            -760.00    -4840.00
04238            -720.00    -4840.00
04239            -720.00    -4840.00
04240            -760.00    -4840.00
04241            -760.00    -4840.00
04242            -720.00    -4880.00
04243            -760.00    -4880.00
04244            -760.00    -4880.00
04245            -760.00    -4880.00
04246            -720.00    -4880.00
04247            -760.00    -4880.00
04248            -760.00    -4880.00
04249            -760.00    -4880.00
04250            -760.00    -4920.00
04251            -720.00    -4880.00
04252            -720.00    -4880.00
04253            -760.00    -4880.00
04254            -760.00    -4920.00
04255            -760.00    -4960.00
04256            -760.00    -4920.00
04257            -760.00    -4960.00
04258            -760.00    -4960.00
04259            -720.00    -4960.00
04260            -760.00    -4960.00
04261            -760.00    -4960.00
04262            -720.00    -4960.00
04263            -760.00    -4960.00
04264            -760.00    -4960.00
04265            -720.00    -4960.00
04266            -760.00    -4960.00
04267            -760.00    -4960.00
04268            -760.00    -4960.00
04269            -760.00    -5000.00
04270            -720.00    -4960.00
04271            -760.00    -4960.00
04272            -760.00    -5000.00
04273            -760.00    -4960.00
04274            -760.00    -5000.00
04275            -760.00    -4960.00
04276            -760.00    -4960.00
04277            -760.00    -4960.00
04278            -760.00    -5000.00
04279            -760.00    -4960.00
04280            -760.00    -4960.00
04281            -760.00    -4960.00
04282            -760.00    -4960.00
04283            -760.00    -4960.00
04284            -760.00    -4960.00
04285            -760.00    -4960.00
04286            -760.00    -4960.00
04287            -760.00    -4960.00
04288            -760.00    -4960.00
04289            -760.00    -4960.00
04290            -760.00    -4960.00
04291            -760.00    -4960.00
04292            -760.00    -4960.00
04293            -760.00    -4960.00
04294            -760.00    -4960.00
04295            -760.00    -4920.00
04296            -760.00    -4920.00
04297            -760.00    -4920.00
04298            -760.00    -4960.00
04299            -760.00    -4920.00
04300            -760.00    -4880.00
04301            -760.00    -4920.00
04302            -760.00    -4960.00
04303            -760.00    -4880.00
04304            -760.00    -4880.00
04305            -760.00    -4880.00
04306            -760.00    -4880.00
04307            -760.00    -4880.00
04308            -760.00    -4880.00
04309            -760.00    -4880.00
04310            -720.00    -4840.00
04311            -760.00    -4880.00
04312            -760.00    -4840.00
04313            -760.00    -4880.00
04314            -720.00    -4840.00
04315            -760.00    -4800.00
04316            -760.00    -4800.00
04317            -720.00    -4800.00
04318            -760.00    -4800.00
04319            -720.00    -4800.00
04320            -760.00    -4760.00
04321            -720.00    -4760.00
04322            -720.00    -4760.00
04323            -720.00    -4760.00
04324            -720.00    -4760.00
04325            -720.00    -4720.00
04326            -760.00    -4760.00
04327            -720.00    -4720.00
04328            -720.00    -4720.00
04329            -720.00    -4720.00
04330            -720.00    -4680.00
04331            -720.00    -4720.00
04332            -720.00    -4680.00
04333            -720.00    -4640.00
04334            -680.00    -4640.00
04335            -680.00    -4680.00
04336            -720.00    -4640.00
04337            -720.00    -4640.00
04338            -720.00    -4600.00
04339            -680.00    -4600.00
04340            -680.00    -4600.00
04341            -680.00    -4600.00
04342            -720.00    -4560.00
04343            -680.00    -4560.00
04344            -720.00    -4560.00
04345            -720.00    -4520.00
04346            -720.00    -4520.00
04347            -720.00    -4480.00
04348            -720.00    -4480.00
04349            -720.00    -4480.00
04350            -720.00    -4480.00
04351            -720.00    -4480.00
04352            -680.00    -4480.00
04353            -720.00    -4440.00
04354            -680.00    -4400.00
04355            -720.00    -4400.00
04356            -680.00    -4400.00
04357            -680.00    -4360.00
04358            -680.00    -4360.00
04359            -680.00    -4360.00
04360            -720.00    -4320.00
04361            -680.00    -4320.00
04362            -680.00    -4320.00
04363            -680.00    -4280.00
04364            -640.00    -4280.00
04365            -680.00    -4240.00
04366            -680.00    -4240.00
04367            -680.00    -4200.00
04368            -680.00    -4240.00
04369            -680.00    -4200.00
04370            -640.00    -4160.00
04371            -680.00    -4160.00
04372            -640.00    -4120.00
04373            -680.00    -4120.00
04374            -680.00    -4120.00
04375            -600.00    -4080.00
04376            -600.00    -4080.00
04377            -600.00    -4040.00
04378            -600.00    -4000.00
04379            -600.00    -4040.00
04380            -640.00    -4000.00
04381            -600.00    -3960.00
04382            -600.00    -3920.00
04383            -560.00    -3920.00
04384            -600.00    -3920.00
04385            -600.00    -3880.00
04386            -560.00    -3880.00
04387            -600.00    -3880.00
04388            -600.00    -3840.00
04389            -560.00    -3800.00
04390            -600.00    -3840.00
04391            -600.00    -3800.00
04392            -560.00    -3760.00
04393            -600.00    -3720.00
04394            -560.00    -3720.00
04395            -560.00    -3720.00
04396            -560.00    -3680.00
04397            -560.00    -3680.00
04398            -560.00    -3640.00
04399            -560.00    -3600.00
04400            -560.00    -3600.00
04401            -560.00    -3600.00
04402            -560.00    -3560.00
04403            -560.00    -3560.00
04404            -560.00    -3480.00
04405            -560.00    -3480.00
04406            -560.00    -3480.00
04407            -520.00    -3440.00
04408            -520.00    -3440.00
04409            -520.00    -3400.00
04410            -520.00    -3360.00
04411            -560.00    -3360.00
04412            -520.00    -3360.00
04413            -520.00    -3320.00
04414            -560.00    -3280.00
04415            -520.00    -3280.00
04416            -520.00    -3240.00
04417            -520.00    -3200.00
04418            -520.00    -3240.00
04419            -520.00    -3200.00
04420            -440.00    -3160.00
04421            -520.00    -3120.00
04422            -520.00    -3080.00
04423            -480.00    -3080.00
04424            -480.00    -3040.00
04425            -520.00    -3040.00
04426            -520.00    -3040.00
04427            -520.00    -3000.00
04428            -480.00    -2960.00
04429            -480.00    -2920.00
04430            -520.00    -2920.00
04431            -440.00    -2880.00
04432            -440.00    -2840.00
04433            -480.00    -2800.00
04434            -440.00    -2800.00
04435            -440.00    -2800.00
04436            -440.00    -2760.00
04437            -440.00    -2720.00
04438            -440.00    -2720.00
04439            -440.00    -2680.00
04440            -440.00    -2640.00
04441            -440.00    -2600.00
04442            -440.00    -2640.00
04443            -400.00    -2600.00
04444            -440.00    -2560.00
04445            -400.00    -2560.00
04446            -400.00    -2480.00
04447            -400.00    -2480.00
04448            -400.00    -2480.00
04449            -400.00    -2440.00
04450            -400.00    -2360.00
04451            -400.00    -2400.00
04452            -400.00    -2320.00
04453            -360.00    -2320.00
04454            -360.00    -2280.00
04455            -360.00    -2200.00
04456            -360.00    -2200.00
04457            -360.00    -2200.00
04458            -360.00    -2160.00
04459            -360.00    -2160.00
04460            -360.00    -2120.00
04461            -280.00    -2080.00
04462            -280.00    -2080.00
04463            -320.00    -2040.00
04464            -320.00    -2000.00
04465            -280.00    -1960.00
04466            -360.00    -1960.00
04467            -320.00    -1920.00
04468            -280.00    -1920.00
04469            -360.00    -1840.00
04470            -280.00    -1840.00
04471            -280.00    -1800.00
04472            -280.00    -1760.00
04473            -280.00    -1760.00
04474            -280.00    -1720.00
04475            -280.00    -1680.00
04476            -280.00    -1680.00
04477            -280.00    -1640.00
04478            -240.00    -1600.00
04479            -280.00    -1600.00
04480            -240.00    -1520.00
04481            -240.00    -1480.00
04482            -240.00    -1480.00
04483            -240.00    -1440.00
04484            -240.00    -1440.00
04485            -240.00    -1400.00
04486            -240.00    -1360.00
04487            -240.00    -1360.00
04488            -240.00    -1320.00
04489            -200.00    -1320.00
04490            -240.00    -1280.00
04491            -240.00    -1200.00
04492            -200.00    -1200.00
04493            -240.00    -1160.00
04494            -200.00    -1160.00
04495            -200.00    -1120.00
04496            -200.00    -1040.00
04497            -200.00    -1040.00
04498            -200.00    -1000.00
04499            -200.00     -960.00
04500            -160.00     -920.00
04501            -200.00     -920.00
04502            -200.00     -920.00
04503            -200.00     -880.00
04504            -120.00     -840.00
04505            -120.00     -800.00
04506            -120.00     -800.00
04507            -120.00     -760.00
04508            -120.00     -720.00
04509            -120.00     -680.00
04510            -120.00     -680.00
04511            -120.00     -640.00
04512            -120.00     -640.00
04513            -120.00     -560.00
04514            -120.00     -560.00
04515             -80.00     -520.00
04516             -80.00     -480.00
04517             -80.00     -440.00
04518             -80.00     -400.00
04519             -80.00     -400.00
04520             -80.00     -360.00
04521             -80.00     -320.00
04522             -80.00     -320.00
04523             -40.00     -320.00
04524             -80.00     -200.00
04525             -40.00     -200.00
04526             -40.00     -160.00
04527             -40.00     -160.00
04528             -40.00     -120.00
04529             -40.00      -80.00
04530             -40.00      -40.00
04531             -40.00      -40.00
04532             -40.00        0.00
04533             -40.00        0.00
04534             -40.00       80.00
04535              40.00       80.00
04536               0.00      120.00
04537               0.00      120.00
04538              40.00      160.00
04539             -40.00      200.00
04540               0.00      240.00
04541              40.00      360.00
04542              40.00      360.00
04543              40.00      320.00
04544             -80.00      280.00
04545             -40.00      400.00
04546              80.00      440.00
04547              80.00      480.00
04548              40.00      480.00
04549              80.00      520.00
04550              80.00      560.00
04551              80.00      560.00
04552              40.00      640.00
04553              80.00      640.00
04554              80.00      680.00
04555              40.00      680.00
04556              80.00      720.00
04557              80.00      800.00
04558              80.00      760.00
04559              80.00      800.00
04560             120.00      880.00
04561              80.00      880.00
04562              80.00      920.00
04563              80.00      960.00
04564              80.00     1000.00
04565             120.00     1040.00
04566             120.00     1080.00
04567             120.00     1080.00
04568             120.00     1120.00
04569             200.00     1120.00
04570             200.00     1160.00
04571             200.00     1200.00
04572             200.00     1200.00
04573             160.00     1240.00
04574             200.00     1280.00
04575             200.00     1320.00
04576             160.00     1320.00
04577             200.00     1400.00
04578             200.00     1400.00
04579             200.00     1440.00
04580             200.00     1480.00
04581             240.00     1520.00
04582             240.00     1560.00
04583             240.00     1520.00
04584             240.00     1600.00
04585             240.00     1600.00
04586             240.00     1640.00
04587             240.00     1680.00
04588             240.00     1680.00
04589             240.00     1760.00
04590             240.00     1760.00
04591             280.00     1800.00
04592             280.00     1840.00
04593             240.00     1840.00
04594             280.00     1880.00
04595             240.00     1920.00
04596             280.00     1920.00
04597             320.00     2000.00
04598             280.00     2000.00
04599             280.00     2040.00
04600             280.00     2040.00
04601             320.00     2080.00
04602             360.00     2080.00
04603             320.00     2160.00
04604             320.00     2160.00
04605             280.00     2200.00
04606             360.00     2200.00
04607             280.00     2200.00
04608             320.00     2240.00
04609             360.00     2320.00
04610             320.00     2320.00
04611             360.00     2360.00
04612             360.00     2400.00
04613             360.00     2400.00
04614             360.00     2440.00
04615             360.00     2480.00
04616             360.00     2520.00
04617             360.00     2520.00
04618             400.00     2560.00
04619             400.00     2560.00
04620             400.00     2600.00
04621             400.00     2680.00
04622             400.00     2640.00
04623             360.00     2680.00
04624             400.00     2680.00
04625             400.00     2720.00
04626             400.00     2720.00
04627             400.00     2800.00
04628             400.00     2840.00
04629             400.00     2840.00
04630             400.00     2920.00
04631             400.00     2920.00
04632             400.00     2920.00
04633             440.00     2960.00
04634             400.00     2960.00
04635             440.00     3000.00
04636             440.00     3000.00
04637             440.00     3040.00
04638             400.00     3040.00
04639             480.00     3120.00
04640             440.00     3120.00
04641             440.00     3160.00
04642             520.00     3160.00
04643             440.00     3160.00
04644             480.00     3200.00
04645             520.00     3240.00
04646             440.00     3280.00
04647             480.00     3280.00
04648             480.00     3320.00
04649             520.00     3320.00
04650             520.00     3360.00
04651             520.00     3400.00
04652             520.00     3360.00
04653             520.00     3440.00
04654             520.00     3440.00
04655             480.00     3480.00
04656             520.00     3480.00
04657             520.00     3480.00
04658             520.00     3520.00
04659             520.00     3520.00
04660             520.00     3600.00
04661             520.00     3560.00
04662             520.00     3640.00
04663             520.00     3640.00
04664             560.00     3680.00
04665             560.00     3680.00
04666             560.00     3680.00
04667             560.00     3760.00
04668             560.00     3760.00
04669             600.00     3760.00
04670             560.00     3800.00
04671             560.00     3800.00
04672             560.00     3800.00
04673             560.00     3840.00
04674             560.00     3840.00
04675             560.00     3880.00
04676             560.00     3920.00
04677             560.00     3920.00
04678             560.00     3920.00
04679             600.00     3960.00
04680             560.00     4000.00
04681             560.00     4000.00
04682             560.00     4000.00
04683             600.00     4000.00
04684             600.00     4080.00
04685             560.00     4080.00
04686             600.00     4080.00
04687             600.00     4120.00
04688             600.00     4120.00
04689             600.00     4120.00
04690             600.00     4160.00
04691             600.00     4200.00
04692             600.00     4200.00
04693             600.00     4160.00
04694             640.00     4240.00
04695             600.00     4240.00
04696             640.00     4240.00
04697             600.00     4280.00
04698             600.00     4320.00
04699             640.00     4320.00
04700             680.00     4280.00
04701             640.00     4320.00
04702             680.00     4320.00
04703             680.00     4360.00
04704             680.00     4400.00
04705             680.00     4400.00
04706             680.00     4400.00
04707             680.00     4400.00
04708             680.00     4440.00
04709             680.00     4480.00
04710             720.00     4440.00
04711             680.00     4480.00
04712             680.00     4480.00
04713             680.00     4480.00
04714             680.00     4480.00
04715             680.00     4520.00
04716             680.00     4560.00
04717             720.00     4560.00
04718             680.00     4600.00
04719             720.00     4560.00
04720             720.00     4600.00
04721             720.00     4600.00
04722             720.00     4600.00
04723             720.00     4640.00
04724             720.00     4640.00
04725             720.00     4640.00
04726             720.00     4640.00
04727             720.00     4680.00
04728             720.00     4640.00
04729             720.00     4720.00
04730             720.00     4720.00
04731             720.00     4720.00
04732             760.00     4720.00
04733             720.00     4720.00
04734             720.00     4760.00
04735             720.00     4760.00
04736             720.00     4760.00
04737             720.00     4760.00
04738             720.00     4760.00
04739             720.00     4800.00
04740             720.00     4760.00
04741             720.00     4760.00
04742             720.00     4800.00
04743             720.00     4800.00
04744             720.00     4840.00
04745             720.00     4800.00
04746             720.00     4800.00
04747             720.00     4840.00
04748             720.00     4840.00
04749             720.00     4880.00
04750             720.00     4880.00
04751             720.00     4880.00
04752             720.00     4880.00
04753             720.00     4880.00
04754             720.00     4880.00
04755             720.00     4880.00
04756             760.00     4920.00
04757             720.00     4920.00
04758             720.00     4880.00
04759             720.00     4920.00
04760             760.00     4920.00
04761             720.00     4920.00
04762             720.00     4920.00
04763             760.00     4920.00
04764             720.00     4960.00
04765             760.00     4960.00
04766             720.00     4960.00
04767             760.00     4960.00
04768             720.00     4960.00
04769             800.00     4960.00
04770             720.00     4960.00
04771             760.00     4960.00
04772             720.00     4920.00
04773             720.00     4960.00
04774             720.00     4960.00
04775             760.00     4960.00
04776             760.00     4960.00
04777             760.00     4960.00
04778             760.00     4960.00
04779             760.00     4960.00
04780             760.00     4960.00
04781             760.00     4960.00
04782             720.00     4960.00
04783             800.00     4960.00
04784             760.00     4960.00
04785             760.00     4960.00
04786             800.00     4960.00
04787             760.00     4960.00
04788             760.00     4960.00
04789             760.00     4960.00
04790             760.00     4960.00
04791             720.00     4960.00
04792             760.00     4960.00
04793             760.00     4960.00
04794             760.00     4960.00
04795             760.00     4960.00
04796             760.00     4960.00
04797             760.00     4960.00
04798             760.00     4960.00
04799             760.00     4960.00
04800             760.00     4920.00
04801             760.00     4960.00
04802             720.00     4960.00
04803             720.00     4920.00
04804             760.00     4920.00
04805             760.00     4920.00
04806             720.00     4920.00
04807             720.00     4920.00
04808             760.00     4920.00
04809             760.00     4920.00
04810             720.00     4880.00
04811             760.00     4920.00
04812             760.00     4920.00
04813             760.00     4880.00
04814             720.00     4880.00
04815             720.00     4880.00
04816             760.00     4880.00
04817             720.00     4880.00
04818             720.00     4880.00
04819             720.00     4880.00
04820             720.00     4840.00
04821             720.00     4880.00
04822             720.00     4840.00
04823             720.00     4840.00
04824             760.00     4840.00
04825             720.00     4800.00
04826             720.00     4800.00
04827             720.00     4800.00
04828             720.00     4800.00
04829             720.00     4800.00
04830             760.00     4800.00
04831             720.00     4800.00
04832             720.00     4760.00
04833             760.00     4760.00
04834             720.00     4760.00
04835             720.00     4760.00
04836             720.00     4760.00
04837             720.00     4720.00
04838             720.00     4720.00
04839             720.00     4680.00
04840             720.00     4720.00
04841             720.00     4720.00
04842             720.00     4680.00
04843             720.00     4640.00
04844             720.00     4640.00
04845             720.00     4640.00
04846             720.00     4640.00
04847             720.00     4600.00
04848             720.00     4600.00
04849             720.00     4600.00
04850             720.00     4560.00
04851             720.00     4600.00
04852             720.00     4560.00
04853             720.00     4560.00
04854             720.00     4560.00
04855             720.00     4520.00
04856             720.00     4520.00
04857             720.00     4480.00
04858             720.00     4480.00
04859             680.00     4480.00
04860             720.00     4480.00
04861             720.00     4440.00
04862             720.00     4440.00
04863             720.00     4440.00
04864             680.00     4400.00
04865             720.00     4400.00
04866             720.00     4360.00
04867             680.00     4360.00
04868             720.00     4320.00
04869             680.00     4320.00
04870             680.00     4320.00
04871             680.00     4280.00
04872             680.00     4280.00
04873             680.00     4280.00
04874             680.00     4240.00
04875             680.00     4240.00
04876             680.00     4240.00
04877             680.00     4200.00
04878             680.00     4200.00
04879             600.00     4160.00
04880             680.00     4200.00
04881             600.00     4120.00
04882             600.00     4120.00
04883             640.00     4120.00
04884             600.00     4080.00
04885             640.00     4080.00
04886             600.00     4040.00
04887             600.00     4000.00
04888             600.00     4000.00
04889             600.00     4000.00
04890             600.00     3960.00
04891             600.00     3960.00
04892             600.00     3920.00
04893             600.00     3920.00
04894             600.00     3920.00
04895             600.00     3880.00
04896             600.00     3840.00
04897             600.00     3840.00
04898             600.00     3840.00
04899             600.00     3800.00
04900             600.00     3800.00
04901             560.00     3760.00
04902             560.00     3760.00
04903             600.00     3720.00
04904             560.00     3720.00
04905             600.00     3680.00
04906             600.00     3640.00
04907             560.00     3640.00
04908             600.00     3640.00
04909             560.00     3600.00
04910             560.00     3600.00
04911             560.00     3520.00
04912             560.00     3520.00
04913             560.00     3480.00
04914             560.00     3520.00
04915             520.00     3480.00
04916             560.00     3440.00
04917             520.00     3440.00
04918             520.00     3360.00
04919             520.00     3360.00
04920             520.00     3360.00
04921             560.00     3320.00
04922             520.00     3280.00
04923             520.00     3280.00
04924             520.00     3280.00
04925             520.00     3280.00
04926             520.00     3200.00
04927             520.00     3200.00
04928             520.00     3200.00
04929             520.00     3120.00
04930             520.00     3120.00
04931             520.00     3120.00
04932             440.00     3080.00
04933             520.00     3040.00
04934             440.00     3000.00
04935             440.00     3000.00
04936             480.00     3000.00
04937             440.00     2960.00
04938             440.00     2920.00
04939             440.00     2880.00
04940             440.00     2920.00
04941             440.00     2880.00
04942             440.00     2840.00
04943             440.00     2840.00
04944             440.00     2800.00
04945             400.00     2760.00
04946             440.00     2720.00
04947             400.00     2680.00
04948             440.00     2680.00
04949             440.00     2640.00
04950             400.00     2600.00
04951             400.00     2600.00
04952             440.00     2560.00
04953             400.00     2520.00
04954             400.00     2520.00
04955             400.00     2520.00
04956             400.00     2480.00
04957             400.00     2400.00
04958             400.00     2400.00
04959             400.00     2400.00
04960             400.00     2360.00
04961             400.00     2320.00
04962             400.00     2320.00
04963             360.00     2280.00
04964             360.00     2240.00
04965             360.00     2200.00
04966             360.00     2200.00
04967             360.00     2160.00
04968             360.00     2160.00
04969             360.00     2120.00
04970             360.00     2080.00
04971             360.00     2040.00
04972             360.00     2040.00
04973             360.00     2000.00
04974             360.00     1920.00
04975             360.00     1920.00
04976             360.00     1880.00
04977             360.00     1920.00
04978             320.00     1840.00
04979             280.00     1840.00
04980             280.00     1840.00
04981             280.00     1800.00
04982             280.00     1720.00
04983             280.00     1720.00
04984             280.00     1680.00
04985             280.00     1680.00
04986             280.00     1640.00
04987             240.00     1600.00
04988             280.00     1560.00
04989             280.00     1560.00
04990             240.00     1520.00
04991             280.00     1480.00
04992             240.00     1440.00
04993             240.00     1400.00
04994             240.00     1400.00
04995             240.00     1360.00
04996             200.00     1360.00
04997             200.00     1280.00
04998             200.00     1280.00
04999             200.00     1240.00
05000             200.00     1240.00
