Unit:(mV)
                     CH1         CH2
Frequency              ?  98.321 kHz
00001             120.00    -1200.00
00002             120.00    -1240.00
00003             120.00    -1280.00
00004             120.00    -1320.00
00005             200.00    -1320.00
00006             120.00    -1360.00
00007             160.00    -1360.00
00008             160.00    -1400.00
00009             160.00    -1440.00
00010             120.00    -1440.00
00011             160.00    -1480.00
00012             200.00    -1480.00
00013             200.00    -1520.00
00014             200.00    -1560.00
00015             200.00    -1560.00
00016             200.00    -1600.00
00017             200.00    -1640.00
00018             200.00    -1640.00
00019             200.00    -1680.00
00020             200.00    -1680.00
00021             200.00    -1720.00
00022             200.00    -1760.00
00023             240.00    -1800.00
00024             200.00    -1800.00
00025             240.00    -1840.00
00026             200.00    -1840.00
00027             240.00    -1840.00
00028             240.00    -1920.00
00029             200.00    -1920.00
00030             240.00    -1920.00
00031             240.00    -1960.00
00032             240.00    -1960.00
00033             240.00    -2000.00
00034             200.00    -2040.00
00035             240.00    -2080.00
00036             200.00    -2080.00
00037             240.00    -2120.00
00038             240.00    -2120.00
00039             240.00    -2160.00
00040             280.00    -2200.00
00041             240.00    -2240.00
00042             240.00    -2200.00
00043             240.00    -2280.00
00044             280.00    -2280.00
00045             280.00    -2320.00
00046             240.00    -2320.00
00047             280.00    -2360.00
00048             280.00    -2360.00
00049             280.00    -2400.00
00050             240.00    -2440.00
00051             240.00    -2440.00
00052             280.00    -2480.00
00053             280.00    -2480.00
00054             280.00    -2480.00
00055             360.00    -2560.00
00056             280.00    -2560.00
00057             280.00    -2600.00
00058             320.00    -2600.00
00059             280.00    -2640.00
00060             280.00    -2640.00
00061             360.00    -2640.00
00062             280.00    -2720.00
00063             280.00    -2720.00
00064             360.00    -2720.00
00065             320.00    -2760.00
00066             360.00    -2760.00
00067             320.00    -2800.00
00068             360.00    -2800.00
00069             360.00    -2840.00
00070             360.00    -2880.00
00071             360.00    -2880.00
00072             360.00    -2880.00
00073             360.00    -2920.00
00074             400.00    -2960.00
00075             360.00    -2960.00
00076             360.00    -2960.00
00077             400.00    -2960.00
00078             360.00    -3000.00
00079             360.00    -3040.00
00080             360.00    -3080.00
00081             360.00    -3040.00
00082             360.00    -3080.00
00083             400.00    -3120.00
00084             360.00    -3120.00
00085             400.00    -3120.00
00086             400.00    -3160.00
00087             360.00    -3200.00
00088             400.00    -3200.00
00089             400.00    -3200.00
00090             400.00    -3240.00
00091             400.00    -3280.00
00092             400.00    -3240.00
00093             400.00    -3280.00
00094             400.00    -3280.00
00095             400.00    -3360.00
00096             400.00    -3360.00
00097             400.00    -3360.00
00098             400.00    -3400.00
00099             400.00    -3400.00
00100             400.00    -3400.00
00101             440.00    -3440.00
00102             400.00    -3440.00
00103             400.00    -3440.00
00104             400.00    -3480.00
00105             400.00    -3520.00
00106             440.00    -3560.00
00107             400.00    -3520.00
00108             440.00    -3560.00
00109             400.00    -3560.00
00110             400.00    -3560.00
00111             440.00    -3600.00
00112             440.00    -3640.00
00113             440.00    -3640.00
00114             440.00    -3640.00
00115             440.00    -3680.00
00116             400.00    -3680.00
00117             440.00    -3680.00
00118             440.00    -3720.00
00119             440.00    -3760.00
00120             440.00    -3760.00
00121             480.00    -3720.00
00122             440.00    -3760.00
00123             440.00    -3760.00
00124             440.00    -3760.00
00125             480.00    -3800.00
00126             480.00    -3800.00
00127             440.00    -3840.00
00128             480.00    -3840.00
00129             520.00    -3840.00
00130             480.00    -3880.00
00131             480.00    -3880.00
00132             440.00    -3920.00
00133             480.00    -3920.00
00134             520.00    -3920.00
00135             480.00    -3920.00
00136             520.00    -3920.00
00137             520.00    -3920.00
00138             520.00    -4000.00
00139             520.00    -3960.00
00140             520.00    -4000.00
00141             520.00    -4000.00
00142             520.00    -4040.00
00143             520.00    -4000.00
00144             480.00    -4040.00
00145             520.00    -4040.00
00146             520.00    -4040.00
00147             520.00    -4080.00
00148             520.00    -4080.00
00149             520.00    -4080.00
00150             560.00    -4080.00
00151             520.00    -4080.00
00152             520.00    -4120.00
00153             520.00    -4080.00
00154             520.00    -4160.00
00155             520.00    -4160.00
00156             520.00    -4160.00
00157             520.00    -4160.00
00158             560.00    -4160.00
00159             520.00    -4160.00
00160             520.00    -4160.00
00161             520.00    -4200.00
00162             520.00    -4200.00
00163             520.00    -4200.00
00164             520.00    -4200.00
00165             520.00    -4240.00
00166             560.00    -4240.00
00167             520.00    -4240.00
00168             520.00    -4240.00
00169             520.00    -4240.00
00170             520.00    -4240.00
00171             560.00    -4240.00
00172             520.00    -4240.00
00173             520.00    -4280.00
00174             520.00    -4280.00
00175             560.00    -4320.00
00176             520.00    -4280.00
00177             520.00    -4320.00
00178             520.00    -4280.00
00179             520.00    -4320.00
00180             520.00    -4320.00
00181             520.00    -4320.00
00182             520.00    -4320.00
00183             520.00    -4320.00
00184             520.00    -4320.00
00185             520.00    -4320.00
00186             520.00    -4360.00
00187             520.00    -4360.00
00188             560.00    -4320.00
00189             520.00    -4360.00
00190             520.00    -4360.00
00191             520.00    -4320.00
00192             520.00    -4360.00
00193             520.00    -4360.00
00194             560.00    -4360.00
00195             560.00    -4360.00
00196             560.00    -4360.00
00197             560.00    -4360.00
00198             520.00    -4360.00
00199             560.00    -4400.00
00200             560.00    -4400.00
00201             560.00    -4360.00
00202             560.00    -4360.00
00203             560.00    -4360.00
00204             560.00    -4360.00
00205             560.00    -4360.00
00206             560.00    -4400.00
00207             560.00    -4400.00
00208             560.00    -4360.00
00209             560.00    -4400.00
00210             560.00    -4400.00
00211             560.00    -4400.00
00212             520.00    -4360.00
00213             560.00    -4400.00
00214             560.00    -4400.00
00215             560.00    -4360.00
00216             560.00    -4360.00
00217             560.00    -4360.00
00218             560.00    -4360.00
00219             560.00    -4360.00
00220             560.00    -4400.00
00221             560.00    -4320.00
00222             600.00    -4360.00
00223             560.00    -4360.00
00224             560.00    -4360.00
00225             560.00    -4320.00
00226             560.00    -4360.00
00227             520.00    -4360.00
00228             560.00    -4320.00
00229             520.00    -4360.00
00230             520.00    -4360.00
00231             560.00    -4320.00
00232             560.00    -4320.00
00233             560.00    -4360.00
00234             520.00    -4320.00
00235             560.00    -4320.00
00236             520.00    -4320.00
00237             560.00    -4320.00
00238             520.00    -4320.00
00239             520.00    -4320.00
00240             560.00    -4320.00
00241             520.00    -4280.00
00242             560.00    -4320.00
00243             560.00    -4280.00
00244             520.00    -4280.00
00245             520.00    -4240.00
00246             520.00    -4280.00
00247             560.00    -4280.00
00248             560.00    -4240.00
00249             560.00    -4240.00
00250             520.00    -4240.00
00251             520.00    -4240.00
00252             520.00    -4200.00
00253             520.00    -4200.00
00254             520.00    -4200.00
00255             520.00    -4200.00
00256             520.00    -4200.00
00257             520.00    -4200.00
00258             520.00    -4200.00
00259             560.00    -4160.00
00260             520.00    -4160.00
00261             560.00    -4160.00
00262             520.00    -4160.00
00263             520.00    -4160.00
00264             520.00    -4160.00
00265             520.00    -4120.00
00266             560.00    -4120.00
00267             560.00    -4080.00
00268             520.00    -4080.00
00269             520.00    -4080.00
00270             520.00    -4040.00
00271             520.00    -4040.00
00272             560.00    -4040.00
00273             560.00    -4040.00
00274             520.00    -4000.00
00275             520.00    -4000.00
00276             520.00    -4000.00
00277             520.00    -4000.00
00278             520.00    -4000.00
00279             520.00    -3960.00
00280             520.00    -3960.00
00281             520.00    -3920.00
00282             520.00    -3920.00
00283             520.00    -3960.00
00284             520.00    -3880.00
00285             520.00    -3880.00
00286             520.00    -3880.00
00287             520.00    -3880.00
00288             520.00    -3840.00
00289             520.00    -3840.00
00290             520.00    -3880.00
00291             520.00    -3840.00
00292             520.00    -3840.00
00293             520.00    -3800.00
00294             480.00    -3760.00
00295             520.00    -3760.00
00296             520.00    -3760.00
00297             520.00    -3720.00
00298             440.00    -3760.00
00299             520.00    -3720.00
00300             480.00    -3680.00
00301             480.00    -3680.00
00302             520.00    -3680.00
00303             520.00    -3640.00
00304             440.00    -3640.00
00305             520.00    -3640.00
00306             440.00    -3600.00
00307             520.00    -3600.00
00308             440.00    -3560.00
00309             440.00    -3560.00
00310             440.00    -3520.00
00311             440.00    -3560.00
00312             440.00    -3520.00
00313             520.00    -3480.00
00314             440.00    -3520.00
00315             440.00    -3440.00
00316             440.00    -3480.00
00317             440.00    -3440.00
00318             440.00    -3440.00
00319             440.00    -3400.00
00320             440.00    -3400.00
00321             440.00    -3360.00
00322             440.00    -3360.00
00323             440.00    -3360.00
00324             440.00    -3280.00
00325             440.00    -3280.00
00326             440.00    -3280.00
00327             440.00    -3280.00
00328             440.00    -3240.00
00329             440.00    -3240.00
00330             440.00    -3200.00
00331             440.00    -3200.00
00332             440.00    -3160.00
00333             440.00    -3120.00
00334             440.00    -3120.00
00335             440.00    -3120.00
00336             400.00    -3080.00
00337             440.00    -3080.00
00338             440.00    -3040.00
00339             440.00    -3040.00
00340             440.00    -3040.00
00341             400.00    -2960.00
00342             400.00    -3000.00
00343             400.00    -2960.00
00344             400.00    -2920.00
00345             400.00    -2920.00
00346             400.00    -2880.00
00347             400.00    -2880.00
00348             400.00    -2880.00
00349             400.00    -2840.00
00350             440.00    -2800.00
00351             440.00    -2800.00
00352             360.00    -2760.00
00353             400.00    -2760.00
00354             400.00    -2760.00
00355             360.00    -2720.00
00356             400.00    -2680.00
00357             400.00    -2680.00
00358             360.00    -2640.00
00359             400.00    -2600.00
00360             360.00    -2600.00
00361             360.00    -2600.00
00362             360.00    -2560.00
00363             360.00    -2560.00
00364             360.00    -2560.00
00365             360.00    -2480.00
00366             360.00    -2480.00
00367             360.00    -2480.00
00368             360.00    -2440.00
00369             360.00    -2400.00
00370             280.00    -2400.00
00371             320.00    -2400.00
00372             360.00    -2320.00
00373             280.00    -2320.00
00374             280.00    -2280.00
00375             360.00    -2280.00
00376             320.00    -2200.00
00377             280.00    -2240.00
00378             280.00    -2200.00
00379             320.00    -2200.00
00380             280.00    -2160.00
00381             280.00    -2120.00
00382             280.00    -2120.00
00383             280.00    -2080.00
00384             280.00    -2080.00
00385             320.00    -2000.00
00386             280.00    -2000.00
00387             280.00    -1960.00
00388             280.00    -1960.00
00389             280.00    -1920.00
00390             240.00    -1920.00
00391             280.00    -1920.00
00392             240.00    -1880.00
00393             240.00    -1840.00
00394             240.00    -1840.00
00395             240.00    -1800.00
00396             240.00    -1760.00
00397             280.00    -1760.00
00398             280.00    -1720.00
00399             280.00    -1680.00
00400             240.00    -1680.00
00401             240.00    -1680.00
00402             240.00    -1600.00
00403             240.00    -1600.00
00404             240.00    -1600.00
00405             240.00    -1560.00
00406             240.00    -1520.00
00407             240.00    -1480.00
00408             200.00    -1480.00
00409             240.00    -1440.00
00410             200.00    -1440.00
00411             240.00    -1400.00
00412             240.00    -1360.00
00413             240.00    -1360.00
00414             240.00    -1320.00
00415             200.00    -1320.00
00416             200.00    -1280.00
00417             200.00    -1240.00
00418             200.00    -1200.00
00419             200.00    -1200.00
00420             240.00    -1160.00
00421             200.00    -1160.00
00422             200.00    -1120.00
00423             200.00    -1120.00
00424             200.00    -1080.00
00425             200.00    -1040.00
00426             160.00    -1000.00
00427             120.00     -960.00
00428             120.00     -920.00
00429             120.00     -920.00
00430             160.00     -920.00
00431             120.00     -840.00
00432             120.00     -840.00
00433             120.00     -840.00
00434             120.00     -800.00
00435             120.00     -800.00
00436             120.00     -760.00
00437             120.00     -720.00
00438             120.00     -680.00
00439             120.00     -680.00
00440              80.00     -640.00
00441              80.00     -640.00
00442              80.00     -560.00
00443              80.00     -560.00
00444              80.00     -520.00
00445              80.00     -520.00
00446              80.00     -480.00
00447              80.00     -480.00
00448              80.00     -440.00
00449              80.00     -400.00
00450              80.00     -400.00
00451              80.00     -360.00
00452              80.00     -320.00
00453              80.00     -320.00
00454              80.00     -320.00
00455              80.00     -240.00
00456              80.00     -200.00
00457              80.00     -200.00
00458              40.00     -160.00
00459              40.00     -120.00
00460              40.00      -80.00
00461              80.00      -80.00
00462              40.00      -80.00
00463              80.00      -40.00
00464              40.00        0.00
00465              80.00        0.00
00466              40.00       40.00
00467              40.00       80.00
00468              40.00       80.00
00469              40.00      120.00
00470              40.00      160.00
00471              40.00      160.00
00472              40.00      160.00
00473              40.00      240.00
00474              40.00      280.00
00475              40.00      360.00
00476              40.00      360.00
00477             -40.00      280.00
00478             -80.00      360.00
00479             -40.00      400.00
00480              40.00      440.00
00481               0.00      480.00
00482             -40.00      480.00
00483               0.00      520.00
00484             -80.00      520.00
00485             -40.00      560.00
00486             -40.00      640.00
00487             -40.00      600.00
00488             -80.00      640.00
00489             -80.00      640.00
00490             -80.00      680.00
00491             -80.00      720.00
00492             -80.00      760.00
00493             -80.00      800.00
00494             -80.00      800.00
00495            -120.00      800.00
00496            -120.00      840.00
00497             -80.00      880.00
00498             -80.00      920.00
00499             -80.00      960.00
00500            -120.00      960.00
00501             -80.00     1000.00
00502            -120.00     1040.00
00503            -120.00     1040.00
00504            -120.00     1080.00
00505            -120.00     1080.00
00506            -120.00     1120.00
00507            -120.00     1120.00
00508            -120.00     1200.00
00509            -120.00     1240.00
00510            -120.00     1240.00
00511            -120.00     1280.00
00512            -120.00     1280.00
00513            -120.00     1280.00
00514            -120.00     1360.00
00515            -120.00     1360.00
00516            -160.00     1360.00
00517            -120.00     1400.00
00518            -120.00     1440.00
00519            -120.00     1440.00
00520            -120.00     1520.00
00521            -120.00     1520.00
00522            -200.00     1520.00
00523            -160.00     1600.00
00524            -200.00     1640.00
00525            -200.00     1640.00
00526            -200.00     1680.00
00527            -200.00     1680.00
00528            -200.00     1680.00
00529            -200.00     1720.00
00530            -120.00     1760.00
00531            -200.00     1760.00
00532            -160.00     1760.00
00533            -200.00     1840.00
00534            -200.00     1840.00
00535            -200.00     1880.00
00536            -200.00     1920.00
00537            -200.00     1880.00
00538            -200.00     1920.00
00539            -200.00     2000.00
00540            -200.00     2000.00
00541            -200.00     2000.00
00542            -200.00     2040.00
00543            -240.00     2080.00
00544            -240.00     2120.00
00545            -240.00     2080.00
00546            -240.00     2160.00
00547            -240.00     2160.00
00548            -240.00     2200.00
00549            -240.00     2200.00
00550            -240.00     2240.00
00551            -240.00     2240.00
00552            -240.00     2280.00
00553            -240.00     2320.00
00554            -240.00     2320.00
00555            -240.00     2360.00
00556            -240.00     2360.00
00557            -240.00     2400.00
00558            -280.00     2400.00
00559            -280.00     2480.00
00560            -280.00     2480.00
00561            -280.00     2480.00
00562            -280.00     2520.00
00563            -280.00     2520.00
00564            -320.00     2560.00
00565            -280.00     2560.00
00566            -320.00     2560.00
00567            -280.00     2600.00
00568            -360.00     2640.00
00569            -360.00     2640.00
00570            -280.00     2680.00
00571            -360.00     2680.00
00572            -280.00     2720.00
00573            -360.00     2720.00
00574            -320.00     2760.00
00575            -280.00     2800.00
00576            -360.00     2840.00
00577            -360.00     2840.00
00578            -360.00     2880.00
00579            -360.00     2880.00
00580            -360.00     2920.00
00581            -320.00     2920.00
00582            -360.00     2960.00
00583            -360.00     2960.00
00584            -360.00     2960.00
00585            -360.00     3000.00
00586            -360.00     3040.00
00587            -360.00     3040.00
00588            -360.00     3040.00
00589            -360.00     3080.00
00590            -360.00     3120.00
00591            -360.00     3120.00
00592            -400.00     3160.00
00593            -400.00     3160.00
00594            -400.00     3200.00
00595            -400.00     3200.00
00596            -360.00     3240.00
00597            -400.00     3240.00
00598            -400.00     3240.00
00599            -400.00     3280.00
00600            -360.00     3280.00
00601            -400.00     3320.00
00602            -400.00     3320.00
00603            -400.00     3360.00
00604            -400.00     3360.00
00605            -400.00     3360.00
00606            -400.00     3400.00
00607            -400.00     3440.00
00608            -400.00     3440.00
00609            -440.00     3440.00
00610            -400.00     3440.00
00611            -440.00     3480.00
00612            -400.00     3480.00
00613            -440.00     3520.00
00614            -400.00     3520.00
00615            -440.00     3520.00
00616            -440.00     3520.00
00617            -400.00     3600.00
00618            -440.00     3600.00
00619            -440.00     3600.00
00620            -440.00     3600.00
00621            -440.00     3640.00
00622            -440.00     3680.00
00623            -440.00     3680.00
00624            -440.00     3680.00
00625            -440.00     3680.00
00626            -440.00     3680.00
00627            -440.00     3760.00
00628            -440.00     3760.00
00629            -440.00     3760.00
00630            -440.00     3760.00
00631            -440.00     3760.00
00632            -480.00     3800.00
00633            -440.00     3800.00
00634            -480.00     3840.00
00635            -440.00     3840.00
00636            -440.00     3840.00
00637            -520.00     3840.00
00638            -520.00     3880.00
00639            -520.00     3880.00
00640            -480.00     3920.00
00641            -480.00     3920.00
00642            -440.00     3920.00
00643            -520.00     3960.00
00644            -520.00     3920.00
00645            -480.00     3960.00
00646            -520.00     3960.00
00647            -520.00     3960.00
00648            -440.00     4000.00
00649            -440.00     4000.00
00650            -480.00     4000.00
00651            -440.00     4000.00
00652            -520.00     4040.00
00653            -520.00     4000.00
00654            -520.00     4080.00
00655            -520.00     4080.00
00656            -520.00     4080.00
00657            -480.00     4080.00
00658            -520.00     4080.00
00659            -520.00     4120.00
00660            -520.00     4160.00
00661            -480.00     4160.00
00662            -520.00     4120.00
00663            -520.00     4160.00
00664            -520.00     4160.00
00665            -520.00     4200.00
00666            -480.00     4200.00
00667            -520.00     4200.00
00668            -520.00     4200.00
00669            -560.00     4240.00
00670            -520.00     4200.00
00671            -560.00     4240.00
00672            -520.00     4240.00
00673            -520.00     4200.00
00674            -520.00     4240.00
00675            -520.00     4240.00
00676            -520.00     4240.00
00677            -520.00     4280.00
00678            -560.00     4280.00
00679            -520.00     4280.00
00680            -520.00     4280.00
00681            -560.00     4280.00
00682            -520.00     4280.00
00683            -520.00     4280.00
00684            -560.00     4280.00
00685            -560.00     4320.00
00686            -520.00     4280.00
00687            -560.00     4280.00
00688            -560.00     4320.00
00689            -560.00     4320.00
00690            -560.00     4320.00
00691            -560.00     4320.00
00692            -560.00     4320.00
00693            -560.00     4320.00
00694            -560.00     4360.00
00695            -560.00     4360.00
00696            -560.00     4320.00
00697            -560.00     4320.00
00698            -560.00     4360.00
00699            -560.00     4360.00
00700            -560.00     4320.00
00701            -560.00     4360.00
00702            -560.00     4360.00
00703            -560.00     4360.00
00704            -560.00     4320.00
00705            -560.00     4400.00
00706            -560.00     4360.00
00707            -560.00     4400.00
00708            -560.00     4400.00
00709            -520.00     4360.00
00710            -560.00     4400.00
00711            -560.00     4400.00
00712            -560.00     4400.00
00713            -560.00     4400.00
00714            -560.00     4400.00
00715            -520.00     4400.00
00716            -560.00     4400.00
00717            -520.00     4400.00
00718            -560.00     4400.00
00719            -560.00     4400.00
00720            -560.00     4400.00
00721            -560.00     4400.00
00722            -560.00     4400.00
00723            -560.00     4400.00
00724            -560.00     4400.00
00725            -560.00     4400.00
00726            -520.00     4400.00
00727            -560.00     4360.00
00728            -560.00     4360.00
00729            -560.00     4360.00
00730            -560.00     4320.00
00731            -560.00     4360.00
00732            -560.00     4400.00
00733            -520.00     4360.00
00734            -560.00     4360.00
00735            -560.00     4320.00
00736            -560.00     4320.00
00737            -520.00     4360.00
00738            -560.00     4360.00
00739            -560.00     4360.00
00740            -520.00     4320.00
00741            -520.00     4360.00
00742            -560.00     4320.00
00743            -560.00     4320.00
00744            -560.00     4320.00
00745            -560.00     4320.00
00746            -560.00     4320.00
00747            -560.00     4320.00
00748            -560.00     4280.00
00749            -560.00     4280.00
00750            -560.00     4280.00
00751            -520.00     4280.00
00752            -560.00     4280.00
00753            -560.00     4280.00
00754            -560.00     4280.00
00755            -560.00     4240.00
00756            -560.00     4280.00
00757            -560.00     4280.00
00758            -520.00     4240.00
00759            -560.00     4240.00
00760            -560.00     4240.00
00761            -560.00     4240.00
00762            -560.00     4240.00
00763            -560.00     4240.00
00764            -560.00     4200.00
00765            -560.00     4200.00
00766            -560.00     4160.00
00767            -520.00     4200.00
00768            -560.00     4200.00
00769            -560.00     4160.00
00770            -560.00     4160.00
00771            -560.00     4160.00
00772            -560.00     4160.00
00773            -520.00     4120.00
00774            -560.00     4120.00
00775            -560.00     4120.00
00776            -520.00     4120.00
00777            -520.00     4080.00
00778            -520.00     4120.00
00779            -520.00     4080.00
00780            -560.00     4080.00
00781            -520.00     4040.00
00782            -520.00     4040.00
00783            -520.00     4040.00
00784            -560.00     4000.00
00785            -520.00     4000.00
00786            -520.00     4000.00
00787            -520.00     3960.00
00788            -520.00     3960.00
00789            -520.00     3960.00
00790            -520.00     3960.00
00791            -520.00     3920.00
00792            -520.00     3920.00
00793            -520.00     3920.00
00794            -480.00     3920.00
00795            -520.00     3920.00
00796            -480.00     3880.00
00797            -480.00     3840.00
00798            -520.00     3840.00
00799            -440.00     3840.00
00800            -520.00     3840.00
00801            -520.00     3800.00
00802            -480.00     3840.00
00803            -440.00     3800.00
00804            -480.00     3800.00
00805            -440.00     3760.00
00806            -520.00     3760.00
00807            -520.00     3760.00
00808            -440.00     3760.00
00809            -440.00     3680.00
00810            -480.00     3680.00
00811            -440.00     3680.00
00812            -480.00     3680.00
00813            -480.00     3640.00
00814            -480.00     3640.00
00815            -440.00     3600.00
00816            -440.00     3600.00
00817            -440.00     3600.00
00818            -480.00     3600.00
00819            -440.00     3520.00
00820            -440.00     3520.00
00821            -480.00     3520.00
00822            -440.00     3480.00
00823            -440.00     3520.00
00824            -440.00     3480.00
00825            -440.00     3440.00
00826            -440.00     3440.00
00827            -480.00     3440.00
00828            -440.00     3440.00
00829            -440.00     3360.00
00830            -440.00     3360.00
00831            -440.00     3360.00
00832            -440.00     3320.00
00833            -440.00     3320.00
00834            -440.00     3320.00
00835            -440.00     3280.00
00836            -440.00     3280.00
00837            -440.00     3280.00
00838            -440.00     3240.00
00839            -440.00     3200.00
00840            -440.00     3200.00
00841            -440.00     3160.00
00842            -440.00     3160.00
00843            -440.00     3160.00
00844            -440.00     3120.00
00845            -440.00     3120.00
00846            -440.00     3120.00
00847            -440.00     3040.00
00848            -400.00     3040.00
00849            -400.00     3000.00
00850            -400.00     3000.00
00851            -440.00     2960.00
00852            -400.00     2960.00
00853            -400.00     2960.00
00854            -400.00     2960.00
00855            -400.00     2880.00
00856            -400.00     2920.00
00857            -400.00     2880.00
00858            -400.00     2840.00
00859            -360.00     2840.00
00860            -360.00     2800.00
00861            -400.00     2760.00
00862            -400.00     2720.00
00863            -360.00     2720.00
00864            -360.00     2720.00
00865            -360.00     2680.00
00866            -360.00     2680.00
00867            -360.00     2640.00
00868            -360.00     2640.00
00869            -360.00     2600.00
00870            -360.00     2560.00
00871            -360.00     2560.00
00872            -360.00     2520.00
00873            -360.00     2520.00
00874            -360.00     2480.00
00875            -360.00     2480.00
00876            -360.00     2480.00
00877            -360.00     2440.00
00878            -320.00     2400.00
00879            -280.00     2360.00
00880            -360.00     2360.00
00881            -320.00     2320.00
00882            -280.00     2320.00
00883            -360.00     2280.00
00884            -280.00     2240.00
00885            -280.00     2240.00
00886            -320.00     2240.00
00887            -280.00     2200.00
00888            -320.00     2200.00
00889            -280.00     2160.00
00890            -280.00     2160.00
00891            -280.00     2120.00
00892            -280.00     2080.00
00893            -280.00     2040.00
00894            -280.00     2040.00
00895            -280.00     2000.00
00896            -280.00     2000.00
00897            -240.00     1960.00
00898            -280.00     1920.00
00899            -280.00     1920.00
00900            -240.00     1920.00
00901            -240.00     1880.00
00902            -280.00     1840.00
00903            -240.00     1800.00
00904            -280.00     1800.00
00905            -240.00     1760.00
00906            -240.00     1760.00
00907            -240.00     1720.00
00908            -240.00     1680.00
00909            -200.00     1680.00
00910            -240.00     1680.00
00911            -240.00     1600.00
00912            -240.00     1600.00
00913            -240.00     1600.00
00914            -240.00     1560.00
00915            -240.00     1520.00
00916            -200.00     1520.00
00917            -200.00     1440.00
00918            -240.00     1440.00
00919            -200.00     1400.00
00920            -200.00     1400.00
00921            -200.00     1360.00
00922            -120.00     1360.00
00923            -200.00     1320.00
00924            -200.00     1280.00
00925            -200.00     1280.00
00926            -200.00     1240.00
00927            -160.00     1200.00
00928            -200.00     1200.00
00929            -200.00     1160.00
00930            -200.00     1160.00
00931            -120.00     1120.00
00932            -160.00     1120.00
00933            -120.00     1040.00
00934            -120.00     1080.00
00935            -120.00     1000.00
00936            -160.00      960.00
00937            -120.00      960.00
00938            -120.00      920.00
00939            -120.00      920.00
00940            -160.00      880.00
00941            -120.00      840.00
00942            -120.00      800.00
00943            -120.00      800.00
00944            -120.00      760.00
00945            -120.00      760.00
00946            -120.00      720.00
00947            -120.00      720.00
00948            -120.00      640.00
00949            -120.00      640.00
00950             -80.00      640.00
00951            -120.00      600.00
00952            -120.00      560.00
00953            -120.00      560.00
00954            -120.00      480.00
00955            -120.00      480.00
00956             -80.00      440.00
00957             -80.00      440.00
00958             -80.00      400.00
00959             -80.00      400.00
00960             -80.00      360.00
00961             -80.00      320.00
00962            -120.00      320.00
00963             -80.00      280.00
00964             -80.00      240.00
00965             -80.00      240.00
00966             -80.00      200.00
00967             -80.00      160.00
00968             -40.00      120.00
00969             -80.00       80.00
00970             -40.00       80.00
00971             -40.00       80.00
00972             -40.00        0.00
00973             -40.00        0.00
00974             -40.00      -40.00
00975             -40.00      -40.00
00976               0.00      -80.00
00977             -40.00      -80.00
00978               0.00     -160.00
00979             -40.00     -160.00
00980             -40.00     -200.00
00981               0.00     -200.00
00982              40.00     -200.00
00983              40.00     -240.00
00984              40.00     -240.00
00985              80.00     -320.00
00986             -40.00     -400.00
00987             -40.00     -400.00
00988              40.00     -360.00
00989              80.00     -440.00
00990              40.00     -480.00
00991              80.00     -480.00
00992              80.00     -480.00
00993              80.00     -520.00
00994              40.00     -560.00
00995              40.00     -560.00
00996              80.00     -600.00
00997              40.00     -640.00
00998              40.00     -680.00
00999              80.00     -720.00
01000              80.00     -720.00
01001              80.00     -760.00
01002              80.00     -800.00
01003              80.00     -840.00
01004              80.00     -840.00
01005              80.00     -880.00
01006              80.00     -880.00
01007              80.00     -920.00
01008              80.00     -960.00
01009              80.00     -920.00
01010              80.00    -1000.00
01011              80.00    -1040.00
01012              80.00    -1040.00
01013              80.00    -1080.00
01014              80.00    -1080.00
01015              80.00    -1120.00
01016             120.00    -1160.00
01017             120.00    -1200.00
01018              80.00    -1200.00
01019              80.00    -1240.00
01020             120.00    -1200.00
01021              80.00    -1280.00
01022             120.00    -1280.00
01023             120.00    -1320.00
01024             120.00    -1360.00
01025             120.00    -1360.00
01026             120.00    -1440.00
01027             120.00    -1440.00
01028             160.00    -1440.00
01029             160.00    -1480.00
01030             160.00    -1520.00
01031             200.00    -1560.00
01032             200.00    -1560.00
01033             120.00    -1600.00
01034             160.00    -1600.00
01035             200.00    -1640.00
01036             200.00    -1680.00
01037             200.00    -1680.00
01038             200.00    -1760.00
01039             200.00    -1760.00
01040             200.00    -1760.00
01041             200.00    -1800.00
01042             200.00    -1800.00
01043             240.00    -1840.00
01044             200.00    -1840.00
01045             200.00    -1920.00
01046             240.00    -1920.00
01047             200.00    -1960.00
01048             200.00    -1960.00
01049             240.00    -2000.00
01050             240.00    -2000.00
01051             240.00    -2040.00
01052             240.00    -2080.00
01053             240.00    -2120.00
01054             240.00    -2120.00
01055             280.00    -2160.00
01056             240.00    -2160.00
01057             280.00    -2160.00
01058             240.00    -2200.00
01059             280.00    -2240.00
01060             240.00    -2280.00
01061             280.00    -2280.00
01062             280.00    -2320.00
01063             280.00    -2320.00
01064             280.00    -2360.00
01065             280.00    -2400.00
01066             280.00    -2400.00
01067             320.00    -2400.00
01068             280.00    -2440.00
01069             280.00    -2480.00
01070             320.00    -2480.00
01071             280.00    -2520.00
01072             280.00    -2560.00
01073             280.00    -2560.00
01074             280.00    -2560.00
01075             280.00    -2600.00
01076             320.00    -2600.00
01077             280.00    -2640.00
01078             320.00    -2680.00
01079             280.00    -2720.00
01080             280.00    -2720.00
01081             360.00    -2720.00
01082             280.00    -2720.00
01083             360.00    -2760.00
01084             320.00    -2800.00
01085             360.00    -2800.00
01086             320.00    -2840.00
01087             320.00    -2840.00
01088             360.00    -2880.00
01089             360.00    -2920.00
01090             360.00    -2920.00
01091             360.00    -2920.00
01092             360.00    -2960.00
01093             360.00    -2960.00
01094             360.00    -3000.00
01095             360.00    -3000.00
01096             360.00    -3040.00
01097             400.00    -3080.00
01098             360.00    -3080.00
01099             360.00    -3120.00
01100             360.00    -3120.00
01101             360.00    -3120.00
01102             360.00    -3200.00
01103             360.00    -3160.00
01104             360.00    -3200.00
01105             400.00    -3200.00
01106             360.00    -3240.00
01107             400.00    -3240.00
01108             400.00    -3280.00
01109             400.00    -3240.00
01110             400.00    -3320.00
01111             400.00    -3280.00
01112             400.00    -3320.00
01113             400.00    -3360.00
01114             400.00    -3360.00
01115             400.00    -3360.00
01116             400.00    -3400.00
01117             440.00    -3440.00
01118             400.00    -3440.00
01119             440.00    -3440.00
01120             440.00    -3440.00
01121             400.00    -3480.00
01122             440.00    -3520.00
01123             440.00    -3480.00
01124             440.00    -3520.00
01125             440.00    -3560.00
01126             440.00    -3560.00
01127             440.00    -3560.00
01128             440.00    -3600.00
01129             480.00    -3600.00
01130             440.00    -3680.00
01131             440.00    -3680.00
01132             440.00    -3680.00
01133             480.00    -3680.00
01134             440.00    -3720.00
01135             480.00    -3720.00
01136             480.00    -3720.00
01137             440.00    -3760.00
01138             440.00    -3760.00
01139             440.00    -3760.00
01140             440.00    -3760.00
01141             480.00    -3800.00
01142             440.00    -3800.00
01143             440.00    -3840.00
01144             440.00    -3840.00
01145             440.00    -3840.00
01146             440.00    -3880.00
01147             440.00    -3840.00
01148             440.00    -3880.00
01149             480.00    -3880.00
01150             520.00    -3880.00
01151             440.00    -3920.00
01152             480.00    -3920.00
01153             440.00    -3920.00
01154             440.00    -3920.00
01155             520.00    -3960.00
01156             440.00    -4000.00
01157             520.00    -4000.00
01158             520.00    -4000.00
01159             520.00    -4040.00
01160             480.00    -4040.00
01161             520.00    -4040.00
01162             520.00    -4040.00
01163             520.00    -4040.00
01164             520.00    -4080.00
01165             520.00    -4080.00
01166             520.00    -4080.00
01167             480.00    -4120.00
01168             520.00    -4120.00
01169             520.00    -4160.00
01170             520.00    -4120.00
01171             520.00    -4160.00
01172             520.00    -4160.00
01173             520.00    -4160.00
01174             520.00    -4160.00
01175             520.00    -4160.00
01176             520.00    -4200.00
01177             520.00    -4200.00
01178             520.00    -4160.00
01179             520.00    -4200.00
01180             520.00    -4200.00
01181             520.00    -4200.00
01182             520.00    -4240.00
01183             520.00    -4240.00
01184             560.00    -4240.00
01185             560.00    -4240.00
01186             520.00    -4240.00
01187             520.00    -4240.00
01188             520.00    -4240.00
01189             520.00    -4280.00
01190             520.00    -4280.00
01191             560.00    -4280.00
01192             560.00    -4320.00
01193             520.00    -4280.00
01194             560.00    -4320.00
01195             520.00    -4320.00
01196             560.00    -4320.00
01197             520.00    -4280.00
01198             520.00    -4320.00
01199             560.00    -4320.00
01200             560.00    -4320.00
01201             560.00    -4360.00
01202             560.00    -4320.00
01203             520.00    -4320.00
01204             520.00    -4320.00
01205             520.00    -4360.00
01206             560.00    -4360.00
01207             560.00    -4360.00
01208             520.00    -4360.00
01209             520.00    -4320.00
01210             520.00    -4360.00
01211             520.00    -4360.00
01212             560.00    -4360.00
01213             520.00    -4400.00
01214             560.00    -4360.00
01215             520.00    -4360.00
01216             560.00    -4360.00
01217             560.00    -4360.00
01218             520.00    -4400.00
01219             560.00    -4360.00
01220             520.00    -4360.00
01221             520.00    -4360.00
01222             560.00    -4400.00
01223             560.00    -4360.00
01224             560.00    -4400.00
01225             560.00    -4360.00
01226             520.00    -4360.00
01227             520.00    -4360.00
01228             560.00    -4360.00
01229             560.00    -4400.00
01230             560.00    -4360.00
01231             560.00    -4400.00
01232             560.00    -4400.00
01233             520.00    -4400.00
01234             560.00    -4360.00
01235             560.00    -4360.00
01236             560.00    -4360.00
01237             560.00    -4360.00
01238             560.00    -4360.00
01239             560.00    -4360.00
01240             520.00    -4360.00
01241             560.00    -4360.00
01242             560.00    -4360.00
01243             560.00    -4360.00
01244             560.00    -4360.00
01245             560.00    -4360.00
01246             560.00    -4360.00
01247             560.00    -4360.00
01248             560.00    -4320.00
01249             560.00    -4320.00
01250             560.00    -4360.00
01251             560.00    -4320.00
01252             560.00    -4320.00
01253             560.00    -4320.00
01254             560.00    -4320.00
01255             560.00    -4320.00
01256             560.00    -4280.00
01257             560.00    -4320.00
01258             600.00    -4280.00
01259             560.00    -4280.00
01260             600.00    -4320.00
01261             520.00    -4280.00
01262             560.00    -4240.00
01263             520.00    -4240.00
01264             560.00    -4240.00
01265             560.00    -4240.00
01266             560.00    -4240.00
01267             560.00    -4240.00
01268             520.00    -4240.00
01269             560.00    -4240.00
01270             520.00    -4200.00
01271             520.00    -4240.00
01272             520.00    -4240.00
01273             520.00    -4200.00
01274             520.00    -4200.00
01275             520.00    -4200.00
01276             520.00    -4160.00
01277             520.00    -4160.00
01278             520.00    -4160.00
01279             520.00    -4160.00
01280             520.00    -4160.00
01281             520.00    -4160.00
01282             520.00    -4120.00
01283             520.00    -4080.00
01284             520.00    -4120.00
01285             520.00    -4080.00
01286             520.00    -4080.00
01287             520.00    -4080.00
01288             520.00    -4040.00
01289             560.00    -4040.00
01290             520.00    -4040.00
01291             520.00    -4000.00
01292             520.00    -4000.00
01293             520.00    -4000.00
01294             520.00    -4000.00
01295             520.00    -4000.00
01296             520.00    -4000.00
01297             520.00    -3960.00
01298             520.00    -3960.00
01299             520.00    -3920.00
01300             520.00    -3920.00
01301             520.00    -3920.00
01302             520.00    -3880.00
01303             520.00    -3920.00
01304             520.00    -3880.00
01305             520.00    -3880.00
01306             520.00    -3840.00
01307             520.00    -3840.00
01308             520.00    -3840.00
01309             520.00    -3800.00
01310             520.00    -3840.00
01311             520.00    -3840.00
01312             520.00    -3760.00
01313             520.00    -3760.00
01314             520.00    -3760.00
01315             520.00    -3720.00
01316             520.00    -3680.00
01317             520.00    -3720.00
01318             520.00    -3680.00
01319             520.00    -3680.00
01320             520.00    -3680.00
01321             520.00    -3600.00
01322             520.00    -3600.00
01323             520.00    -3600.00
01324             480.00    -3600.00
01325             480.00    -3560.00
01326             520.00    -3560.00
01327             440.00    -3560.00
01328             520.00    -3480.00
01329             520.00    -3480.00
01330             520.00    -3480.00
01331             440.00    -3440.00
01332             440.00    -3440.00
01333             480.00    -3440.00
01334             480.00    -3440.00
01335             520.00    -3440.00
01336             480.00    -3400.00
01337             440.00    -3360.00
01338             440.00    -3360.00
01339             440.00    -3360.00
01340             440.00    -3360.00
01341             440.00    -3320.00
01342             400.00    -3320.00
01343             440.00    -3280.00
01344             400.00    -3280.00
01345             440.00    -3240.00
01346             400.00    -3240.00
01347             440.00    -3200.00
01348             400.00    -3200.00
01349             400.00    -3160.00
01350             400.00    -3120.00
01351             400.00    -3120.00
01352             400.00    -3120.00
01353             400.00    -3080.00
01354             440.00    -3080.00
01355             400.00    -3080.00
01356             400.00    -3040.00
01357             400.00    -3040.00
01358             400.00    -2960.00
01359             400.00    -2960.00
01360             400.00    -2960.00
01361             400.00    -2920.00
01362             400.00    -2920.00
01363             400.00    -2920.00
01364             400.00    -2880.00
01365             400.00    -2880.00
01366             400.00    -2800.00
01367             360.00    -2800.00
01368             400.00    -2800.00
01369             360.00    -2760.00
01370             400.00    -2760.00
01371             400.00    -2760.00
01372             360.00    -2720.00
01373             360.00    -2720.00
01374             360.00    -2640.00
01375             360.00    -2640.00
01376             360.00    -2640.00
01377             360.00    -2600.00
01378             360.00    -2600.00
01379             360.00    -2560.00
01380             360.00    -2560.00
01381             360.00    -2520.00
01382             360.00    -2480.00
01383             360.00    -2480.00
01384             360.00    -2480.00
01385             360.00    -2440.00
01386             360.00    -2400.00
01387             360.00    -2360.00
01388             360.00    -2360.00
01389             360.00    -2320.00
01390             360.00    -2280.00
01391             320.00    -2320.00
01392             360.00    -2240.00
01393             360.00    -2240.00
01394             360.00    -2240.00
01395             360.00    -2200.00
01396             320.00    -2160.00
01397             280.00    -2160.00
01398             320.00    -2120.00
01399             280.00    -2080.00
01400             320.00    -2080.00
01401             280.00    -2080.00
01402             280.00    -2040.00
01403             280.00    -2000.00
01404             280.00    -1960.00
01405             280.00    -1960.00
01406             280.00    -1960.00
01407             280.00    -1920.00
01408             280.00    -1880.00
01409             280.00    -1840.00
01410             280.00    -1840.00
01411             240.00    -1800.00
01412             280.00    -1800.00
01413             240.00    -1760.00
01414             280.00    -1760.00
01415             240.00    -1760.00
01416             240.00    -1680.00
01417             240.00    -1680.00
01418             240.00    -1680.00
01419             240.00    -1600.00
01420             240.00    -1600.00
01421             240.00    -1600.00
01422             200.00    -1560.00
01423             240.00    -1520.00
01424             200.00    -1520.00
01425             240.00    -1480.00
01426             200.00    -1440.00
01427             200.00    -1440.00
01428             200.00    -1400.00
01429             200.00    -1360.00
01430             200.00    -1360.00
01431             200.00    -1320.00
01432             200.00    -1320.00
01433             200.00    -1280.00
01434             200.00    -1240.00
01435             240.00    -1200.00
01436             160.00    -1160.00
01437             200.00    -1160.00
01438             200.00    -1160.00
01439             200.00    -1120.00
01440             200.00    -1120.00
01441             200.00    -1080.00
01442             200.00    -1000.00
01443             200.00    -1040.00
01444             200.00    -1000.00
01445             160.00     -960.00
01446             200.00     -920.00
01447             160.00     -880.00
01448             200.00     -880.00
01449             160.00     -840.00
01450             120.00     -840.00
01451             200.00     -800.00
01452             120.00     -800.00
01453             120.00     -760.00
01454             120.00     -720.00
01455             120.00     -720.00
01456             120.00     -680.00
01457             120.00     -640.00
01458             120.00     -640.00
01459             120.00     -600.00
01460             120.00     -560.00
01461              80.00     -560.00
01462             120.00     -520.00
01463             120.00     -480.00
01464              80.00     -480.00
01465              80.00     -440.00
01466              80.00     -400.00
01467              80.00     -400.00
01468              80.00     -360.00
01469              40.00     -320.00
01470              80.00     -320.00
01471              80.00     -280.00
01472              40.00     -240.00
01473              80.00     -200.00
01474              80.00     -200.00
01475              80.00     -160.00
01476              40.00     -160.00
01477              40.00     -120.00
01478              40.00      -80.00
01479              40.00      -40.00
01480              40.00      -40.00
01481              80.00        0.00
01482              40.00        0.00
01483              40.00       40.00
01484              40.00       40.00
01485              40.00      120.00
01486               0.00      120.00
01487              40.00      160.00
01488              40.00      160.00
01489               0.00      200.00
01490               0.00      200.00
01491              40.00      240.00
01492              40.00      360.00
01493              40.00      360.00
01494             -40.00      320.00
01495             -80.00      360.00
01496             -80.00      400.00
01497              40.00      440.00
01498             -40.00      480.00
01499             -40.00      480.00
01500             -40.00      520.00
01501             -40.00      520.00
01502             -40.00      560.00
01503             -40.00      600.00
01504               0.00      640.00
01505             -40.00      640.00
01506             -40.00      640.00
01507             -40.00      680.00
01508             -80.00      720.00
01509             -40.00      760.00
01510             -40.00      800.00
01511             -40.00      800.00
01512             -80.00      800.00
01513             -80.00      840.00
01514             -80.00      920.00
01515             -80.00      920.00
01516             -40.00      960.00
01517             -80.00      960.00
01518             -80.00      960.00
01519             -80.00     1000.00
01520             -80.00     1040.00
01521            -120.00     1080.00
01522            -120.00     1080.00
01523            -120.00     1120.00
01524            -120.00     1160.00
01525            -120.00     1200.00
01526            -120.00     1200.00
01527             -80.00     1240.00
01528            -120.00     1240.00
01529            -120.00     1280.00
01530            -120.00     1280.00
01531            -120.00     1360.00
01532            -120.00     1360.00
01533            -120.00     1360.00
01534            -120.00     1440.00
01535            -120.00     1440.00
01536            -120.00     1440.00
01537            -160.00     1520.00
01538            -160.00     1520.00
01539            -160.00     1560.00
01540            -200.00     1560.00
01541            -160.00     1600.00
01542            -200.00     1640.00
01543            -200.00     1680.00
01544            -200.00     1720.00
01545            -200.00     1720.00
01546            -200.00     1720.00
01547            -200.00     1760.00
01548            -200.00     1760.00
01549            -200.00     1760.00
01550            -240.00     1840.00
01551            -200.00     1840.00
01552            -240.00     1880.00
01553            -240.00     1880.00
01554            -200.00     1920.00
01555            -240.00     1920.00
01556            -240.00     2000.00
01557            -240.00     2000.00
01558            -240.00     2000.00
01559            -240.00     2040.00
01560            -240.00     2080.00
01561            -240.00     2080.00
01562            -240.00     2080.00
01563            -200.00     2160.00
01564            -240.00     2160.00
01565            -240.00     2200.00
01566            -240.00     2200.00
01567            -240.00     2240.00
01568            -240.00     2240.00
01569            -280.00     2240.00
01570            -240.00     2320.00
01571            -240.00     2320.00
01572            -240.00     2360.00
01573            -240.00     2360.00
01574            -240.00     2400.00
01575            -280.00     2440.00
01576            -240.00     2480.00
01577            -280.00     2480.00
01578            -240.00     2480.00
01579            -240.00     2520.00
01580            -280.00     2560.00
01581            -240.00     2560.00
01582            -280.00     2560.00
01583            -240.00     2600.00
01584            -280.00     2640.00
01585            -280.00     2640.00
01586            -280.00     2640.00
01587            -280.00     2680.00
01588            -320.00     2720.00
01589            -280.00     2720.00
01590            -280.00     2720.00
01591            -280.00     2760.00
01592            -320.00     2800.00
01593            -360.00     2800.00
01594            -280.00     2840.00
01595            -360.00     2880.00
01596            -360.00     2880.00
01597            -320.00     2920.00
01598            -360.00     2960.00
01599            -280.00     2960.00
01600            -360.00     2960.00
01601            -320.00     2960.00
01602            -360.00     3000.00
01603            -400.00     3040.00
01604            -360.00     3040.00
01605            -400.00     3040.00
01606            -400.00     3040.00
01607            -400.00     3120.00
01608            -400.00     3120.00
01609            -400.00     3120.00
01610            -400.00     3160.00
01611            -400.00     3160.00
01612            -400.00     3160.00
01613            -400.00     3200.00
01614            -400.00     3240.00
01615            -400.00     3280.00
01616            -400.00     3280.00
01617            -400.00     3280.00
01618            -360.00     3280.00
01619            -400.00     3320.00
01620            -400.00     3360.00
01621            -400.00     3360.00
01622            -400.00     3360.00
01623            -440.00     3360.00
01624            -440.00     3400.00
01625            -400.00     3400.00
01626            -440.00     3440.00
01627            -400.00     3480.00
01628            -440.00     3480.00
01629            -440.00     3480.00
01630            -440.00     3480.00
01631            -440.00     3480.00
01632            -400.00     3520.00
01633            -440.00     3560.00
01634            -400.00     3600.00
01635            -400.00     3600.00
01636            -440.00     3600.00
01637            -440.00     3640.00
01638            -440.00     3640.00
01639            -440.00     3640.00
01640            -400.00     3680.00
01641            -400.00     3680.00
01642            -440.00     3680.00
01643            -440.00     3720.00
01644            -440.00     3760.00
01645            -440.00     3760.00
01646            -440.00     3760.00
01647            -440.00     3760.00
01648            -440.00     3800.00
01649            -440.00     3800.00
01650            -440.00     3800.00
01651            -440.00     3840.00
01652            -440.00     3840.00
01653            -440.00     3840.00
01654            -440.00     3840.00
01655            -440.00     3880.00
01656            -440.00     3880.00
01657            -440.00     3920.00
01658            -440.00     3920.00
01659            -440.00     3920.00
01660            -440.00     3920.00
01661            -440.00     3920.00
01662            -480.00     3960.00
01663            -440.00     3960.00
01664            -480.00     3960.00
01665            -440.00     4000.00
01666            -520.00     4000.00
01667            -480.00     4000.00
01668            -520.00     4000.00
01669            -440.00     4040.00
01670            -520.00     4040.00
01671            -520.00     4080.00
01672            -520.00     4080.00
01673            -520.00     4080.00
01674            -520.00     4120.00
01675            -520.00     4120.00
01676            -520.00     4120.00
01677            -520.00     4080.00
01678            -560.00     4120.00
01679            -520.00     4120.00
01680            -520.00     4200.00
01681            -520.00     4160.00
01682            -520.00     4200.00
01683            -520.00     4160.00
01684            -560.00     4200.00
01685            -520.00     4200.00
01686            -520.00     4200.00
01687            -520.00     4240.00
01688            -560.00     4200.00
01689            -520.00     4240.00
01690            -520.00     4240.00
01691            -520.00     4240.00
01692            -520.00     4240.00
01693            -520.00     4280.00
01694            -520.00     4240.00
01695            -560.00     4280.00
01696            -520.00     4240.00
01697            -560.00     4280.00
01698            -560.00     4280.00
01699            -560.00     4280.00
01700            -520.00     4320.00
01701            -560.00     4280.00
01702            -520.00     4320.00
01703            -560.00     4320.00
01704            -520.00     4280.00
01705            -520.00     4320.00
01706            -560.00     4320.00
01707            -520.00     4320.00
01708            -560.00     4320.00
01709            -520.00     4320.00
01710            -520.00     4320.00
01711            -520.00     4320.00
01712            -520.00     4320.00
01713            -560.00     4360.00
01714            -560.00     4360.00
01715            -520.00     4360.00
01716            -560.00     4400.00
01717            -520.00     4360.00
01718            -560.00     4320.00
01719            -560.00     4320.00
01720            -560.00     4400.00
01721            -560.00     4400.00
01722            -520.00     4400.00
01723            -560.00     4360.00
01724            -560.00     4400.00
01725            -560.00     4400.00
01726            -560.00     4360.00
01727            -520.00     4400.00
01728            -560.00     4400.00
01729            -560.00     4360.00
01730            -560.00     4400.00
01731            -560.00     4400.00
01732            -560.00     4400.00
01733            -560.00     4400.00
01734            -560.00     4400.00
01735            -560.00     4400.00
01736            -560.00     4400.00
01737            -560.00     4400.00
01738            -560.00     4360.00
01739            -560.00     4400.00
01740            -560.00     4400.00
01741            -560.00     4400.00
01742            -560.00     4400.00
01743            -560.00     4400.00
01744            -560.00     4400.00
01745            -560.00     4400.00
01746            -560.00     4360.00
01747            -560.00     4360.00
01748            -600.00     4360.00
01749            -560.00     4360.00
01750            -560.00     4400.00
01751            -560.00     4320.00
01752            -560.00     4360.00
01753            -560.00     4320.00
01754            -560.00     4360.00
01755            -600.00     4320.00
01756            -560.00     4320.00
01757            -560.00     4320.00
01758            -560.00     4360.00
01759            -560.00     4360.00
01760            -560.00     4320.00
01761            -560.00     4320.00
01762            -560.00     4320.00
01763            -520.00     4320.00
01764            -560.00     4320.00
01765            -560.00     4320.00
01766            -560.00     4320.00
01767            -560.00     4320.00
01768            -560.00     4280.00
01769            -560.00     4320.00
01770            -560.00     4280.00
01771            -560.00     4280.00
01772            -520.00     4280.00
01773            -560.00     4280.00
01774            -560.00     4240.00
01775            -520.00     4280.00
01776            -520.00     4240.00
01777            -560.00     4240.00
01778            -560.00     4240.00
01779            -560.00     4240.00
01780            -520.00     4240.00
01781            -560.00     4240.00
01782            -520.00     4200.00
01783            -520.00     4200.00
01784            -560.00     4160.00
01785            -560.00     4200.00
01786            -560.00     4160.00
01787            -520.00     4200.00
01788            -520.00     4160.00
01789            -520.00     4120.00
01790            -560.00     4120.00
01791            -560.00     4120.00
01792            -520.00     4120.00
01793            -520.00     4120.00
01794            -520.00     4080.00
01795            -560.00     4080.00
01796            -520.00     4080.00
01797            -520.00     4080.00
01798            -520.00     4080.00
01799            -520.00     4040.00
01800            -520.00     4040.00
01801            -520.00     4000.00
01802            -520.00     4000.00
01803            -520.00     4000.00
01804            -560.00     3960.00
01805            -520.00     4000.00
01806            -520.00     3960.00
01807            -560.00     3920.00
01808            -520.00     3920.00
01809            -520.00     3920.00
01810            -520.00     3920.00
01811            -520.00     3920.00
01812            -520.00     3920.00
01813            -520.00     3880.00
01814            -520.00     3840.00
01815            -480.00     3840.00
01816            -520.00     3840.00
01817            -520.00     3840.00
01818            -520.00     3800.00
01819            -480.00     3800.00
01820            -480.00     3800.00
01821            -520.00     3760.00
01822            -520.00     3760.00
01823            -440.00     3760.00
01824            -440.00     3760.00
01825            -440.00     3720.00
01826            -480.00     3720.00
01827            -440.00     3720.00
01828            -440.00     3680.00
01829            -480.00     3640.00
01830            -440.00     3640.00
01831            -480.00     3640.00
01832            -440.00     3600.00
01833            -440.00     3600.00
01834            -440.00     3560.00
01835            -480.00     3560.00
01836            -440.00     3520.00
01837            -440.00     3520.00
01838            -440.00     3520.00
01839            -480.00     3520.00
01840            -440.00     3480.00
01841            -440.00     3440.00
01842            -440.00     3440.00
01843            -440.00     3440.00
01844            -440.00     3440.00
01845            -440.00     3400.00
01846            -400.00     3360.00
01847            -440.00     3360.00
01848            -440.00     3360.00
01849            -440.00     3320.00
01850            -440.00     3320.00
01851            -440.00     3320.00
01852            -440.00     3280.00
01853            -440.00     3280.00
01854            -400.00     3240.00
01855            -440.00     3240.00
01856            -400.00     3200.00
01857            -440.00     3200.00
01858            -400.00     3160.00
01859            -400.00     3160.00
01860            -440.00     3120.00
01861            -440.00     3120.00
01862            -440.00     3120.00
01863            -440.00     3080.00
01864            -400.00     3040.00
01865            -400.00     3040.00
01866            -400.00     3000.00
01867            -400.00     3000.00
01868            -400.00     3000.00
01869            -400.00     2960.00
01870            -400.00     2960.00
01871            -400.00     2920.00
01872            -400.00     2920.00
01873            -400.00     2880.00
01874            -400.00     2840.00
01875            -400.00     2840.00
01876            -400.00     2800.00
01877            -400.00     2800.00
01878            -400.00     2800.00
01879            -400.00     2720.00
01880            -400.00     2760.00
01881            -400.00     2720.00
01882            -400.00     2680.00
01883            -360.00     2680.00
01884            -400.00     2640.00
01885            -400.00     2640.00
01886            -360.00     2600.00
01887            -360.00     2560.00
01888            -400.00     2560.00
01889            -360.00     2520.00
01890            -360.00     2520.00
01891            -360.00     2520.00
01892            -360.00     2480.00
01893            -360.00     2440.00
01894            -320.00     2440.00
01895            -360.00     2400.00
01896            -280.00     2400.00
01897            -320.00     2360.00
01898            -360.00     2360.00
01899            -280.00     2320.00
01900            -280.00     2320.00
01901            -280.00     2280.00
01902            -320.00     2240.00
01903            -280.00     2200.00
01904            -280.00     2200.00
01905            -280.00     2200.00
01906            -280.00     2160.00
01907            -280.00     2160.00
01908            -280.00     2120.00
01909            -280.00     2080.00
01910            -240.00     2040.00
01911            -280.00     2040.00
01912            -280.00     2000.00
01913            -240.00     2000.00
01914            -240.00     1920.00
01915            -240.00     1960.00
01916            -240.00     1920.00
01917            -240.00     1880.00
01918            -240.00     1880.00
01919            -240.00     1840.00
01920            -240.00     1840.00
01921            -240.00     1760.00
01922            -240.00     1760.00
01923            -280.00     1760.00
01924            -240.00     1720.00
01925            -240.00     1680.00
01926            -240.00     1680.00
01927            -240.00     1680.00
01928            -240.00     1640.00
01929            -240.00     1600.00
01930            -240.00     1560.00
01931            -240.00     1560.00
01932            -240.00     1560.00
01933            -240.00     1480.00
01934            -240.00     1480.00
01935            -240.00     1440.00
01936            -200.00     1400.00
01937            -200.00     1400.00
01938            -200.00     1360.00
01939            -200.00     1360.00
01940            -200.00     1280.00
01941            -200.00     1280.00
01942            -200.00     1280.00
01943            -240.00     1240.00
01944            -200.00     1240.00
01945            -200.00     1200.00
01946            -200.00     1160.00
01947            -200.00     1120.00
01948            -160.00     1120.00
01949            -200.00     1080.00
01950            -120.00     1080.00
01951            -160.00     1040.00
01952            -120.00     1040.00
01953            -120.00      960.00
01954            -160.00      960.00
01955            -120.00      920.00
01956            -120.00      920.00
01957            -120.00      880.00
01958            -120.00      880.00
01959            -120.00      840.00
01960            -120.00      800.00
01961            -120.00      760.00
01962            -120.00      760.00
01963            -120.00      720.00
01964            -120.00      720.00
01965             -80.00      640.00
01966            -120.00      640.00
01967             -80.00      600.00
01968             -80.00      560.00
01969            -120.00      560.00
01970            -120.00      560.00
01971             -80.00      520.00
01972             -80.00      480.00
01973             -80.00      440.00
01974             -80.00      440.00
01975             -80.00      400.00
01976             -80.00      360.00
01977             -80.00      360.00
01978             -40.00      320.00
01979             -80.00      320.00
01980             -80.00      280.00
01981             -40.00      280.00
01982             -80.00      240.00
01983             -40.00      200.00
01984             -40.00      160.00
01985             -40.00      160.00
01986             -40.00      120.00
01987             -40.00       80.00
01988             -40.00       80.00
01989               0.00       40.00
01990             -40.00        0.00
01991             -40.00      -40.00
01992             -40.00      -40.00
01993             -40.00      -40.00
01994              40.00      -80.00
01995             -40.00      -80.00
01996             -40.00     -160.00
01997             -40.00     -200.00
01998              40.00     -200.00
01999             -40.00     -240.00
02000              40.00     -240.00
02001              40.00     -280.00
02002              40.00     -320.00
02003             -40.00     -400.00
02004             -40.00     -440.00
02005             -40.00     -360.00
02006              80.00     -480.00
02007              40.00     -480.00
02008              40.00     -480.00
02009              80.00     -520.00
02010              40.00     -520.00
02011              40.00     -560.00
02012              40.00     -560.00
02013              80.00     -600.00
02014              40.00     -640.00
02015              40.00     -720.00
02016              40.00     -680.00
02017              80.00     -720.00
02018              40.00     -760.00
02019              80.00     -760.00
02020              40.00     -800.00
02021              80.00     -840.00
02022              80.00     -880.00
02023              80.00     -880.00
02024              80.00     -920.00
02025              80.00     -960.00
02026              80.00     -960.00
02027              80.00    -1000.00
02028              80.00    -1000.00
02029              80.00    -1080.00
02030             120.00    -1040.00
02031             120.00    -1120.00
02032             120.00    -1120.00
02033             120.00    -1160.00
02034             120.00    -1200.00
02035             120.00    -1200.00
02036             120.00    -1200.00
02037              80.00    -1240.00
02038             120.00    -1280.00
02039             120.00    -1320.00
02040             160.00    -1320.00
02041             200.00    -1320.00
02042             160.00    -1400.00
02043             200.00    -1400.00
02044             120.00    -1440.00
02045             200.00    -1440.00
02046             200.00    -1480.00
02047             160.00    -1520.00
02048             120.00    -1520.00
02049             160.00    -1600.00
02050             240.00    -1600.00
02051             200.00    -1640.00
02052             200.00    -1640.00
02053             160.00    -1680.00
02054             200.00    -1720.00
02055             200.00    -1680.00
02056             200.00    -1760.00
02057             200.00    -1760.00
02058             200.00    -1800.00
02059             160.00    -1840.00
02060             200.00    -1840.00
02061             240.00    -1880.00
02062             200.00    -1920.00
02063             200.00    -1920.00
02064             200.00    -1960.00
02065             240.00    -1960.00
02066             200.00    -2000.00
02067             240.00    -2000.00
02068             240.00    -2040.00
02069             200.00    -2080.00
02070             240.00    -2120.00
02071             200.00    -2120.00
02072             240.00    -2120.00
02073             240.00    -2160.00
02074             240.00    -2160.00
02075             240.00    -2200.00
02076             240.00    -2240.00
02077             280.00    -2280.00
02078             240.00    -2240.00
02079             240.00    -2280.00
02080             240.00    -2320.00
02081             240.00    -2320.00
02082             280.00    -2360.00
02083             280.00    -2400.00
02084             280.00    -2440.00
02085             280.00    -2440.00
02086             280.00    -2440.00
02087             280.00    -2480.00
02088             280.00    -2520.00
02089             320.00    -2560.00
02090             280.00    -2520.00
02091             320.00    -2600.00
02092             280.00    -2600.00
02093             280.00    -2640.00
02094             280.00    -2640.00
02095             320.00    -2640.00
02096             360.00    -2680.00
02097             360.00    -2720.00
02098             360.00    -2720.00
02099             320.00    -2760.00
02100             360.00    -2760.00
02101             360.00    -2800.00
02102             360.00    -2800.00
02103             360.00    -2880.00
02104             360.00    -2880.00
02105             360.00    -2880.00
02106             360.00    -2920.00
02107             360.00    -2960.00
02108             360.00    -2960.00
02109             360.00    -2960.00
02110             360.00    -2960.00
02111             360.00    -3000.00
02112             360.00    -3040.00
02113             360.00    -3040.00
02114             400.00    -3080.00
02115             400.00    -3080.00
02116             400.00    -3080.00
02117             400.00    -3120.00
02118             360.00    -3120.00
02119             400.00    -3120.00
02120             360.00    -3200.00
02121             400.00    -3200.00
02122             400.00    -3240.00
02123             360.00    -3240.00
02124             400.00    -3240.00
02125             400.00    -3240.00
02126             400.00    -3280.00
02127             360.00    -3280.00
02128             400.00    -3320.00
02129             400.00    -3320.00
02130             400.00    -3360.00
02131             400.00    -3400.00
02132             400.00    -3400.00
02133             400.00    -3400.00
02134             400.00    -3400.00
02135             400.00    -3440.00
02136             440.00    -3440.00
02137             400.00    -3440.00
02138             440.00    -3520.00
02139             400.00    -3480.00
02140             400.00    -3560.00
02141             440.00    -3480.00
02142             400.00    -3560.00
02143             440.00    -3560.00
02144             400.00    -3560.00
02145             400.00    -3600.00
02146             440.00    -3600.00
02147             400.00    -3680.00
02148             440.00    -3680.00
02149             440.00    -3680.00
02150             440.00    -3680.00
02151             440.00    -3680.00
02152             440.00    -3720.00
02153             440.00    -3760.00
02154             440.00    -3720.00
02155             440.00    -3720.00
02156             440.00    -3760.00
02157             480.00    -3760.00
02158             440.00    -3800.00
02159             480.00    -3840.00
02160             520.00    -3840.00
02161             520.00    -3840.00
02162             520.00    -3840.00
02163             520.00    -3840.00
02164             440.00    -3880.00
02165             520.00    -3880.00
02166             480.00    -3880.00
02167             520.00    -3880.00
02168             480.00    -3920.00
02169             480.00    -3920.00
02170             520.00    -3920.00
02171             520.00    -3960.00
02172             520.00    -4000.00
02173             520.00    -4000.00
02174             520.00    -4000.00
02175             520.00    -4000.00
02176             520.00    -4040.00
02177             520.00    -4040.00
02178             520.00    -4000.00
02179             520.00    -4040.00
02180             520.00    -4040.00
02181             520.00    -4040.00
02182             520.00    -4040.00
02183             520.00    -4080.00
02184             520.00    -4120.00
02185             520.00    -4080.00
02186             520.00    -4120.00
02187             480.00    -4120.00
02188             520.00    -4120.00
02189             520.00    -4120.00
02190             520.00    -4160.00
02191             520.00    -4160.00
02192             520.00    -4160.00
02193             520.00    -4200.00
02194             520.00    -4200.00
02195             520.00    -4200.00
02196             520.00    -4200.00
02197             520.00    -4240.00
02198             520.00    -4200.00
02199             520.00    -4240.00
02200             520.00    -4240.00
02201             520.00    -4200.00
02202             520.00    -4240.00
02203             520.00    -4240.00
02204             520.00    -4240.00
02205             520.00    -4240.00
02206             520.00    -4280.00
02207             520.00    -4240.00
02208             520.00    -4240.00
02209             520.00    -4240.00
02210             520.00    -4320.00
02211             520.00    -4320.00
02212             520.00    -4320.00
02213             520.00    -4320.00
02214             560.00    -4320.00
02215             560.00    -4320.00
02216             520.00    -4320.00
02217             520.00    -4320.00
02218             520.00    -4320.00
02219             560.00    -4320.00
02220             520.00    -4320.00
02221             520.00    -4320.00
02222             520.00    -4360.00
02223             520.00    -4320.00
02224             560.00    -4360.00
02225             560.00    -4360.00
02226             560.00    -4360.00
02227             560.00    -4360.00
02228             520.00    -4360.00
02229             560.00    -4360.00
02230             520.00    -4400.00
02231             560.00    -4360.00
02232             560.00    -4360.00
02233             560.00    -4360.00
02234             560.00    -4400.00
02235             560.00    -4400.00
02236             560.00    -4360.00
02237             560.00    -4360.00
02238             560.00    -4360.00
02239             560.00    -4400.00
02240             560.00    -4360.00
02241             560.00    -4360.00
02242             560.00    -4360.00
02243             560.00    -4400.00
02244             560.00    -4400.00
02245             560.00    -4360.00
02246             560.00    -4360.00
02247             560.00    -4360.00
02248             560.00    -4360.00
02249             560.00    -4360.00
02250             560.00    -4400.00
02251             560.00    -4360.00
02252             560.00    -4360.00
02253             520.00    -4400.00
02254             560.00    -4360.00
02255             560.00    -4360.00
02256             520.00    -4360.00
02257             560.00    -4360.00
02258             520.00    -4360.00
02259             560.00    -4360.00
02260             560.00    -4320.00
02261             560.00    -4360.00
02262             560.00    -4360.00
02263             520.00    -4320.00
02264             520.00    -4360.00
02265             520.00    -4320.00
02266             520.00    -4320.00
02267             560.00    -4360.00
02268             560.00    -4320.00
02269             520.00    -4360.00
02270             520.00    -4320.00
02271             520.00    -4320.00
02272             520.00    -4320.00
02273             560.00    -4320.00
02274             560.00    -4320.00
02275             560.00    -4280.00
02276             560.00    -4280.00
02277             560.00    -4280.00
02278             560.00    -4280.00
02279             560.00    -4320.00
02280             520.00    -4240.00
02281             560.00    -4240.00
02282             520.00    -4240.00
02283             560.00    -4240.00
02284             560.00    -4240.00
02285             520.00    -4240.00
02286             520.00    -4240.00
02287             560.00    -4200.00
02288             560.00    -4200.00
02289             560.00    -4200.00
02290             560.00    -4200.00
02291             560.00    -4160.00
02292             520.00    -4200.00
02293             560.00    -4160.00
02294             520.00    -4160.00
02295             560.00    -4160.00
02296             520.00    -4160.00
02297             520.00    -4160.00
02298             520.00    -4080.00
02299             560.00    -4120.00
02300             560.00    -4080.00
02301             520.00    -4080.00
02302             520.00    -4080.00
02303             520.00    -4080.00
02304             520.00    -4080.00
02305             520.00    -4040.00
02306             520.00    -4040.00
02307             520.00    -4040.00
02308             520.00    -4040.00
02309             520.00    -4000.00
02310             520.00    -4040.00
02311             560.00    -4000.00
02312             520.00    -4000.00
02313             560.00    -4000.00
02314             520.00    -3920.00
02315             520.00    -3960.00
02316             520.00    -3920.00
02317             520.00    -3920.00
02318             520.00    -3880.00
02319             520.00    -3920.00
02320             520.00    -3880.00
02321             520.00    -3880.00
02322             520.00    -3880.00
02323             520.00    -3840.00
02324             520.00    -3840.00
02325             520.00    -3840.00
02326             520.00    -3840.00
02327             520.00    -3840.00
02328             520.00    -3760.00
02329             520.00    -3760.00
02330             480.00    -3760.00
02331             480.00    -3760.00
02332             520.00    -3720.00
02333             520.00    -3720.00
02334             440.00    -3720.00
02335             520.00    -3680.00
02336             480.00    -3680.00
02337             520.00    -3640.00
02338             480.00    -3640.00
02339             480.00    -3600.00
02340             520.00    -3600.00
02341             440.00    -3560.00
02342             520.00    -3560.00
02343             480.00    -3560.00
02344             480.00    -3520.00
02345             480.00    -3520.00
02346             440.00    -3480.00
02347             480.00    -3480.00
02348             440.00    -3520.00
02349             440.00    -3480.00
02350             440.00    -3440.00
02351             440.00    -3440.00
02352             520.00    -3440.00
02353             440.00    -3400.00
02354             440.00    -3400.00
02355             440.00    -3400.00
02356             480.00    -3360.00
02357             440.00    -3360.00
02358             520.00    -3280.00
02359             440.00    -3280.00
02360             440.00    -3280.00
02361             440.00    -3240.00
02362             440.00    -3240.00
02363             520.00    -3240.00
02364             440.00    -3200.00
02365             440.00    -3200.00
02366             440.00    -3120.00
02367             440.00    -3160.00
02368             440.00    -3120.00
02369             440.00    -3080.00
02370             400.00    -3120.00
02371             400.00    -3040.00
02372             400.00    -3040.00
02373             400.00    -3040.00
02374             400.00    -3040.00
02375             400.00    -3000.00
02376             400.00    -3000.00
02377             400.00    -2960.00
02378             400.00    -2920.00
02379             400.00    -2920.00
02380             400.00    -2880.00
02381             400.00    -2880.00
02382             400.00    -2880.00
02383             400.00    -2800.00
02384             400.00    -2840.00
02385             400.00    -2800.00
02386             400.00    -2760.00
02387             360.00    -2760.00
02388             400.00    -2720.00
02389             360.00    -2720.00
02390             360.00    -2680.00
02391             360.00    -2640.00
02392             360.00    -2640.00
02393             360.00    -2640.00
02394             360.00    -2600.00
02395             360.00    -2600.00
02396             360.00    -2560.00
02397             360.00    -2560.00
02398             360.00    -2520.00
02399             360.00    -2480.00
02400             360.00    -2480.00
02401             360.00    -2480.00
02402             280.00    -2400.00
02403             320.00    -2400.00
02404             360.00    -2400.00
02405             360.00    -2400.00
02406             320.00    -2320.00
02407             280.00    -2320.00
02408             320.00    -2280.00
02409             280.00    -2280.00
02410             360.00    -2200.00
02411             320.00    -2200.00
02412             320.00    -2200.00
02413             360.00    -2160.00
02414             320.00    -2160.00
02415             280.00    -2120.00
02416             320.00    -2120.00
02417             280.00    -2080.00
02418             280.00    -2080.00
02419             360.00    -2000.00
02420             280.00    -2000.00
02421             280.00    -2000.00
02422             280.00    -1960.00
02423             280.00    -1960.00
02424             280.00    -1920.00
02425             280.00    -1880.00
02426             280.00    -1920.00
02427             280.00    -1840.00
02428             240.00    -1840.00
02429             280.00    -1800.00
02430             280.00    -1760.00
02431             280.00    -1760.00
02432             280.00    -1680.00
02433             240.00    -1680.00
02434             280.00    -1680.00
02435             240.00    -1640.00
02436             240.00    -1640.00
02437             240.00    -1600.00
02438             240.00    -1560.00
02439             240.00    -1600.00
02440             240.00    -1520.00
02441             240.00    -1480.00
02442             240.00    -1480.00
02443             200.00    -1440.00
02444             240.00    -1440.00
02445             240.00    -1440.00
02446             200.00    -1360.00
02447             200.00    -1360.00
02448             200.00    -1320.00
02449             200.00    -1320.00
02450             200.00    -1280.00
02451             200.00    -1240.00
02452             200.00    -1200.00
02453             200.00    -1200.00
02454             200.00    -1200.00
02455             160.00    -1160.00
02456             200.00    -1120.00
02457             160.00    -1120.00
02458             200.00    -1080.00
02459             200.00    -1000.00
02460             160.00    -1000.00
02461             120.00    -1000.00
02462             160.00     -960.00
02463             120.00     -920.00
02464             120.00     -880.00
02465             120.00     -840.00
02466             120.00     -840.00
02467             120.00     -840.00
02468             120.00     -800.00
02469              80.00     -800.00
02470              80.00     -800.00
02471             120.00     -720.00
02472             120.00     -720.00
02473             120.00     -680.00
02474             120.00     -640.00
02475              80.00     -640.00
02476              80.00     -560.00
02477             120.00     -560.00
02478             120.00     -520.00
02479              80.00     -520.00
02480             120.00     -480.00
02481              80.00     -480.00
02482              80.00     -440.00
02483              80.00     -400.00
02484              80.00     -400.00
02485             120.00     -360.00
02486              80.00     -360.00
02487              80.00     -280.00
02488              80.00     -240.00
02489              80.00     -280.00
02490              40.00     -200.00
02491              80.00     -160.00
02492              80.00     -160.00
02493              40.00     -160.00
02494              80.00      -80.00
02495              80.00     -120.00
02496              80.00      -40.00
02497              40.00      -40.00
02498              80.00        0.00
02499              40.00        0.00
02500              40.00       40.00
02501              40.00       80.00
02502              80.00       80.00
02503              40.00      120.00
02504              40.00      160.00
02505              40.00      160.00
02506              40.00      200.00
02507               0.00      240.00
02508              40.00      280.00
02509              80.00      320.00
02510              40.00      400.00
02511             -40.00      280.00
02512             -80.00      320.00
02513             -80.00      400.00
02514              40.00      400.00
02515             -40.00      440.00
02516             -40.00      480.00
02517             -40.00      520.00
02518             -40.00      520.00
02519             -80.00      520.00
02520             -40.00      600.00
02521               0.00      640.00
02522             -40.00      640.00
02523             -80.00      640.00
02524             -80.00      680.00
02525             -80.00      720.00
02526             -40.00      760.00
02527             -80.00      800.00
02528             -40.00      800.00
02529             -80.00      840.00
02530            -120.00      840.00
02531             -80.00      920.00
02532             -80.00      920.00
02533             -80.00      960.00
02534            -120.00      960.00
02535            -120.00      960.00
02536            -120.00     1000.00
02537             -80.00     1040.00
02538            -120.00     1080.00
02539            -120.00     1080.00
02540            -120.00     1120.00
02541             -80.00     1120.00
02542            -120.00     1200.00
02543             -80.00     1240.00
02544            -120.00     1240.00
02545            -120.00     1280.00
02546            -120.00     1240.00
02547            -120.00     1280.00
02548            -120.00     1320.00
02549            -120.00     1360.00
02550            -120.00     1400.00
02551            -120.00     1440.00
02552            -120.00     1440.00
02553            -120.00     1440.00
02554            -120.00     1520.00
02555            -120.00     1520.00
02556            -160.00     1520.00
02557            -120.00     1560.00
02558            -160.00     1560.00
02559            -160.00     1680.00
02560            -160.00     1640.00
02561            -120.00     1680.00
02562            -200.00     1680.00
02563            -160.00     1720.00
02564            -200.00     1720.00
02565            -120.00     1760.00
02566            -200.00     1760.00
02567            -200.00     1800.00
02568            -200.00     1840.00
02569            -200.00     1880.00
02570            -200.00     1880.00
02571            -200.00     1920.00
02572            -200.00     2000.00
02573            -200.00     1960.00
02574            -240.00     2000.00
02575            -200.00     2000.00
02576            -240.00     2040.00
02577            -240.00     2040.00
02578            -240.00     2040.00
02579            -240.00     2120.00
02580            -240.00     2120.00
02581            -240.00     2160.00
02582            -240.00     2200.00
02583            -240.00     2240.00
02584            -240.00     2240.00
02585            -240.00     2240.00
02586            -240.00     2280.00
02587            -240.00     2320.00
02588            -240.00     2320.00
02589            -240.00     2360.00
02590            -280.00     2360.00
02591            -280.00     2360.00
02592            -280.00     2440.00
02593            -280.00     2480.00
02594            -280.00     2480.00
02595            -280.00     2480.00
02596            -280.00     2480.00
02597            -280.00     2520.00
02598            -280.00     2560.00
02599            -280.00     2560.00
02600            -280.00     2560.00
02601            -280.00     2640.00
02602            -280.00     2640.00
02603            -360.00     2640.00
02604            -280.00     2680.00
02605            -280.00     2720.00
02606            -280.00     2720.00
02607            -280.00     2720.00
02608            -360.00     2760.00
02609            -360.00     2800.00
02610            -280.00     2800.00
02611            -320.00     2840.00
02612            -360.00     2840.00
02613            -360.00     2920.00
02614            -360.00     2880.00
02615            -320.00     2960.00
02616            -360.00     2960.00
02617            -360.00     2960.00
02618            -360.00     2960.00
02619            -360.00     3000.00
02620            -320.00     3000.00
02621            -360.00     3040.00
02622            -360.00     3040.00
02623            -360.00     3080.00
02624            -360.00     3080.00
02625            -360.00     3120.00
02626            -360.00     3120.00
02627            -360.00     3160.00
02628            -400.00     3160.00
02629            -400.00     3200.00
02630            -360.00     3200.00
02631            -400.00     3200.00
02632            -400.00     3240.00
02633            -400.00     3280.00
02634            -360.00     3320.00
02635            -400.00     3280.00
02636            -400.00     3320.00
02637            -400.00     3320.00
02638            -400.00     3360.00
02639            -400.00     3360.00
02640            -400.00     3360.00
02641            -400.00     3400.00
02642            -400.00     3440.00
02643            -400.00     3440.00
02644            -400.00     3440.00
02645            -440.00     3480.00
02646            -440.00     3480.00
02647            -440.00     3480.00
02648            -440.00     3520.00
02649            -440.00     3600.00
02650            -440.00     3560.00
02651            -440.00     3560.00
02652            -440.00     3600.00
02653            -440.00     3600.00
02654            -440.00     3640.00
02655            -440.00     3640.00
02656            -440.00     3640.00
02657            -440.00     3680.00
02658            -440.00     3680.00
02659            -440.00     3680.00
02660            -440.00     3680.00
02661            -440.00     3760.00
02662            -440.00     3760.00
02663            -440.00     3760.00
02664            -440.00     3760.00
02665            -440.00     3800.00
02666            -440.00     3800.00
02667            -440.00     3800.00
02668            -480.00     3840.00
02669            -440.00     3840.00
02670            -440.00     3840.00
02671            -480.00     3880.00
02672            -440.00     3840.00
02673            -440.00     3920.00
02674            -440.00     3880.00
02675            -440.00     3920.00
02676            -440.00     3920.00
02677            -480.00     3920.00
02678            -520.00     3920.00
02679            -440.00     3960.00
02680            -480.00     4000.00
02681            -440.00     3960.00
02682            -480.00     4000.00
02683            -440.00     4000.00
02684            -480.00     4000.00
02685            -440.00     4000.00
02686            -520.00     4040.00
02687            -440.00     4080.00
02688            -520.00     4080.00
02689            -440.00     4080.00
02690            -480.00     4080.00
02691            -480.00     4080.00
02692            -520.00     4120.00
02693            -480.00     4120.00
02694            -440.00     4120.00
02695            -520.00     4120.00
02696            -520.00     4160.00
02697            -520.00     4120.00
02698            -440.00     4160.00
02699            -520.00     4160.00
02700            -520.00     4200.00
02701            -520.00     4160.00
02702            -520.00     4200.00
02703            -520.00     4240.00
02704            -560.00     4200.00
02705            -520.00     4240.00
02706            -560.00     4240.00
02707            -520.00     4200.00
02708            -560.00     4240.00
02709            -560.00     4240.00
02710            -520.00     4240.00
02711            -520.00     4240.00
02712            -520.00     4240.00
02713            -560.00     4240.00
02714            -520.00     4280.00
02715            -560.00     4280.00
02716            -560.00     4280.00
02717            -560.00     4280.00
02718            -560.00     4280.00
02719            -560.00     4320.00
02720            -560.00     4320.00
02721            -560.00     4320.00
02722            -520.00     4280.00
02723            -560.00     4320.00
02724            -520.00     4320.00
02725            -520.00     4320.00
02726            -560.00     4320.00
02727            -520.00     4320.00
02728            -560.00     4320.00
02729            -560.00     4400.00
02730            -560.00     4360.00
02731            -560.00     4320.00
02732            -560.00     4360.00
02733            -560.00     4360.00
02734            -520.00     4400.00
02735            -560.00     4360.00
02736            -560.00     4400.00
02737            -560.00     4400.00
02738            -560.00     4360.00
02739            -560.00     4400.00
02740            -560.00     4400.00
02741            -560.00     4360.00
02742            -520.00     4400.00
02743            -560.00     4400.00
02744            -560.00     4400.00
02745            -560.00     4400.00
02746            -560.00     4400.00
02747            -560.00     4400.00
02748            -560.00     4400.00
02749            -520.00     4400.00
02750            -560.00     4400.00
02751            -560.00     4400.00
02752            -560.00     4400.00
02753            -560.00     4400.00
02754            -560.00     4400.00
02755            -560.00     4400.00
02756            -560.00     4400.00
02757            -560.00     4400.00
02758            -560.00     4400.00
02759            -560.00     4400.00
02760            -560.00     4400.00
02761            -560.00     4400.00
02762            -560.00     4400.00
02763            -560.00     4400.00
02764            -560.00     4400.00
02765            -560.00     4360.00
02766            -560.00     4400.00
02767            -560.00     4360.00
02768            -560.00     4320.00
02769            -560.00     4360.00
02770            -560.00     4360.00
02771            -560.00     4360.00
02772            -560.00     4360.00
02773            -520.00     4360.00
02774            -560.00     4360.00
02775            -560.00     4320.00
02776            -560.00     4320.00
02777            -560.00     4320.00
02778            -560.00     4320.00
02779            -560.00     4320.00
02780            -560.00     4320.00
02781            -560.00     4320.00
02782            -560.00     4320.00
02783            -560.00     4320.00
02784            -560.00     4280.00
02785            -560.00     4320.00
02786            -560.00     4280.00
02787            -560.00     4280.00
02788            -560.00     4280.00
02789            -560.00     4280.00
02790            -560.00     4280.00
02791            -560.00     4280.00
02792            -520.00     4240.00
02793            -560.00     4240.00
02794            -560.00     4240.00
02795            -560.00     4240.00
02796            -560.00     4240.00
02797            -560.00     4240.00
02798            -560.00     4200.00
02799            -560.00     4200.00
02800            -560.00     4160.00
02801            -560.00     4200.00
02802            -560.00     4160.00
02803            -560.00     4200.00
02804            -520.00     4160.00
02805            -560.00     4200.00
02806            -520.00     4160.00
02807            -520.00     4120.00
02808            -520.00     4120.00
02809            -520.00     4120.00
02810            -560.00     4120.00
02811            -560.00     4080.00
02812            -520.00     4080.00
02813            -520.00     4080.00
02814            -520.00     4080.00
02815            -520.00     4080.00
02816            -520.00     4000.00
02817            -520.00     4040.00
02818            -520.00     4000.00
02819            -520.00     4000.00
02820            -520.00     4040.00
02821            -520.00     3960.00
02822            -520.00     4000.00
02823            -520.00     3960.00
02824            -560.00     3960.00
02825            -520.00     3920.00
02826            -480.00     3920.00
02827            -520.00     3920.00
02828            -520.00     3920.00
02829            -520.00     3920.00
02830            -520.00     3880.00
02831            -440.00     3880.00
02832            -520.00     3840.00
02833            -520.00     3840.00
02834            -480.00     3840.00
02835            -480.00     3800.00
02836            -480.00     3800.00
02837            -520.00     3800.00
02838            -520.00     3760.00
02839            -520.00     3800.00
02840            -480.00     3760.00
02841            -440.00     3760.00
02842            -520.00     3720.00
02843            -440.00     3680.00
02844            -480.00     3720.00
02845            -520.00     3680.00
02846            -520.00     3640.00
02847            -520.00     3640.00
02848            -480.00     3600.00
02849            -440.00     3640.00
02850            -480.00     3600.00
02851            -440.00     3560.00
02852            -480.00     3600.00
02853            -440.00     3560.00
02854            -440.00     3520.00
02855            -440.00     3520.00
02856            -440.00     3480.00
02857            -440.00     3480.00
02858            -440.00     3440.00
02859            -440.00     3440.00
02860            -440.00     3440.00
02861            -440.00     3440.00
02862            -440.00     3400.00
02863            -440.00     3400.00
02864            -440.00     3360.00
02865            -440.00     3360.00
02866            -440.00     3320.00
02867            -440.00     3280.00
02868            -440.00     3320.00
02869            -440.00     3280.00
02870            -400.00     3280.00
02871            -440.00     3240.00
02872            -440.00     3240.00
02873            -440.00     3200.00
02874            -400.00     3160.00
02875            -400.00     3200.00
02876            -400.00     3160.00
02877            -400.00     3120.00
02878            -440.00     3120.00
02879            -440.00     3120.00
02880            -400.00     3080.00
02881            -400.00     3080.00
02882            -400.00     3040.00
02883            -400.00     3000.00
02884            -400.00     3000.00
02885            -400.00     2960.00
02886            -440.00     2960.00
02887            -400.00     2960.00
02888            -400.00     2920.00
02889            -400.00     2920.00
02890            -400.00     2880.00
02891            -360.00     2840.00
02892            -360.00     2840.00
02893            -360.00     2840.00
02894            -360.00     2800.00
02895            -400.00     2800.00
02896            -360.00     2720.00
02897            -360.00     2720.00
02898            -360.00     2720.00
02899            -360.00     2720.00
02900            -360.00     2680.00
02901            -360.00     2680.00
02902            -360.00     2640.00
02903            -360.00     2600.00
02904            -360.00     2560.00
02905            -400.00     2560.00
02906            -360.00     2560.00
02907            -360.00     2560.00
02908            -360.00     2480.00
02909            -360.00     2480.00
02910            -360.00     2480.00
02911            -360.00     2400.00
02912            -360.00     2400.00
02913            -360.00     2400.00
02914            -360.00     2360.00
02915            -360.00     2360.00
02916            -360.00     2320.00
02917            -360.00     2320.00
02918            -360.00     2280.00
02919            -280.00     2240.00
02920            -280.00     2240.00
02921            -280.00     2200.00
02922            -320.00     2200.00
02923            -280.00     2160.00
02924            -280.00     2160.00
02925            -280.00     2120.00
02926            -280.00     2080.00
02927            -320.00     2080.00
02928            -280.00     2040.00
02929            -280.00     2000.00
02930            -280.00     2000.00
02931            -280.00     2000.00
02932            -240.00     1920.00
02933            -280.00     1920.00
02934            -280.00     1880.00
02935            -240.00     1880.00
02936            -240.00     1840.00
02937            -240.00     1840.00
02938            -240.00     1800.00
02939            -280.00     1760.00
02940            -240.00     1760.00
02941            -240.00     1720.00
02942            -240.00     1720.00
02943            -240.00     1680.00
02944            -240.00     1680.00
02945            -240.00     1640.00
02946            -240.00     1600.00
02947            -240.00     1560.00
02948            -240.00     1560.00
02949            -200.00     1520.00
02950            -240.00     1520.00
02951            -240.00     1440.00
02952            -200.00     1440.00
02953            -200.00     1400.00
02954            -240.00     1400.00
02955            -200.00     1360.00
02956            -200.00     1360.00
02957            -200.00     1320.00
02958            -200.00     1280.00
02959            -200.00     1240.00
02960            -200.00     1240.00
02961            -200.00     1200.00
02962            -160.00     1200.00
02963            -200.00     1200.00
02964            -200.00     1160.00
02965            -200.00     1120.00
02966            -160.00     1080.00
02967            -200.00     1080.00
02968            -200.00     1040.00
02969            -200.00     1040.00
02970            -160.00      960.00
02971            -160.00      960.00
02972            -120.00      920.00
02973            -200.00      880.00
02974            -120.00      880.00
02975            -160.00      880.00
02976            -120.00      800.00
02977            -120.00      800.00
02978            -120.00      760.00
02979            -120.00      760.00
02980            -120.00      720.00
02981            -120.00      720.00
02982            -120.00      680.00
02983            -120.00      640.00
02984            -120.00      600.00
02985            -120.00      600.00
02986             -80.00      560.00
02987             -80.00      560.00
02988            -120.00      480.00
02989             -80.00      480.00
02990            -120.00      480.00
02991            -120.00      440.00
02992             -80.00      400.00
02993             -80.00      360.00
02994             -80.00      360.00
02995             -80.00      320.00
02996             -80.00      320.00
02997             -80.00      280.00
02998             -80.00      280.00
02999             -80.00      240.00
03000             -80.00      200.00
03001             -80.00      160.00
03002             -40.00      120.00
03003             -40.00      120.00
03004             -40.00       80.00
03005             -40.00       40.00
03006             -40.00       40.00
03007             -40.00        0.00
03008             -40.00      -40.00
03009             -40.00      -40.00
03010               0.00      -80.00
03011             -40.00      -80.00
03012              40.00     -120.00
03013             -40.00     -160.00
03014             -40.00     -160.00
03015             -40.00     -200.00
03016               0.00     -200.00
03017              40.00     -240.00
03018              40.00     -240.00
03019              80.00     -320.00
03020              40.00     -400.00
03021             -40.00     -440.00
03022             -40.00     -400.00
03023              80.00     -400.00
03024              40.00     -480.00
03025              40.00     -440.00
03026              40.00     -480.00
03027              40.00     -560.00
03028              40.00     -560.00
03029              40.00     -560.00
03030              80.00     -640.00
03031              40.00     -640.00
03032              40.00     -640.00
03033              80.00     -680.00
03034              80.00     -720.00
03035              80.00     -760.00
03036              80.00     -720.00
03037              80.00     -800.00
03038              40.00     -840.00
03039              80.00     -880.00
03040              80.00     -880.00
03041              80.00     -920.00
03042              80.00     -960.00
03043              80.00    -1000.00
03044              80.00    -1000.00
03045              80.00    -1000.00
03046              80.00    -1040.00
03047              80.00    -1080.00
03048              80.00    -1120.00
03049              80.00    -1160.00
03050              80.00    -1160.00
03051             120.00    -1200.00
03052             120.00    -1200.00
03053             120.00    -1240.00
03054              80.00    -1280.00
03055             120.00    -1320.00
03056             160.00    -1320.00
03057             120.00    -1320.00
03058             120.00    -1360.00
03059             120.00    -1360.00
03060             120.00    -1440.00
03061             200.00    -1440.00
03062             120.00    -1480.00
03063             200.00    -1480.00
03064             120.00    -1480.00
03065             160.00    -1520.00
03066             160.00    -1600.00
03067             200.00    -1600.00
03068             200.00    -1640.00
03069             200.00    -1640.00
03070             200.00    -1680.00
03071             200.00    -1680.00
03072             200.00    -1720.00
03073             200.00    -1760.00
03074             200.00    -1760.00
03075             240.00    -1760.00
03076             200.00    -1840.00
03077             240.00    -1840.00
03078             200.00    -1880.00
03079             200.00    -1840.00
03080             240.00    -1920.00
03081             240.00    -1920.00
03082             240.00    -1960.00
03083             240.00    -1960.00
03084             240.00    -2000.00
03085             240.00    -2080.00
03086             240.00    -2080.00
03087             240.00    -2080.00
03088             240.00    -2080.00
03089             240.00    -2120.00
03090             240.00    -2120.00
03091             240.00    -2200.00
03092             280.00    -2160.00
03093             240.00    -2240.00
03094             280.00    -2200.00
03095             240.00    -2240.00
03096             280.00    -2320.00
03097             280.00    -2320.00
03098             240.00    -2360.00
03099             280.00    -2400.00
03100             280.00    -2400.00
03101             240.00    -2400.00
03102             280.00    -2440.00
03103             240.00    -2480.00
03104             280.00    -2480.00
03105             280.00    -2480.00
03106             240.00    -2560.00
03107             280.00    -2560.00
03108             280.00    -2600.00
03109             320.00    -2600.00
03110             280.00    -2600.00
03111             360.00    -2640.00
03112             320.00    -2640.00
03113             280.00    -2680.00
03114             280.00    -2680.00
03115             320.00    -2720.00
03116             320.00    -2720.00
03117             360.00    -2760.00
03118             360.00    -2800.00
03119             280.00    -2800.00
03120             360.00    -2800.00
03121             360.00    -2880.00
03122             360.00    -2880.00
03123             360.00    -2880.00
03124             360.00    -2920.00
03125             360.00    -2960.00
03126             360.00    -2960.00
03127             360.00    -2960.00
03128             360.00    -2960.00
03129             360.00    -3040.00
03130             400.00    -3040.00
03131             400.00    -3040.00
03132             400.00    -3080.00
03133             360.00    -3080.00
03134             400.00    -3120.00
03135             360.00    -3120.00
03136             360.00    -3120.00
03137             360.00    -3160.00
03138             400.00    -3200.00
03139             400.00    -3200.00
03140             400.00    -3200.00
03141             400.00    -3240.00
03142             400.00    -3240.00
03143             400.00    -3280.00
03144             400.00    -3280.00
03145             400.00    -3360.00
03146             400.00    -3360.00
03147             440.00    -3360.00
03148             400.00    -3360.00
03149             440.00    -3400.00
03150             400.00    -3360.00
03151             440.00    -3400.00
03152             440.00    -3440.00
03153             400.00    -3440.00
03154             440.00    -3440.00
03155             400.00    -3480.00
03156             440.00    -3480.00
03157             440.00    -3520.00
03158             440.00    -3520.00
03159             440.00    -3560.00
03160             440.00    -3560.00
03161             440.00    -3560.00
03162             440.00    -3600.00
03163             440.00    -3600.00
03164             440.00    -3640.00
03165             440.00    -3680.00
03166             440.00    -3680.00
03167             440.00    -3680.00
03168             440.00    -3720.00
03169             400.00    -3720.00
03170             440.00    -3720.00
03171             440.00    -3720.00
03172             440.00    -3760.00
03173             440.00    -3760.00
03174             440.00    -3760.00
03175             440.00    -3760.00
03176             520.00    -3800.00
03177             440.00    -3840.00
03178             440.00    -3840.00
03179             480.00    -3840.00
03180             480.00    -3880.00
03181             440.00    -3880.00
03182             480.00    -3880.00
03183             520.00    -3920.00
03184             520.00    -3920.00
03185             440.00    -3920.00
03186             520.00    -3920.00
03187             480.00    -3920.00
03188             480.00    -3920.00
03189             520.00    -3960.00
03190             440.00    -4000.00
03191             520.00    -4000.00
03192             520.00    -4000.00
03193             520.00    -4000.00
03194             520.00    -4000.00
03195             520.00    -4040.00
03196             520.00    -4040.00
03197             520.00    -4040.00
03198             520.00    -4040.00
03199             520.00    -4080.00
03200             520.00    -4080.00
03201             520.00    -4080.00
03202             520.00    -4080.00
03203             520.00    -4120.00
03204             520.00    -4120.00
03205             520.00    -4160.00
03206             520.00    -4160.00
03207             520.00    -4160.00
03208             520.00    -4160.00
03209             520.00    -4160.00
03210             520.00    -4160.00
03211             520.00    -4160.00
03212             520.00    -4240.00
03213             560.00    -4200.00
03214             560.00    -4200.00
03215             520.00    -4200.00
03216             520.00    -4240.00
03217             520.00    -4240.00
03218             520.00    -4200.00
03219             560.00    -4240.00
03220             520.00    -4240.00
03221             520.00    -4240.00
03222             560.00    -4240.00
03223             560.00    -4240.00
03224             560.00    -4240.00
03225             520.00    -4280.00
03226             560.00    -4320.00
03227             560.00    -4280.00
03228             520.00    -4320.00
03229             520.00    -4320.00
03230             520.00    -4280.00
03231             520.00    -4320.00
03232             520.00    -4320.00
03233             560.00    -4320.00
03234             560.00    -4320.00
03235             520.00    -4360.00
03236             560.00    -4320.00
03237             560.00    -4360.00
03238             520.00    -4360.00
03239             560.00    -4360.00
03240             520.00    -4360.00
03241             560.00    -4360.00
03242             520.00    -4360.00
03243             520.00    -4360.00
03244             560.00    -4360.00
03245             560.00    -4360.00
03246             520.00    -4360.00
03247             560.00    -4360.00
03248             560.00    -4400.00
03249             560.00    -4360.00
03250             560.00    -4360.00
03251             560.00    -4360.00
03252             560.00    -4400.00
03253             560.00    -4360.00
03254             560.00    -4400.00
03255             520.00    -4360.00
03256             560.00    -4360.00
03257             560.00    -4360.00
03258             560.00    -4360.00
03259             560.00    -4400.00
03260             600.00    -4360.00
03261             560.00    -4400.00
03262             560.00    -4360.00
03263             560.00    -4360.00
03264             560.00    -4360.00
03265             560.00    -4360.00
03266             520.00    -4400.00
03267             560.00    -4360.00
03268             560.00    -4360.00
03269             560.00    -4360.00
03270             560.00    -4400.00
03271             560.00    -4400.00
03272             520.00    -4360.00
03273             560.00    -4360.00
03274             560.00    -4320.00
03275             560.00    -4360.00
03276             560.00    -4320.00
03277             560.00    -4360.00
03278             560.00    -4360.00
03279             560.00    -4320.00
03280             560.00    -4360.00
03281             560.00    -4320.00
03282             560.00    -4320.00
03283             560.00    -4320.00
03284             560.00    -4320.00
03285             520.00    -4320.00
03286             600.00    -4320.00
03287             560.00    -4360.00
03288             560.00    -4320.00
03289             560.00    -4320.00
03290             560.00    -4320.00
03291             560.00    -4280.00
03292             560.00    -4320.00
03293             560.00    -4280.00
03294             560.00    -4280.00
03295             560.00    -4280.00
03296             560.00    -4240.00
03297             560.00    -4240.00
03298             560.00    -4240.00
03299             520.00    -4240.00
03300             520.00    -4240.00
03301             560.00    -4240.00
03302             520.00    -4240.00
03303             520.00    -4240.00
03304             520.00    -4200.00
03305             520.00    -4200.00
03306             520.00    -4200.00
03307             560.00    -4200.00
03308             520.00    -4200.00
03309             520.00    -4200.00
03310             520.00    -4200.00
03311             520.00    -4160.00
03312             520.00    -4160.00
03313             520.00    -4160.00
03314             520.00    -4160.00
03315             520.00    -4160.00
03316             520.00    -4160.00
03317             520.00    -4120.00
03318             520.00    -4080.00
03319             520.00    -4120.00
03320             520.00    -4080.00
03321             520.00    -4080.00
03322             520.00    -4040.00
03323             520.00    -4040.00
03324             520.00    -4040.00
03325             520.00    -4000.00
03326             560.00    -4000.00
03327             520.00    -4000.00
03328             520.00    -4000.00
03329             520.00    -4000.00
03330             520.00    -3960.00
03331             520.00    -4000.00
03332             520.00    -3920.00
03333             520.00    -3920.00
03334             520.00    -3920.00
03335             520.00    -3920.00
03336             560.00    -3880.00
03337             520.00    -3880.00
03338             520.00    -3880.00
03339             520.00    -3840.00
03340             520.00    -3840.00
03341             520.00    -3840.00
03342             520.00    -3840.00
03343             520.00    -3800.00
03344             520.00    -3840.00
03345             520.00    -3760.00
03346             520.00    -3760.00
03347             520.00    -3760.00
03348             520.00    -3760.00
03349             520.00    -3720.00
03350             520.00    -3720.00
03351             520.00    -3720.00
03352             520.00    -3680.00
03353             520.00    -3680.00
03354             520.00    -3680.00
03355             480.00    -3600.00
03356             520.00    -3640.00
03357             520.00    -3600.00
03358             440.00    -3600.00
03359             440.00    -3560.00
03360             440.00    -3560.00
03361             440.00    -3560.00
03362             520.00    -3560.00
03363             440.00    -3480.00
03364             440.00    -3520.00
03365             440.00    -3480.00
03366             440.00    -3480.00
03367             440.00    -3440.00
03368             440.00    -3440.00
03369             440.00    -3440.00
03370             440.00    -3400.00
03371             440.00    -3400.00
03372             440.00    -3360.00
03373             440.00    -3360.00
03374             440.00    -3360.00
03375             440.00    -3320.00
03376             440.00    -3320.00
03377             440.00    -3280.00
03378             440.00    -3280.00
03379             440.00    -3240.00
03380             440.00    -3240.00
03381             440.00    -3240.00
03382             440.00    -3200.00
03383             400.00    -3160.00
03384             440.00    -3120.00
03385             440.00    -3120.00
03386             400.00    -3120.00
03387             440.00    -3120.00
03388             400.00    -3080.00
03389             440.00    -3040.00
03390             440.00    -3040.00
03391             440.00    -3040.00
03392             400.00    -3000.00
03393             400.00    -2960.00
03394             400.00    -2960.00
03395             400.00    -2960.00
03396             400.00    -2920.00
03397             400.00    -2880.00
03398             400.00    -2920.00
03399             400.00    -2880.00
03400             400.00    -2840.00
03401             400.00    -2800.00
03402             400.00    -2800.00
03403             400.00    -2760.00
03404             400.00    -2760.00
03405             400.00    -2760.00
03406             400.00    -2720.00
03407             400.00    -2720.00
03408             400.00    -2640.00
03409             360.00    -2680.00
03410             400.00    -2640.00
03411             400.00    -2600.00
03412             400.00    -2600.00
03413             360.00    -2560.00
03414             360.00    -2600.00
03415             360.00    -2520.00
03416             360.00    -2480.00
03417             360.00    -2480.00
03418             360.00    -2480.00
03419             360.00    -2440.00
03420             360.00    -2440.00
03421             360.00    -2360.00
03422             360.00    -2400.00
03423             360.00    -2320.00
03424             320.00    -2320.00
03425             320.00    -2280.00
03426             360.00    -2280.00
03427             280.00    -2240.00
03428             280.00    -2200.00
03429             360.00    -2200.00
03430             280.00    -2160.00
03431             320.00    -2160.00
03432             280.00    -2120.00
03433             280.00    -2120.00
03434             280.00    -2080.00
03435             280.00    -2080.00
03436             280.00    -2000.00
03437             280.00    -2000.00
03438             240.00    -2000.00
03439             240.00    -1960.00
03440             280.00    -1960.00
03441             280.00    -1920.00
03442             240.00    -1920.00
03443             240.00    -1840.00
03444             240.00    -1880.00
03445             240.00    -1840.00
03446             240.00    -1800.00
03447             240.00    -1800.00
03448             280.00    -1760.00
03449             240.00    -1720.00
03450             240.00    -1680.00
03451             240.00    -1680.00
03452             240.00    -1680.00
03453             240.00    -1640.00
03454             240.00    -1600.00
03455             240.00    -1600.00
03456             240.00    -1600.00
03457             240.00    -1560.00
03458             240.00    -1480.00
03459             200.00    -1480.00
03460             240.00    -1440.00
03461             240.00    -1440.00
03462             200.00    -1400.00
03463             200.00    -1360.00
03464             200.00    -1360.00
03465             240.00    -1320.00
03466             200.00    -1280.00
03467             200.00    -1280.00
03468             200.00    -1280.00
03469             200.00    -1240.00
03470             200.00    -1200.00
03471             200.00    -1160.00
03472             200.00    -1160.00
03473             200.00    -1120.00
03474             200.00    -1080.00
03475             200.00    -1080.00
03476             200.00    -1040.00
03477             200.00    -1040.00
03478             200.00    -1000.00
03479             160.00     -960.00
03480             160.00     -920.00
03481             200.00     -880.00
03482             120.00     -880.00
03483             200.00     -880.00
03484             120.00     -840.00
03485             160.00     -840.00
03486             120.00     -800.00
03487             120.00     -720.00
03488             120.00     -720.00
03489             120.00     -720.00
03490             120.00     -680.00
03491             120.00     -640.00
03492             120.00     -640.00
03493              80.00     -640.00
03494              80.00     -560.00
03495              80.00     -560.00
03496              80.00     -520.00
03497              80.00     -480.00
03498              80.00     -480.00
03499              80.00     -440.00
03500              80.00     -440.00
03501              80.00     -400.00
03502              80.00     -360.00
03503              80.00     -360.00
03504              80.00     -320.00
03505              80.00     -320.00
03506              40.00     -240.00
03507              40.00     -240.00
03508              40.00     -200.00
03509              40.00     -160.00
03510              40.00     -160.00
03511              40.00     -160.00
03512              40.00      -80.00
03513              40.00      -80.00
03514              40.00      -40.00
03515              40.00        0.00
03516              40.00        0.00
03517              40.00        0.00
03518              40.00       80.00
03519              40.00       80.00
03520              40.00      120.00
03521              40.00      160.00
03522              40.00      160.00
03523              40.00      160.00
03524              40.00      240.00
03525              40.00      240.00
03526              40.00      320.00
03527              40.00      360.00
03528             -40.00      320.00
03529             -80.00      320.00
03530             -80.00      400.00
03531              40.00      440.00
03532               0.00      480.00
03533               0.00      480.00
03534             -40.00      520.00
03535             -40.00      520.00
03536             -40.00      520.00
03537             -40.00      600.00
03538               0.00      600.00
03539             -40.00      640.00
03540             -80.00      680.00
03541             -80.00      680.00
03542             -40.00      720.00
03543             -80.00      720.00
03544             -40.00      800.00
03545             -40.00      800.00
03546             -80.00      800.00
03547            -120.00      800.00
03548             -80.00      880.00
03549             -80.00      920.00
03550             -80.00      920.00
03551            -120.00      960.00
03552             -80.00      960.00
03553             -80.00     1000.00
03554             -80.00     1040.00
03555             -80.00     1080.00
03556            -120.00     1120.00
03557            -120.00     1120.00
03558            -120.00     1120.00
03559            -120.00     1200.00
03560            -120.00     1200.00
03561            -120.00     1240.00
03562            -120.00     1240.00
03563            -120.00     1280.00
03564            -120.00     1280.00
03565            -120.00     1360.00
03566            -160.00     1360.00
03567            -120.00     1360.00
03568            -160.00     1400.00
03569            -120.00     1440.00
03570            -160.00     1440.00
03571            -120.00     1480.00
03572            -160.00     1520.00
03573            -160.00     1560.00
03574            -120.00     1600.00
03575            -160.00     1640.00
03576            -120.00     1600.00
03577            -160.00     1640.00
03578            -200.00     1680.00
03579            -200.00     1680.00
03580            -200.00     1720.00
03581            -200.00     1720.00
03582            -200.00     1760.00
03583            -200.00     1760.00
03584            -240.00     1800.00
03585            -200.00     1840.00
03586            -200.00     1840.00
03587            -200.00     1920.00
03588            -200.00     1920.00
03589            -200.00     1960.00
03590            -200.00     1960.00
03591            -240.00     2000.00
03592            -200.00     2000.00
03593            -240.00     2040.00
03594            -240.00     2080.00
03595            -200.00     2080.00
03596            -240.00     2080.00
03597            -240.00     2120.00
03598            -240.00     2160.00
03599            -240.00     2200.00
03600            -240.00     2200.00
03601            -240.00     2240.00
03602            -240.00     2240.00
03603            -240.00     2240.00
03604            -240.00     2280.00
03605            -240.00     2360.00
03606            -240.00     2360.00
03607            -240.00     2360.00
03608            -240.00     2400.00
03609            -280.00     2440.00
03610            -240.00     2440.00
03611            -280.00     2480.00
03612            -240.00     2480.00
03613            -280.00     2520.00
03614            -280.00     2520.00
03615            -280.00     2560.00
03616            -280.00     2560.00
03617            -280.00     2600.00
03618            -280.00     2600.00
03619            -280.00     2640.00
03620            -360.00     2640.00
03621            -280.00     2680.00
03622            -320.00     2680.00
03623            -320.00     2680.00
03624            -360.00     2720.00
03625            -360.00     2760.00
03626            -320.00     2800.00
03627            -360.00     2800.00
03628            -360.00     2800.00
03629            -360.00     2880.00
03630            -360.00     2840.00
03631            -360.00     2880.00
03632            -360.00     2920.00
03633            -360.00     2960.00
03634            -400.00     2960.00
03635            -360.00     3000.00
03636            -400.00     3000.00
03637            -360.00     3040.00
03638            -360.00     3040.00
03639            -400.00     3040.00
03640            -400.00     3080.00
03641            -360.00     3120.00
03642            -400.00     3120.00
03643            -360.00     3160.00
03644            -360.00     3160.00
03645            -400.00     3200.00
03646            -360.00     3160.00
03647            -400.00     3200.00
03648            -400.00     3240.00
03649            -400.00     3280.00
03650            -400.00     3280.00
03651            -400.00     3280.00
03652            -400.00     3280.00
03653            -400.00     3320.00
03654            -400.00     3360.00
03655            -440.00     3360.00
03656            -440.00     3360.00
03657            -400.00     3360.00
03658            -400.00     3440.00
03659            -400.00     3440.00
03660            -400.00     3440.00
03661            -440.00     3440.00
03662            -440.00     3480.00
03663            -400.00     3480.00
03664            -400.00     3480.00
03665            -440.00     3520.00
03666            -440.00     3520.00
03667            -440.00     3520.00
03668            -440.00     3560.00
03669            -400.00     3600.00
03670            -400.00     3640.00
03671            -440.00     3600.00
03672            -440.00     3640.00
03673            -440.00     3640.00
03674            -440.00     3680.00
03675            -440.00     3680.00
03676            -440.00     3680.00
03677            -440.00     3680.00
03678            -440.00     3720.00
03679            -440.00     3760.00
03680            -440.00     3760.00
03681            -440.00     3800.00
03682            -440.00     3760.00
03683            -440.00     3800.00
03684            -440.00     3800.00
03685            -440.00     3800.00
03686            -440.00     3840.00
03687            -440.00     3840.00
03688            -440.00     3840.00
03689            -480.00     3880.00
03690            -440.00     3880.00
03691            -520.00     3920.00
03692            -440.00     3920.00
03693            -480.00     3920.00
03694            -440.00     3920.00
03695            -480.00     3920.00
03696            -520.00     3960.00
03697            -480.00     3960.00
03698            -520.00     4000.00
03699            -520.00     4000.00
03700            -520.00     4000.00
03701            -520.00     4000.00
03702            -520.00     4000.00
03703            -480.00     4000.00
03704            -520.00     4080.00
03705            -480.00     4080.00
03706            -520.00     4080.00
03707            -520.00     4080.00
03708            -560.00     4080.00
03709            -520.00     4120.00
03710            -520.00     4120.00
03711            -520.00     4120.00
03712            -520.00     4120.00
03713            -560.00     4200.00
03714            -520.00     4160.00
03715            -520.00     4160.00
03716            -560.00     4160.00
03717            -520.00     4200.00
03718            -520.00     4200.00
03719            -520.00     4160.00
03720            -520.00     4200.00
03721            -520.00     4200.00
03722            -520.00     4200.00
03723            -520.00     4240.00
03724            -520.00     4240.00
03725            -560.00     4240.00
03726            -520.00     4240.00
03727            -520.00     4240.00
03728            -520.00     4280.00
03729            -520.00     4240.00
03730            -520.00     4280.00
03731            -520.00     4280.00
03732            -560.00     4280.00
03733            -560.00     4280.00
03734            -520.00     4280.00
03735            -560.00     4280.00
03736            -560.00     4320.00
03737            -520.00     4320.00
03738            -560.00     4320.00
03739            -520.00     4320.00
03740            -560.00     4320.00
03741            -520.00     4320.00
03742            -560.00     4320.00
03743            -520.00     4320.00
03744            -560.00     4320.00
03745            -560.00     4360.00
03746            -520.00     4360.00
03747            -560.00     4360.00
03748            -520.00     4400.00
03749            -560.00     4360.00
03750            -520.00     4320.00
03751            -560.00     4360.00
03752            -560.00     4360.00
03753            -560.00     4400.00
03754            -560.00     4400.00
03755            -560.00     4400.00
03756            -560.00     4400.00
03757            -560.00     4400.00
03758            -560.00     4360.00
03759            -560.00     4360.00
03760            -560.00     4400.00
03761            -560.00     4360.00
03762            -560.00     4400.00
03763            -560.00     4320.00
03764            -560.00     4400.00
03765            -600.00     4360.00
03766            -560.00     4320.00
03767            -560.00     4400.00
03768            -560.00     4400.00
03769            -560.00     4400.00
03770            -520.00     4400.00
03771            -560.00     4400.00
03772            -560.00     4400.00
03773            -560.00     4400.00
03774            -560.00     4400.00
03775            -560.00     4400.00
03776            -560.00     4400.00
03777            -560.00     4360.00
03778            -560.00     4400.00
03779            -560.00     4360.00
03780            -560.00     4360.00
03781            -560.00     4400.00
03782            -560.00     4360.00
03783            -560.00     4400.00
03784            -560.00     4400.00
03785            -560.00     4360.00
03786            -560.00     4400.00
03787            -560.00     4320.00
03788            -560.00     4360.00
03789            -560.00     4360.00
03790            -560.00     4360.00
03791            -520.00     4320.00
03792            -560.00     4320.00
03793            -560.00     4320.00
03794            -560.00     4320.00
03795            -560.00     4320.00
03796            -560.00     4320.00
03797            -560.00     4320.00
03798            -560.00     4320.00
03799            -560.00     4320.00
03800            -560.00     4320.00
03801            -560.00     4320.00
03802            -560.00     4280.00
03803            -560.00     4280.00
03804            -560.00     4280.00
03805            -560.00     4280.00
03806            -560.00     4280.00
03807            -560.00     4240.00
03808            -560.00     4280.00
03809            -560.00     4240.00
03810            -560.00     4240.00
03811            -560.00     4240.00
03812            -520.00     4240.00
03813            -560.00     4240.00
03814            -560.00     4240.00
03815            -560.00     4200.00
03816            -560.00     4200.00
03817            -560.00     4200.00
03818            -560.00     4160.00
03819            -560.00     4200.00
03820            -560.00     4200.00
03821            -560.00     4160.00
03822            -560.00     4160.00
03823            -520.00     4200.00
03824            -560.00     4120.00
03825            -560.00     4120.00
03826            -560.00     4120.00
03827            -520.00     4080.00
03828            -560.00     4080.00
03829            -520.00     4080.00
03830            -520.00     4080.00
03831            -520.00     4080.00
03832            -520.00     4080.00
03833            -520.00     4040.00
03834            -560.00     4040.00
03835            -560.00     4000.00
03836            -520.00     4040.00
03837            -520.00     4000.00
03838            -560.00     4000.00
03839            -520.00     3960.00
03840            -480.00     3960.00
03841            -520.00     3920.00
03842            -560.00     3920.00
03843            -520.00     3920.00
03844            -520.00     3920.00
03845            -520.00     3920.00
03846            -520.00     3920.00
03847            -520.00     3920.00
03848            -520.00     3880.00
03849            -480.00     3880.00
03850            -520.00     3840.00
03851            -520.00     3840.00
03852            -520.00     3840.00
03853            -520.00     3800.00
03854            -480.00     3800.00
03855            -480.00     3800.00
03856            -520.00     3760.00
03857            -440.00     3760.00
03858            -440.00     3760.00
03859            -480.00     3760.00
03860            -440.00     3720.00
03861            -440.00     3680.00
03862            -440.00     3680.00
03863            -440.00     3680.00
03864            -440.00     3640.00
03865            -520.00     3680.00
03866            -440.00     3640.00
03867            -440.00     3600.00
03868            -440.00     3600.00
03869            -440.00     3560.00
03870            -440.00     3520.00
03871            -440.00     3520.00
03872            -440.00     3520.00
03873            -440.00     3480.00
03874            -440.00     3480.00
03875            -440.00     3480.00
03876            -440.00     3440.00
03877            -440.00     3440.00
03878            -440.00     3440.00
03879            -440.00     3440.00
03880            -440.00     3360.00
03881            -440.00     3360.00
03882            -440.00     3320.00
03883            -440.00     3360.00
03884            -440.00     3320.00
03885            -440.00     3320.00
03886            -440.00     3280.00
03887            -440.00     3280.00
03888            -440.00     3240.00
03889            -440.00     3280.00
03890            -440.00     3200.00
03891            -440.00     3160.00
03892            -440.00     3160.00
03893            -440.00     3120.00
03894            -440.00     3120.00
03895            -440.00     3120.00
03896            -400.00     3120.00
03897            -400.00     3080.00
03898            -400.00     3080.00
03899            -440.00     3040.00
03900            -440.00     3040.00
03901            -440.00     3000.00
03902            -400.00     3000.00
03903            -400.00     2960.00
03904            -400.00     2960.00
03905            -400.00     2920.00
03906            -440.00     2920.00
03907            -400.00     2880.00
03908            -400.00     2880.00
03909            -400.00     2840.00
03910            -360.00     2840.00
03911            -400.00     2840.00
03912            -360.00     2760.00
03913            -400.00     2720.00
03914            -360.00     2720.00
03915            -400.00     2720.00
03916            -360.00     2680.00
03917            -400.00     2680.00
03918            -360.00     2640.00
03919            -400.00     2640.00
03920            -360.00     2640.00
03921            -400.00     2600.00
03922            -360.00     2560.00
03923            -360.00     2560.00
03924            -320.00     2520.00
03925            -360.00     2520.00
03926            -360.00     2480.00
03927            -360.00     2480.00
03928            -360.00     2440.00
03929            -280.00     2400.00
03930            -280.00     2400.00
03931            -360.00     2360.00
03932            -280.00     2320.00
03933            -320.00     2320.00
03934            -280.00     2280.00
03935            -280.00     2240.00
03936            -320.00     2240.00
03937            -280.00     2200.00
03938            -280.00     2200.00
03939            -320.00     2200.00
03940            -360.00     2160.00
03941            -280.00     2160.00
03942            -280.00     2120.00
03943            -280.00     2080.00
03944            -240.00     2040.00
03945            -280.00     2040.00
03946            -280.00     2040.00
03947            -280.00     2000.00
03948            -280.00     1920.00
03949            -280.00     1920.00
03950            -280.00     1880.00
03951            -240.00     1880.00
03952            -280.00     1840.00
03953            -280.00     1840.00
03954            -240.00     1840.00
03955            -240.00     1840.00
03956            -240.00     1760.00
03957            -240.00     1760.00
03958            -240.00     1720.00
03959            -240.00     1720.00
03960            -280.00     1680.00
03961            -240.00     1680.00
03962            -240.00     1640.00
03963            -240.00     1600.00
03964            -240.00     1560.00
03965            -240.00     1560.00
03966            -240.00     1520.00
03967            -200.00     1520.00
03968            -240.00     1480.00
03969            -240.00     1440.00
03970            -240.00     1400.00
03971            -240.00     1400.00
03972            -240.00     1360.00
03973            -200.00     1360.00
03974            -200.00     1320.00
03975            -200.00     1280.00
03976            -200.00     1280.00
03977            -200.00     1240.00
03978            -160.00     1240.00
03979            -160.00     1200.00
03980            -200.00     1200.00
03981            -200.00     1160.00
03982            -200.00     1120.00
03983            -200.00     1080.00
03984            -200.00     1080.00
03985            -120.00     1040.00
03986            -120.00     1040.00
03987            -160.00      960.00
03988            -120.00      920.00
03989            -160.00      920.00
03990            -120.00      920.00
03991            -120.00      880.00
03992            -120.00      880.00
03993            -120.00      840.00
03994            -120.00      800.00
03995            -120.00      800.00
03996            -120.00      760.00
03997            -120.00      720.00
03998            -120.00      720.00
03999            -120.00      640.00
04000             -80.00      640.00
04001            -120.00      600.00
04002            -120.00      600.00
04003            -120.00      600.00
04004            -120.00      560.00
04005             -80.00      520.00
04006             -80.00      480.00
04007            -120.00      440.00
04008            -120.00      440.00
04009             -80.00      400.00
04010             -80.00      400.00
04011            -120.00      360.00
04012             -80.00      320.00
04013             -80.00      320.00
04014             -80.00      280.00
04015             -80.00      240.00
04016             -80.00      200.00
04017             -40.00      200.00
04018             -80.00      160.00
04019            -120.00      120.00
04020             -80.00       80.00
04021             -40.00      120.00
04022             -80.00       80.00
04023             -40.00       40.00
04024             -80.00        0.00
04025             -40.00      -40.00
04026             -40.00      -40.00
04027             -40.00      -40.00
04028             -80.00      -80.00
04029             -40.00     -120.00
04030             -40.00     -160.00
04031             -40.00     -200.00
04032             -40.00     -200.00
04033             -40.00     -200.00
04034             -40.00     -240.00
04035               0.00     -280.00
04036              40.00     -320.00
04037               0.00     -400.00
04038             -40.00     -440.00
04039             -40.00     -400.00
04040              40.00     -400.00
04041              40.00     -480.00
04042              40.00     -480.00
04043              40.00     -480.00
04044              40.00     -520.00
04045              40.00     -640.00
04046              40.00     -560.00
04047              80.00     -600.00
04048              80.00     -640.00
04049              40.00     -680.00
04050              40.00     -680.00
04051              80.00     -720.00
04052              40.00     -760.00
04053              40.00     -720.00
04054              80.00     -800.00
04055              80.00     -840.00
04056              80.00     -840.00
04057              80.00     -840.00
04058              80.00     -880.00
04059             120.00     -920.00
04060              80.00     -920.00
04061              80.00     -960.00
04062              80.00    -1000.00
04063              80.00    -1040.00
04064             120.00    -1080.00
04065             120.00    -1120.00
04066              80.00    -1120.00
04067             120.00    -1160.00
04068              80.00    -1160.00
04069             120.00    -1200.00
04070              80.00    -1200.00
04071             120.00    -1280.00
04072             120.00    -1280.00
04073             120.00    -1320.00
04074             120.00    -1320.00
04075             120.00    -1360.00
04076             120.00    -1360.00
04077             160.00    -1400.00
04078             120.00    -1440.00
04079             160.00    -1480.00
04080             120.00    -1480.00
04081             200.00    -1520.00
04082             200.00    -1560.00
04083             200.00    -1520.00
04084             120.00    -1600.00
04085             160.00    -1640.00
04086             200.00    -1640.00
04087             200.00    -1640.00
04088             120.00    -1680.00
04089             200.00    -1720.00
04090             160.00    -1720.00
04091             160.00    -1760.00
04092             200.00    -1800.00
04093             200.00    -1800.00
04094             200.00    -1840.00
04095             200.00    -1880.00
04096             200.00    -1920.00
04097             200.00    -1920.00
04098             240.00    -1920.00
04099             200.00    -1960.00
04100             200.00    -2000.00
04101             240.00    -2000.00
04102             240.00    -2000.00
04103             240.00    -2080.00
04104             240.00    -2080.00
04105             200.00    -2120.00
04106             240.00    -2120.00
04107             240.00    -2160.00
04108             280.00    -2160.00
04109             280.00    -2200.00
04110             240.00    -2200.00
04111             280.00    -2240.00
04112             240.00    -2240.00
04113             280.00    -2280.00
04114             240.00    -2320.00
04115             240.00    -2320.00
04116             280.00    -2360.00
04117             240.00    -2400.00
04118             280.00    -2400.00
04119             280.00    -2440.00
04120             280.00    -2480.00
04121             280.00    -2480.00
04122             280.00    -2480.00
04123             360.00    -2520.00
04124             320.00    -2560.00
04125             280.00    -2600.00
04126             360.00    -2600.00
04127             280.00    -2640.00
04128             320.00    -2640.00
04129             280.00    -2680.00
04130             360.00    -2640.00
04131             280.00    -2720.00
04132             360.00    -2720.00
04133             360.00    -2760.00
04134             320.00    -2720.00
04135             360.00    -2760.00
04136             360.00    -2800.00
04137             360.00    -2840.00
04138             360.00    -2840.00
04139             360.00    -2880.00
04140             360.00    -2880.00
04141             360.00    -2880.00
04142             360.00    -2960.00
04143             360.00    -2960.00
04144             360.00    -2960.00
04145             360.00    -2960.00
04146             360.00    -3040.00
04147             320.00    -3040.00
04148             400.00    -3080.00
04149             360.00    -3080.00
04150             400.00    -3080.00
04151             360.00    -3120.00
04152             400.00    -3120.00
04153             360.00    -3120.00
04154             360.00    -3200.00
04155             400.00    -3200.00
04156             400.00    -3200.00
04157             400.00    -3240.00
04158             400.00    -3200.00
04159             400.00    -3280.00
04160             400.00    -3280.00
04161             360.00    -3280.00
04162             400.00    -3320.00
04163             400.00    -3360.00
04164             400.00    -3360.00
04165             400.00    -3360.00
04166             400.00    -3360.00
04167             400.00    -3400.00
04168             400.00    -3400.00
04169             400.00    -3440.00
04170             440.00    -3440.00
04171             440.00    -3440.00
04172             440.00    -3480.00
04173             400.00    -3520.00
04174             400.00    -3520.00
04175             440.00    -3480.00
04176             440.00    -3560.00
04177             400.00    -3560.00
04178             400.00    -3600.00
04179             440.00    -3600.00
04180             440.00    -3600.00
04181             440.00    -3640.00
04182             440.00    -3640.00
04183             440.00    -3680.00
04184             440.00    -3680.00
04185             480.00    -3720.00
04186             440.00    -3720.00
04187             480.00    -3720.00
04188             440.00    -3720.00
04189             440.00    -3760.00
04190             440.00    -3760.00
04191             440.00    -3760.00
04192             480.00    -3800.00
04193             440.00    -3800.00
04194             480.00    -3800.00
04195             440.00    -3840.00
04196             520.00    -3840.00
04197             480.00    -3880.00
04198             520.00    -3880.00
04199             520.00    -3880.00
04200             520.00    -3880.00
04201             440.00    -3920.00
04202             520.00    -3920.00
04203             520.00    -3920.00
04204             520.00    -3960.00
04205             520.00    -3960.00
04206             520.00    -3960.00
04207             520.00    -4000.00
04208             520.00    -4000.00
04209             520.00    -4000.00
04210             520.00    -4000.00
04211             440.00    -4040.00
04212             520.00    -4040.00
04213             520.00    -4040.00
04214             520.00    -4040.00
04215             520.00    -4080.00
04216             520.00    -4080.00
04217             520.00    -4080.00
04218             520.00    -4080.00
04219             520.00    -4080.00
04220             520.00    -4080.00
04221             520.00    -4120.00
04222             440.00    -4160.00
04223             520.00    -4160.00
04224             520.00    -4160.00
04225             520.00    -4160.00
04226             520.00    -4160.00
04227             520.00    -4200.00
04228             520.00    -4200.00
04229             520.00    -4200.00
04230             520.00    -4200.00
04231             520.00    -4240.00
04232             520.00    -4200.00
04233             520.00    -4200.00
04234             520.00    -4240.00
04235             560.00    -4240.00
04236             520.00    -4240.00
04237             520.00    -4200.00
04238             520.00    -4240.00
04239             520.00    -4240.00
04240             560.00    -4240.00
04241             520.00    -4240.00
04242             560.00    -4320.00
04243             520.00    -4280.00
04244             520.00    -4320.00
04245             520.00    -4280.00
04246             560.00    -4320.00
04247             520.00    -4320.00
04248             520.00    -4320.00
04249             520.00    -4320.00
04250             560.00    -4320.00
04251             560.00    -4320.00
04252             520.00    -4320.00
04253             520.00    -4320.00
04254             560.00    -4320.00
04255             560.00    -4320.00
04256             560.00    -4360.00
04257             560.00    -4360.00
04258             560.00    -4360.00
04259             520.00    -4360.00
04260             560.00    -4360.00
04261             560.00    -4360.00
04262             520.00    -4400.00
04263             560.00    -4360.00
04264             560.00    -4360.00
04265             560.00    -4400.00
04266             560.00    -4360.00
04267             560.00    -4360.00
04268             560.00    -4360.00
04269             560.00    -4400.00
04270             560.00    -4360.00
04271             560.00    -4360.00
04272             560.00    -4400.00
04273             560.00    -4400.00
04274             560.00    -4400.00
04275             520.00    -4360.00
04276             560.00    -4360.00
04277             520.00    -4360.00
04278             560.00    -4400.00
04279             560.00    -4400.00
04280             520.00    -4360.00
04281             560.00    -4360.00
04282             520.00    -4400.00
04283             520.00    -4360.00
04284             560.00    -4400.00
04285             560.00    -4360.00
04286             520.00    -4360.00
04287             520.00    -4360.00
04288             520.00    -4400.00
04289             520.00    -4400.00
04290             560.00    -4400.00
04291             520.00    -4320.00
04292             520.00    -4360.00
04293             560.00    -4360.00
04294             560.00    -4360.00
04295             520.00    -4320.00
04296             520.00    -4360.00
04297             560.00    -4360.00
04298             560.00    -4320.00
04299             560.00    -4360.00
04300             520.00    -4320.00
04301             560.00    -4320.00
04302             560.00    -4320.00
04303             560.00    -4320.00
04304             560.00    -4320.00
04305             560.00    -4320.00
04306             520.00    -4280.00
04307             520.00    -4320.00
04308             560.00    -4320.00
04309             560.00    -4320.00
04310             560.00    -4280.00
04311             560.00    -4320.00
04312             560.00    -4320.00
04313             560.00    -4280.00
04314             560.00    -4240.00
04315             560.00    -4240.00
04316             560.00    -4280.00
04317             560.00    -4240.00
04318             560.00    -4200.00
04319             560.00    -4240.00
04320             560.00    -4240.00
04321             560.00    -4200.00
04322             560.00    -4240.00
04323             560.00    -4200.00
04324             560.00    -4200.00
04325             560.00    -4160.00
04326             520.00    -4200.00
04327             560.00    -4200.00
04328             560.00    -4160.00
04329             560.00    -4160.00
04330             520.00    -4160.00
04331             560.00    -4160.00
04332             520.00    -4160.00
04333             520.00    -4160.00
04334             520.00    -4120.00
04335             560.00    -4080.00
04336             520.00    -4080.00
04337             520.00    -4080.00
04338             520.00    -4080.00
04339             520.00    -4040.00
04340             520.00    -4040.00
04341             520.00    -4040.00
04342             520.00    -4000.00
04343             520.00    -4040.00
04344             520.00    -4000.00
04345             520.00    -4000.00
04346             520.00    -4000.00
04347             520.00    -4000.00
04348             520.00    -3960.00
04349             520.00    -3960.00
04350             520.00    -3960.00
04351             520.00    -3920.00
04352             520.00    -3920.00
04353             520.00    -3920.00
04354             520.00    -3880.00
04355             520.00    -3880.00
04356             520.00    -3880.00
04357             520.00    -3840.00
04358             520.00    -3840.00
04359             520.00    -3840.00
04360             520.00    -3840.00
04361             520.00    -3800.00
04362             520.00    -3760.00
04363             520.00    -3760.00
04364             520.00    -3760.00
04365             520.00    -3760.00
04366             520.00    -3720.00
04367             520.00    -3720.00
04368             520.00    -3680.00
04369             520.00    -3680.00
04370             520.00    -3680.00
04371             520.00    -3680.00
04372             520.00    -3680.00
04373             440.00    -3680.00
04374             520.00    -3600.00
04375             480.00    -3600.00
04376             480.00    -3600.00
04377             480.00    -3560.00
04378             480.00    -3520.00
04379             520.00    -3560.00
04380             520.00    -3520.00
04381             440.00    -3480.00
04382             440.00    -3480.00
04383             440.00    -3480.00
04384             440.00    -3440.00
04385             440.00    -3440.00
04386             440.00    -3400.00
04387             440.00    -3400.00
04388             440.00    -3400.00
04389             440.00    -3360.00
04390             440.00    -3360.00
04391             440.00    -3360.00
04392             440.00    -3320.00
04393             480.00    -3280.00
04394             440.00    -3280.00
04395             440.00    -3280.00
04396             440.00    -3240.00
04397             440.00    -3280.00
04398             440.00    -3200.00
04399             440.00    -3200.00
04400             440.00    -3200.00
04401             400.00    -3160.00
04402             440.00    -3160.00
04403             400.00    -3120.00
04404             400.00    -3120.00
04405             400.00    -3080.00
04406             400.00    -3080.00
04407             400.00    -3040.00
04408             400.00    -3040.00
04409             400.00    -3000.00
04410             400.00    -3000.00
04411             400.00    -2960.00
04412             400.00    -2960.00
04413             400.00    -2960.00
04414             400.00    -2880.00
04415             400.00    -2880.00
04416             400.00    -2880.00
04417             400.00    -2880.00
04418             400.00    -2840.00
04419             400.00    -2800.00
04420             400.00    -2760.00
04421             400.00    -2760.00
04422             360.00    -2720.00
04423             360.00    -2720.00
04424             360.00    -2720.00
04425             360.00    -2720.00
04426             360.00    -2640.00
04427             360.00    -2640.00
04428             360.00    -2600.00
04429             360.00    -2600.00
04430             360.00    -2560.00
04431             360.00    -2560.00
04432             360.00    -2520.00
04433             360.00    -2480.00
04434             360.00    -2480.00
04435             360.00    -2440.00
04436             360.00    -2440.00
04437             360.00    -2400.00
04438             320.00    -2400.00
04439             360.00    -2360.00
04440             360.00    -2360.00
04441             360.00    -2320.00
04442             360.00    -2280.00
04443             360.00    -2280.00
04444             280.00    -2240.00
04445             360.00    -2240.00
04446             360.00    -2200.00
04447             320.00    -2160.00
04448             360.00    -2160.00
04449             280.00    -2120.00
04450             320.00    -2080.00
04451             320.00    -2120.00
04452             280.00    -2080.00
04453             320.00    -2040.00
04454             280.00    -2000.00
04455             280.00    -2000.00
04456             320.00    -1960.00
04457             280.00    -1920.00
04458             280.00    -1920.00
04459             280.00    -1920.00
04460             280.00    -1880.00
04461             280.00    -1840.00
04462             280.00    -1840.00
04463             280.00    -1760.00
04464             280.00    -1800.00
04465             240.00    -1760.00
04466             240.00    -1680.00
04467             240.00    -1720.00
04468             240.00    -1680.00
04469             240.00    -1680.00
04470             240.00    -1640.00
04471             240.00    -1640.00
04472             240.00    -1600.00
04473             240.00    -1560.00
04474             200.00    -1520.00
04475             200.00    -1520.00
04476             240.00    -1480.00
04477             200.00    -1440.00
04478             240.00    -1440.00
04479             240.00    -1400.00
04480             200.00    -1360.00
04481             200.00    -1360.00
04482             200.00    -1320.00
04483             200.00    -1320.00
04484             200.00    -1280.00
04485             200.00    -1240.00
04486             120.00    -1240.00
04487             200.00    -1200.00
04488             200.00    -1160.00
04489             160.00    -1160.00
04490             160.00    -1120.00
04491             200.00    -1120.00
04492             200.00    -1040.00
04493             200.00    -1040.00
04494             160.00    -1000.00
04495             200.00     -960.00
04496             120.00     -960.00
04497             120.00     -920.00
04498             160.00     -920.00
04499             120.00     -880.00
04500             160.00     -840.00
04501             120.00     -840.00
04502             200.00     -800.00
04503             120.00     -800.00
04504             120.00     -760.00
04505             120.00     -720.00
04506             120.00     -720.00
04507             120.00     -680.00
04508             120.00     -640.00
04509             120.00     -640.00
04510              80.00     -640.00
04511              80.00     -560.00
04512             120.00     -560.00
04513             120.00     -520.00
04514             120.00     -520.00
04515              80.00     -480.00
04516              80.00     -440.00
04517              80.00     -400.00
04518              80.00     -400.00
04519              80.00     -360.00
04520              80.00     -360.00
04521              80.00     -320.00
04522              80.00     -280.00
04523              80.00     -240.00
04524              80.00     -200.00
04525              80.00     -200.00
04526              80.00     -200.00
04527              80.00     -160.00
04528              80.00      -80.00
04529              40.00      -80.00
04530              40.00      -40.00
04531              40.00      -40.00
04532              40.00        0.00
04533              40.00        0.00
04534              40.00       40.00
04535              40.00       40.00
04536              40.00       80.00
04537              40.00      120.00
04538               0.00      160.00
04539              40.00      160.00
04540              40.00      160.00
04541             -40.00      200.00
04542              40.00      280.00
04543              40.00      320.00
04544              40.00      360.00
04545             -40.00      320.00
04546             -80.00      280.00
04547             -80.00      400.00
04548              40.00      440.00
04549             -40.00      440.00
04550               0.00      480.00
04551             -40.00      520.00
04552             -40.00      520.00
04553             -80.00      480.00
04554             -40.00      600.00
04555             -40.00      600.00
04556             -40.00      640.00
04557             -80.00      640.00
04558             -80.00      680.00
04559             -80.00      720.00
04560             -80.00      760.00
04561             -40.00      760.00
04562             -40.00      800.00
04563             -40.00      800.00
04564             -80.00      840.00
04565             -80.00      880.00
04566             -80.00      880.00
04567             -80.00      920.00
04568            -120.00      960.00
04569             -80.00      960.00
04570            -120.00     1000.00
04571             -80.00     1040.00
04572             -80.00     1080.00
04573             -80.00     1080.00
04574             -80.00     1120.00
04575            -120.00     1160.00
04576            -120.00     1200.00
04577            -120.00     1200.00
04578            -120.00     1200.00
04579            -120.00     1240.00
04580            -120.00     1280.00
04581            -120.00     1320.00
04582            -120.00     1320.00
04583            -120.00     1360.00
04584            -120.00     1400.00
04585            -120.00     1400.00
04586            -120.00     1440.00
04587            -120.00     1440.00
04588            -120.00     1440.00
04589            -120.00     1520.00
04590            -120.00     1520.00
04591            -120.00     1560.00
04592            -160.00     1640.00
04593            -160.00     1640.00
04594            -120.00     1680.00
04595            -200.00     1680.00
04596            -160.00     1680.00
04597            -200.00     1720.00
04598            -160.00     1680.00
04599            -200.00     1760.00
04600            -200.00     1800.00
04601            -200.00     1840.00
04602            -200.00     1840.00
04603            -240.00     1880.00
04604            -200.00     1920.00
04605            -240.00     1920.00
04606            -240.00     1920.00
04607            -240.00     1960.00
04608            -200.00     2000.00
04609            -240.00     2000.00
04610            -200.00     2040.00
04611            -240.00     2080.00
04612            -240.00     2040.00
04613            -240.00     2080.00
04614            -240.00     2160.00
04615            -240.00     2160.00
04616            -240.00     2200.00
04617            -240.00     2200.00
04618            -240.00     2240.00
04619            -240.00     2240.00
04620            -240.00     2240.00
04621            -240.00     2320.00
04622            -280.00     2320.00
04623            -280.00     2360.00
04624            -240.00     2360.00
04625            -280.00     2400.00
04626            -240.00     2400.00
04627            -280.00     2400.00
04628            -240.00     2480.00
04629            -280.00     2480.00
04630            -280.00     2520.00
04631            -280.00     2520.00
04632            -280.00     2560.00
04633            -280.00     2560.00
04634            -280.00     2600.00
04635            -320.00     2600.00
04636            -280.00     2640.00
04637            -280.00     2640.00
04638            -360.00     2680.00
04639            -280.00     2720.00
04640            -280.00     2720.00
04641            -320.00     2720.00
04642            -360.00     2760.00
04643            -360.00     2800.00
04644            -280.00     2800.00
04645            -280.00     2840.00
04646            -360.00     2840.00
04647            -360.00     2920.00
04648            -360.00     2920.00
04649            -280.00     2960.00
04650            -360.00     2960.00
04651            -360.00     2960.00
04652            -360.00     3000.00
04653            -360.00     3000.00
04654            -360.00     3000.00
04655            -360.00     3040.00
04656            -360.00     3040.00
04657            -360.00     3080.00
04658            -400.00     3080.00
04659            -400.00     3120.00
04660            -400.00     3120.00
04661            -360.00     3160.00
04662            -400.00     3160.00
04663            -400.00     3200.00
04664            -400.00     3200.00
04665            -400.00     3200.00
04666            -400.00     3240.00
04667            -400.00     3280.00
04668            -400.00     3280.00
04669            -400.00     3280.00
04670            -400.00     3280.00
04671            -400.00     3360.00
04672            -440.00     3360.00
04673            -400.00     3360.00
04674            -440.00     3360.00
04675            -400.00     3360.00
04676            -400.00     3440.00
04677            -440.00     3440.00
04678            -440.00     3440.00
04679            -400.00     3480.00
04680            -440.00     3480.00
04681            -440.00     3480.00
04682            -400.00     3520.00
04683            -440.00     3520.00
04684            -440.00     3560.00
04685            -440.00     3560.00
04686            -440.00     3600.00
04687            -440.00     3600.00
04688            -440.00     3600.00
04689            -440.00     3640.00
04690            -440.00     3680.00
04691            -440.00     3640.00
04692            -440.00     3680.00
04693            -440.00     3680.00
04694            -440.00     3720.00
04695            -440.00     3720.00
04696            -440.00     3760.00
04697            -440.00     3760.00
04698            -440.00     3760.00
04699            -440.00     3760.00
04700            -440.00     3800.00
04701            -440.00     3800.00
04702            -440.00     3840.00
04703            -440.00     3800.00
04704            -440.00     3840.00
04705            -480.00     3880.00
04706            -440.00     3880.00
04707            -480.00     3880.00
04708            -480.00     3920.00
04709            -440.00     3920.00
04710            -440.00     3920.00
04711            -480.00     3920.00
04712            -440.00     3920.00
04713            -440.00     3960.00
04714            -440.00     3960.00
04715            -480.00     4000.00
04716            -440.00     3960.00
04717            -520.00     4000.00
04718            -480.00     4000.00
04719            -520.00     4000.00
04720            -440.00     4040.00
04721            -440.00     4080.00
04722            -520.00     4080.00
04723            -480.00     4040.00
04724            -480.00     4080.00
04725            -440.00     4080.00
04726            -480.00     4120.00
04727            -480.00     4120.00
04728            -480.00     4120.00
04729            -520.00     4120.00
04730            -520.00     4160.00
04731            -520.00     4200.00
04732            -520.00     4160.00
04733            -520.00     4160.00
04734            -520.00     4200.00
04735            -480.00     4200.00
04736            -520.00     4200.00
04737            -520.00     4200.00
04738            -560.00     4200.00
04739            -520.00     4200.00
04740            -560.00     4240.00
04741            -520.00     4240.00
04742            -560.00     4240.00
04743            -560.00     4240.00
04744            -520.00     4240.00
04745            -520.00     4280.00
04746            -520.00     4240.00
04747            -520.00     4280.00
04748            -520.00     4280.00
04749            -520.00     4280.00
04750            -560.00     4280.00
04751            -520.00     4320.00
04752            -560.00     4280.00
04753            -520.00     4320.00
04754            -560.00     4280.00
04755            -560.00     4320.00
04756            -520.00     4320.00
04757            -560.00     4320.00
04758            -520.00     4320.00
04759            -560.00     4320.00
04760            -560.00     4320.00
04761            -560.00     4320.00
04762            -560.00     4320.00
04763            -520.00     4320.00
04764            -560.00     4320.00
04765            -520.00     4320.00
04766            -560.00     4360.00
04767            -560.00     4360.00
04768            -560.00     4400.00
04769            -560.00     4360.00
04770            -560.00     4400.00
04771            -560.00     4400.00
04772            -560.00     4400.00
04773            -520.00     4400.00
04774            -560.00     4400.00
04775            -560.00     4400.00
04776            -560.00     4400.00
04777            -560.00     4400.00
04778            -560.00     4400.00
04779            -560.00     4400.00
04780            -560.00     4400.00
04781            -560.00     4360.00
04782            -560.00     4400.00
04783            -560.00     4400.00
04784            -560.00     4400.00
04785            -560.00     4400.00
04786            -520.00     4400.00
04787            -560.00     4400.00
04788            -560.00     4400.00
04789            -520.00     4400.00
04790            -560.00     4400.00
04791            -520.00     4400.00
04792            -560.00     4400.00
04793            -560.00     4400.00
04794            -560.00     4400.00
04795            -560.00     4400.00
04796            -560.00     4400.00
04797            -560.00     4400.00
04798            -560.00     4400.00
04799            -560.00     4360.00
04800            -560.00     4400.00
04801            -560.00     4360.00
04802            -560.00     4400.00
04803            -560.00     4320.00
04804            -560.00     4360.00
04805            -560.00     4400.00
04806            -560.00     4360.00
04807            -560.00     4320.00
04808            -560.00     4360.00
04809            -600.00     4320.00
04810            -520.00     4320.00
04811            -560.00     4360.00
04812            -560.00     4320.00
04813            -560.00     4320.00
04814            -560.00     4320.00
04815            -560.00     4320.00
04816            -560.00     4320.00
04817            -560.00     4320.00
04818            -560.00     4320.00
04819            -520.00     4280.00
04820            -560.00     4320.00
04821            -560.00     4320.00
04822            -560.00     4280.00
04823            -560.00     4280.00
04824            -520.00     4280.00
04825            -560.00     4280.00
04826            -560.00     4240.00
04827            -560.00     4240.00
04828            -560.00     4240.00
04829            -560.00     4240.00
04830            -520.00     4240.00
04831            -560.00     4240.00
04832            -520.00     4240.00
04833            -520.00     4200.00
04834            -560.00     4200.00
04835            -560.00     4200.00
04836            -520.00     4200.00
04837            -520.00     4200.00
04838            -560.00     4160.00
04839            -520.00     4120.00
04840            -520.00     4160.00
04841            -520.00     4160.00
04842            -560.00     4120.00
04843            -520.00     4120.00
04844            -520.00     4120.00
04845            -520.00     4120.00
04846            -520.00     4080.00
04847            -560.00     4120.00
04848            -520.00     4080.00
04849            -520.00     4080.00
04850            -480.00     4040.00
04851            -520.00     4000.00
04852            -520.00     4000.00
04853            -520.00     4000.00
04854            -520.00     4000.00
04855            -520.00     4000.00
04856            -520.00     3960.00
04857            -520.00     3960.00
04858            -520.00     3960.00
04859            -480.00     3960.00
04860            -560.00     3920.00
04861            -520.00     3920.00
04862            -520.00     3920.00
04863            -520.00     3880.00
04864            -480.00     3880.00
04865            -520.00     3880.00
04866            -480.00     3840.00
04867            -520.00     3840.00
04868            -520.00     3840.00
04869            -520.00     3840.00
04870            -520.00     3800.00
04871            -520.00     3800.00
04872            -480.00     3760.00
04873            -520.00     3760.00
04874            -520.00     3760.00
04875            -520.00     3760.00
04876            -440.00     3720.00
04877            -520.00     3680.00
04878            -440.00     3680.00
04879            -440.00     3680.00
04880            -520.00     3680.00
04881            -480.00     3640.00
04882            -520.00     3640.00
04883            -480.00     3640.00
04884            -440.00     3640.00
04885            -440.00     3600.00
04886            -440.00     3600.00
04887            -440.00     3560.00
04888            -440.00     3520.00
04889            -440.00     3520.00
04890            -440.00     3520.00
04891            -440.00     3480.00
04892            -440.00     3480.00
04893            -440.00     3480.00
04894            -440.00     3440.00
04895            -440.00     3440.00
04896            -440.00     3400.00
04897            -440.00     3400.00
04898            -440.00     3400.00
04899            -440.00     3360.00
04900            -400.00     3360.00
04901            -440.00     3320.00
04902            -400.00     3320.00
04903            -440.00     3320.00
04904            -400.00     3280.00
04905            -440.00     3280.00
04906            -440.00     3200.00
04907            -400.00     3200.00
04908            -400.00     3200.00
04909            -440.00     3200.00
04910            -400.00     3160.00
04911            -440.00     3160.00
04912            -400.00     3120.00
04913            -400.00     3080.00
04914            -400.00     3120.00
04915            -400.00     3040.00
04916            -400.00     3040.00
04917            -400.00     3000.00
04918            -400.00     3000.00
04919            -400.00     3000.00
04920            -400.00     2960.00
04921            -400.00     2960.00
04922            -400.00     2920.00
04923            -400.00     2920.00
04924            -400.00     2880.00
04925            -400.00     2840.00
04926            -400.00     2840.00
04927            -400.00     2840.00
04928            -400.00     2800.00
04929            -400.00     2800.00
04930            -400.00     2760.00
04931            -400.00     2720.00
04932            -400.00     2720.00
04933            -360.00     2680.00
04934            -360.00     2720.00
04935            -400.00     2640.00
04936            -360.00     2640.00
04937            -360.00     2640.00
04938            -400.00     2600.00
04939            -360.00     2560.00
04940            -360.00     2560.00
04941            -360.00     2520.00
04942            -360.00     2520.00
04943            -360.00     2480.00
04944            -360.00     2480.00
04945            -360.00     2480.00
04946            -360.00     2400.00
04947            -360.00     2400.00
04948            -360.00     2360.00
04949            -360.00     2360.00
04950            -360.00     2320.00
04951            -280.00     2320.00
04952            -280.00     2280.00
04953            -280.00     2240.00
04954            -320.00     2240.00
04955            -320.00     2200.00
04956            -280.00     2200.00
04957            -280.00     2160.00
04958            -280.00     2160.00
04959            -280.00     2080.00
04960            -280.00     2080.00
04961            -280.00     2080.00
04962            -280.00     2040.00
04963            -280.00     2040.00
04964            -280.00     2000.00
04965            -240.00     1960.00
04966            -240.00     1960.00
04967            -240.00     1920.00
04968            -240.00     1880.00
04969            -240.00     1880.00
04970            -240.00     1840.00
04971            -240.00     1840.00
04972            -240.00     1800.00
04973            -240.00     1760.00
04974            -240.00     1760.00
04975            -240.00     1720.00
04976            -240.00     1680.00
04977            -240.00     1680.00
04978            -240.00     1680.00
04979            -240.00     1600.00
04980            -240.00     1640.00
04981            -240.00     1560.00
04982            -200.00     1560.00
04983            -240.00     1560.00
04984            -240.00     1520.00
04985            -200.00     1480.00
04986            -200.00     1440.00
04987            -200.00     1400.00
04988            -200.00     1400.00
04989            -240.00     1360.00
04990            -200.00     1360.00
04991            -200.00     1320.00
04992            -200.00     1280.00
04993            -200.00     1280.00
04994            -200.00     1240.00
04995            -200.00     1240.00
04996            -200.00     1200.00
04997            -200.00     1200.00
04998            -200.00     1120.00
04999            -200.00     1120.00
05000            -120.00     1080.00
