Unit:(mV)
                     CH1         CH2
Frequency              ?  98.322 kHz
00001              80.00    -1280.00
00002              80.00    -1280.00
00003              80.00    -1320.00
00004              80.00    -1360.00
00005             120.00    -1360.00
00006              80.00    -1360.00
00007             120.00    -1360.00
00008             120.00    -1440.00
00009              80.00    -1440.00
00010             120.00    -1480.00
00011             200.00    -1520.00
00012             120.00    -1560.00
00013             160.00    -1600.00
00014             120.00    -1600.00
00015             120.00    -1640.00
00016             120.00    -1640.00
00017             120.00    -1680.00
00018             120.00    -1680.00
00019             120.00    -1720.00
00020             160.00    -1760.00
00021             120.00    -1760.00
00022             200.00    -1800.00
00023             200.00    -1840.00
00024             120.00    -1840.00
00025             200.00    -1840.00
00026             200.00    -1920.00
00027             200.00    -1920.00
00028             200.00    -1960.00
00029             200.00    -1960.00
00030             200.00    -2000.00
00031             160.00    -2000.00
00032             200.00    -2080.00
00033             200.00    -2080.00
00034             200.00    -2120.00
00035             160.00    -2120.00
00036             200.00    -2160.00
00037             200.00    -2160.00
00038             200.00    -2200.00
00039             200.00    -2240.00
00040             200.00    -2240.00
00041             200.00    -2280.00
00042             200.00    -2280.00
00043             200.00    -2320.00
00044             200.00    -2320.00
00045             240.00    -2400.00
00046             200.00    -2400.00
00047             240.00    -2440.00
00048             200.00    -2440.00
00049             240.00    -2480.00
00050             240.00    -2480.00
00051             240.00    -2520.00
00052             240.00    -2560.00
00053             200.00    -2560.00
00054             240.00    -2560.00
00055             200.00    -2600.00
00056             240.00    -2640.00
00057             240.00    -2640.00
00058             240.00    -2720.00
00059             240.00    -2720.00
00060             240.00    -2720.00
00061             280.00    -2760.00
00062             240.00    -2760.00
00063             240.00    -2800.00
00064             280.00    -2800.00
00065             240.00    -2840.00
00066             240.00    -2840.00
00067             240.00    -2880.00
00068             280.00    -2880.00
00069             280.00    -2920.00
00070             280.00    -2920.00
00071             280.00    -2960.00
00072             280.00    -2960.00
00073             280.00    -3000.00
00074             280.00    -3000.00
00075             280.00    -3080.00
00076             280.00    -3080.00
00077             280.00    -3080.00
00078             320.00    -3120.00
00079             280.00    -3080.00
00080             280.00    -3160.00
00081             280.00    -3120.00
00082             280.00    -3200.00
00083             360.00    -3200.00
00084             280.00    -3200.00
00085             320.00    -3240.00
00086             280.00    -3280.00
00087             360.00    -3280.00
00088             360.00    -3280.00
00089             360.00    -3320.00
00090             280.00    -3360.00
00091             320.00    -3360.00
00092             360.00    -3360.00
00093             360.00    -3400.00
00094             280.00    -3400.00
00095             360.00    -3440.00
00096             360.00    -3440.00
00097             360.00    -3440.00
00098             360.00    -3480.00
00099             320.00    -3480.00
00100             360.00    -3520.00
00101             360.00    -3560.00
00102             360.00    -3560.00
00103             360.00    -3560.00
00104             360.00    -3560.00
00105             320.00    -3600.00
00106             360.00    -3600.00
00107             360.00    -3640.00
00108             360.00    -3680.00
00109             360.00    -3680.00
00110             360.00    -3680.00
00111             360.00    -3720.00
00112             360.00    -3720.00
00113             360.00    -3760.00
00114             360.00    -3760.00
00115             360.00    -3760.00
00116             360.00    -3760.00
00117             360.00    -3800.00
00118             360.00    -3840.00
00119             360.00    -3840.00
00120             360.00    -3840.00
00121             360.00    -3840.00
00122             360.00    -3840.00
00123             360.00    -3880.00
00124             360.00    -3880.00
00125             360.00    -3920.00
00126             360.00    -3920.00
00127             400.00    -3960.00
00128             360.00    -3920.00
00129             400.00    -3960.00
00130             400.00    -4000.00
00131             400.00    -4000.00
00132             400.00    -4000.00
00133             400.00    -4000.00
00134             360.00    -4040.00
00135             400.00    -4040.00
00136             400.00    -4040.00
00137             400.00    -4040.00
00138             400.00    -4080.00
00139             400.00    -4080.00
00140             400.00    -4080.00
00141             400.00    -4120.00
00142             400.00    -4120.00
00143             400.00    -4160.00
00144             400.00    -4160.00
00145             400.00    -4160.00
00146             400.00    -4200.00
00147             400.00    -4160.00
00148             400.00    -4200.00
00149             400.00    -4160.00
00150             400.00    -4200.00
00151             400.00    -4240.00
00152             440.00    -4240.00
00153             400.00    -4240.00
00154             400.00    -4240.00
00155             440.00    -4240.00
00156             400.00    -4240.00
00157             400.00    -4280.00
00158             400.00    -4240.00
00159             440.00    -4280.00
00160             440.00    -4320.00
00161             400.00    -4320.00
00162             400.00    -4320.00
00163             400.00    -4320.00
00164             400.00    -4320.00
00165             400.00    -4360.00
00166             400.00    -4360.00
00167             440.00    -4320.00
00168             400.00    -4320.00
00169             400.00    -4360.00
00170             400.00    -4360.00
00171             440.00    -4360.00
00172             400.00    -4360.00
00173             400.00    -4400.00
00174             440.00    -4400.00
00175             440.00    -4400.00
00176             400.00    -4400.00
00177             400.00    -4400.00
00178             400.00    -4400.00
00179             440.00    -4400.00
00180             440.00    -4400.00
00181             440.00    -4440.00
00182             400.00    -4400.00
00183             440.00    -4400.00
00184             440.00    -4440.00
00185             440.00    -4480.00
00186             440.00    -4440.00
00187             400.00    -4440.00
00188             400.00    -4480.00
00189             440.00    -4480.00
00190             400.00    -4480.00
00191             440.00    -4480.00
00192             440.00    -4480.00
00193             440.00    -4480.00
00194             440.00    -4480.00
00195             480.00    -4480.00
00196             440.00    -4480.00
00197             440.00    -4480.00
00198             440.00    -4480.00
00199             440.00    -4480.00
00200             440.00    -4480.00
00201             440.00    -4480.00
00202             440.00    -4520.00
00203             440.00    -4480.00
00204             440.00    -4480.00
00205             440.00    -4480.00
00206             440.00    -4480.00
00207             440.00    -4480.00
00208             440.00    -4480.00
00209             440.00    -4520.00
00210             440.00    -4520.00
00211             440.00    -4520.00
00212             440.00    -4480.00
00213             440.00    -4480.00
00214             440.00    -4480.00
00215             520.00    -4480.00
00216             440.00    -4480.00
00217             440.00    -4480.00
00218             440.00    -4480.00
00219             440.00    -4480.00
00220             520.00    -4480.00
00221             440.00    -4480.00
00222             520.00    -4480.00
00223             480.00    -4480.00
00224             520.00    -4480.00
00225             440.00    -4480.00
00226             440.00    -4480.00
00227             440.00    -4480.00
00228             520.00    -4480.00
00229             440.00    -4480.00
00230             440.00    -4480.00
00231             440.00    -4400.00
00232             440.00    -4440.00
00233             440.00    -4440.00
00234             440.00    -4440.00
00235             440.00    -4440.00
00236             440.00    -4400.00
00237             440.00    -4400.00
00238             440.00    -4440.00
00239             400.00    -4400.00
00240             440.00    -4400.00
00241             400.00    -4400.00
00242             400.00    -4400.00
00243             400.00    -4400.00
00244             440.00    -4400.00
00245             440.00    -4400.00
00246             440.00    -4400.00
00247             440.00    -4360.00
00248             440.00    -4360.00
00249             440.00    -4320.00
00250             400.00    -4360.00
00251             400.00    -4360.00
00252             440.00    -4320.00
00253             400.00    -4320.00
00254             400.00    -4320.00
00255             400.00    -4320.00
00256             400.00    -4280.00
00257             440.00    -4320.00
00258             400.00    -4280.00
00259             440.00    -4280.00
00260             400.00    -4280.00
00261             440.00    -4280.00
00262             440.00    -4240.00
00263             440.00    -4240.00
00264             440.00    -4240.00
00265             440.00    -4200.00
00266             400.00    -4200.00
00267             440.00    -4240.00
00268             440.00    -4200.00
00269             400.00    -4160.00
00270             400.00    -4160.00
00271             440.00    -4200.00
00272             440.00    -4160.00
00273             440.00    -4160.00
00274             400.00    -4160.00
00275             400.00    -4120.00
00276             400.00    -4080.00
00277             400.00    -4120.00
00278             440.00    -4080.00
00279             440.00    -4080.00
00280             440.00    -4040.00
00281             400.00    -4040.00
00282             400.00    -4040.00
00283             440.00    -4000.00
00284             400.00    -4000.00
00285             440.00    -4000.00
00286             400.00    -4000.00
00287             400.00    -3960.00
00288             400.00    -3920.00
00289             400.00    -3960.00
00290             400.00    -3920.00
00291             440.00    -3920.00
00292             400.00    -3920.00
00293             400.00    -3920.00
00294             400.00    -3880.00
00295             400.00    -3880.00
00296             400.00    -3840.00
00297             400.00    -3840.00
00298             400.00    -3840.00
00299             400.00    -3840.00
00300             400.00    -3800.00
00301             400.00    -3760.00
00302             400.00    -3800.00
00303             400.00    -3760.00
00304             400.00    -3720.00
00305             400.00    -3720.00
00306             400.00    -3720.00
00307             400.00    -3720.00
00308             400.00    -3680.00
00309             400.00    -3680.00
00310             360.00    -3640.00
00311             400.00    -3600.00
00312             400.00    -3600.00
00313             400.00    -3560.00
00314             360.00    -3600.00
00315             400.00    -3560.00
00316             360.00    -3520.00
00317             360.00    -3520.00
00318             360.00    -3520.00
00319             360.00    -3480.00
00320             360.00    -3480.00
00321             360.00    -3440.00
00322             360.00    -3400.00
00323             400.00    -3440.00
00324             360.00    -3400.00
00325             400.00    -3400.00
00326             360.00    -3360.00
00327             360.00    -3360.00
00328             320.00    -3320.00
00329             360.00    -3280.00
00330             360.00    -3280.00
00331             360.00    -3280.00
00332             360.00    -3240.00
00333             320.00    -3240.00
00334             360.00    -3240.00
00335             360.00    -3160.00
00336             360.00    -3200.00
00337             360.00    -3160.00
00338             360.00    -3120.00
00339             360.00    -3120.00
00340             360.00    -3120.00
00341             360.00    -3080.00
00342             360.00    -3040.00
00343             360.00    -3040.00
00344             360.00    -3040.00
00345             360.00    -3000.00
00346             280.00    -2960.00
00347             360.00    -2920.00
00348             360.00    -2920.00
00349             320.00    -2920.00
00350             320.00    -2880.00
00351             360.00    -2880.00
00352             280.00    -2880.00
00353             360.00    -2800.00
00354             320.00    -2800.00
00355             280.00    -2800.00
00356             280.00    -2760.00
00357             280.00    -2720.00
00358             360.00    -2720.00
00359             280.00    -2680.00
00360             280.00    -2680.00
00361             280.00    -2640.00
00362             280.00    -2640.00
00363             280.00    -2600.00
00364             280.00    -2560.00
00365             240.00    -2560.00
00366             280.00    -2520.00
00367             240.00    -2480.00
00368             280.00    -2480.00
00369             280.00    -2480.00
00370             280.00    -2480.00
00371             240.00    -2440.00
00372             280.00    -2400.00
00373             240.00    -2400.00
00374             280.00    -2400.00
00375             280.00    -2320.00
00376             240.00    -2280.00
00377             200.00    -2280.00
00378             240.00    -2240.00
00379             240.00    -2240.00
00380             240.00    -2200.00
00381             240.00    -2160.00
00382             240.00    -2160.00
00383             200.00    -2160.00
00384             240.00    -2080.00
00385             240.00    -2120.00
00386             240.00    -2040.00
00387             240.00    -2040.00
00388             200.00    -2000.00
00389             240.00    -1960.00
00390             240.00    -1960.00
00391             200.00    -1960.00
00392             240.00    -1920.00
00393             200.00    -1920.00
00394             240.00    -1840.00
00395             200.00    -1840.00
00396             240.00    -1800.00
00397             200.00    -1800.00
00398             240.00    -1760.00
00399             200.00    -1760.00
00400             200.00    -1760.00
00401             200.00    -1680.00
00402             240.00    -1640.00
00403             200.00    -1640.00
00404             200.00    -1600.00
00405             200.00    -1600.00
00406             200.00    -1600.00
00407             200.00    -1520.00
00408             200.00    -1520.00
00409             200.00    -1520.00
00410             160.00    -1480.00
00411             200.00    -1440.00
00412             200.00    -1400.00
00413             200.00    -1360.00
00414             200.00    -1320.00
00415             200.00    -1320.00
00416             120.00    -1320.00
00417             200.00    -1280.00
00418             200.00    -1240.00
00419             200.00    -1240.00
00420             160.00    -1160.00
00421             160.00    -1160.00
00422             160.00    -1160.00
00423             200.00    -1120.00
00424             120.00    -1120.00
00425             120.00    -1080.00
00426             120.00    -1040.00
00427             120.00    -1000.00
00428             120.00     -960.00
00429             120.00     -920.00
00430             120.00     -960.00
00431              80.00     -880.00
00432             120.00     -880.00
00433              80.00     -880.00
00434             120.00     -800.00
00435              80.00     -800.00
00436              80.00     -800.00
00437              80.00     -760.00
00438             120.00     -720.00
00439             120.00     -680.00
00440              80.00     -680.00
00441              80.00     -640.00
00442              80.00     -640.00
00443              80.00     -560.00
00444              80.00     -520.00
00445              80.00     -520.00
00446              80.00     -480.00
00447              80.00     -480.00
00448              80.00     -480.00
00449              80.00     -400.00
00450              40.00     -400.00
00451              80.00     -360.00
00452              80.00     -320.00
00453              80.00     -320.00
00454              40.00     -280.00
00455              80.00     -240.00
00456              40.00     -200.00
00457              80.00     -200.00
00458              40.00     -160.00
00459              40.00     -160.00
00460              40.00      -80.00
00461              40.00      -80.00
00462              40.00      -80.00
00463              40.00        0.00
00464              80.00        0.00
00465              40.00       40.00
00466              40.00       40.00
00467              40.00       80.00
00468              40.00      120.00
00469              40.00      160.00
00470              40.00      160.00
00471              40.00      200.00
00472              40.00      240.00
00473              40.00      240.00
00474              40.00      280.00
00475              40.00      360.00
00476              40.00      360.00
00477             -80.00      280.00
00478             -40.00      360.00
00479               0.00      440.00
00480              40.00      440.00
00481              40.00      480.00
00482              40.00      480.00
00483             -40.00      560.00
00484               0.00      560.00
00485             -40.00      560.00
00486             -40.00      640.00
00487              40.00      640.00
00488             -40.00      640.00
00489             -40.00      680.00
00490             -40.00      760.00
00491             -40.00      720.00
00492             -40.00      800.00
00493               0.00      800.00
00494             -80.00      800.00
00495             -80.00      880.00
00496             -80.00      880.00
00497             -80.00      920.00
00498             -40.00      920.00
00499             -80.00      960.00
00500             -80.00      960.00
00501            -120.00     1040.00
00502             -80.00     1040.00
00503             -80.00     1080.00
00504             -80.00     1120.00
00505            -120.00     1120.00
00506             -80.00     1160.00
00507            -120.00     1160.00
00508             -80.00     1200.00
00509             -80.00     1240.00
00510            -120.00     1280.00
00511            -120.00     1280.00
00512            -120.00     1280.00
00513            -120.00     1360.00
00514            -120.00     1360.00
00515            -120.00     1400.00
00516            -120.00     1400.00
00517            -120.00     1440.00
00518            -120.00     1480.00
00519            -120.00     1440.00
00520            -120.00     1560.00
00521            -120.00     1520.00
00522            -120.00     1600.00
00523            -120.00     1640.00
00524            -120.00     1640.00
00525            -120.00     1680.00
00526            -120.00     1680.00
00527            -120.00     1720.00
00528            -120.00     1760.00
00529            -120.00     1760.00
00530            -120.00     1800.00
00531            -120.00     1800.00
00532            -120.00     1880.00
00533            -120.00     1880.00
00534            -160.00     1920.00
00535            -120.00     1920.00
00536            -120.00     1960.00
00537            -160.00     2000.00
00538            -160.00     2000.00
00539            -160.00     2000.00
00540            -120.00     2040.00
00541            -200.00     2080.00
00542            -120.00     2080.00
00543            -120.00     2120.00
00544            -200.00     2160.00
00545            -160.00     2160.00
00546            -160.00     2160.00
00547            -160.00     2200.00
00548            -200.00     2240.00
00549            -200.00     2280.00
00550            -200.00     2280.00
00551            -200.00     2320.00
00552            -200.00     2360.00
00553            -200.00     2360.00
00554            -200.00     2400.00
00555            -200.00     2400.00
00556            -200.00     2400.00
00557            -200.00     2480.00
00558            -240.00     2480.00
00559            -200.00     2480.00
00560            -240.00     2520.00
00561            -240.00     2560.00
00562            -240.00     2560.00
00563            -240.00     2560.00
00564            -240.00     2600.00
00565            -200.00     2640.00
00566            -240.00     2640.00
00567            -240.00     2680.00
00568            -240.00     2720.00
00569            -240.00     2720.00
00570            -240.00     2720.00
00571            -240.00     2760.00
00572            -240.00     2800.00
00573            -280.00     2840.00
00574            -240.00     2840.00
00575            -280.00     2880.00
00576            -280.00     2920.00
00577            -280.00     2880.00
00578            -240.00     2920.00
00579            -240.00     2960.00
00580            -240.00     2960.00
00581            -280.00     3000.00
00582            -240.00     3040.00
00583            -240.00     3040.00
00584            -240.00     3040.00
00585            -280.00     3080.00
00586            -240.00     3120.00
00587            -280.00     3160.00
00588            -280.00     3120.00
00589            -240.00     3160.00
00590            -320.00     3160.00
00591            -280.00     3200.00
00592            -280.00     3200.00
00593            -280.00     3200.00
00594            -280.00     3280.00
00595            -280.00     3280.00
00596            -280.00     3280.00
00597            -280.00     3320.00
00598            -280.00     3360.00
00599            -280.00     3320.00
00600            -280.00     3360.00
00601            -280.00     3360.00
00602            -280.00     3400.00
00603            -320.00     3440.00
00604            -280.00     3440.00
00605            -280.00     3440.00
00606            -280.00     3480.00
00607            -280.00     3520.00
00608            -280.00     3520.00
00609            -280.00     3520.00
00610            -280.00     3560.00
00611            -320.00     3520.00
00612            -360.00     3600.00
00613            -280.00     3640.00
00614            -320.00     3640.00
00615            -360.00     3640.00
00616            -320.00     3640.00
00617            -360.00     3680.00
00618            -280.00     3680.00
00619            -360.00     3680.00
00620            -320.00     3720.00
00621            -360.00     3760.00
00622            -320.00     3760.00
00623            -360.00     3760.00
00624            -360.00     3800.00
00625            -360.00     3760.00
00626            -360.00     3800.00
00627            -360.00     3840.00
00628            -360.00     3840.00
00629            -360.00     3840.00
00630            -400.00     3840.00
00631            -360.00     3880.00
00632            -400.00     3880.00
00633            -360.00     3920.00
00634            -360.00     3920.00
00635            -400.00     3920.00
00636            -400.00     3960.00
00637            -400.00     3920.00
00638            -400.00     3960.00
00639            -400.00     3960.00
00640            -360.00     4000.00
00641            -400.00     4000.00
00642            -400.00     4000.00
00643            -400.00     4040.00
00644            -400.00     4040.00
00645            -400.00     4080.00
00646            -400.00     4080.00
00647            -440.00     4120.00
00648            -400.00     4080.00
00649            -400.00     4080.00
00650            -400.00     4120.00
00651            -400.00     4120.00
00652            -400.00     4200.00
00653            -400.00     4160.00
00654            -400.00     4200.00
00655            -400.00     4160.00
00656            -400.00     4200.00
00657            -400.00     4240.00
00658            -400.00     4200.00
00659            -400.00     4240.00
00660            -400.00     4240.00
00661            -400.00     4240.00
00662            -440.00     4280.00
00663            -400.00     4280.00
00664            -400.00     4280.00
00665            -400.00     4240.00
00666            -400.00     4280.00
00667            -400.00     4320.00
00668            -400.00     4320.00
00669            -400.00     4280.00
00670            -400.00     4320.00
00671            -400.00     4320.00
00672            -400.00     4320.00
00673            -440.00     4320.00
00674            -400.00     4320.00
00675            -400.00     4360.00
00676            -400.00     4360.00
00677            -400.00     4360.00
00678            -400.00     4400.00
00679            -440.00     4360.00
00680            -400.00     4400.00
00681            -400.00     4400.00
00682            -440.00     4400.00
00683            -440.00     4400.00
00684            -400.00     4400.00
00685            -400.00     4400.00
00686            -440.00     4400.00
00687            -400.00     4400.00
00688            -400.00     4440.00
00689            -440.00     4400.00
00690            -440.00     4440.00
00691            -440.00     4440.00
00692            -440.00     4440.00
00693            -440.00     4440.00
00694            -440.00     4480.00
00695            -440.00     4440.00
00696            -440.00     4440.00
00697            -440.00     4440.00
00698            -440.00     4480.00
00699            -440.00     4480.00
00700            -440.00     4480.00
00701            -440.00     4480.00
00702            -440.00     4480.00
00703            -440.00     4480.00
00704            -440.00     4480.00
00705            -440.00     4480.00
00706            -440.00     4480.00
00707            -440.00     4480.00
00708            -440.00     4480.00
00709            -440.00     4480.00
00710            -440.00     4480.00
00711            -440.00     4520.00
00712            -440.00     4480.00
00713            -440.00     4480.00
00714            -440.00     4480.00
00715            -400.00     4520.00
00716            -440.00     4520.00
00717            -440.00     4480.00
00718            -440.00     4480.00
00719            -440.00     4480.00
00720            -440.00     4520.00
00721            -440.00     4480.00
00722            -440.00     4480.00
00723            -440.00     4520.00
00724            -440.00     4480.00
00725            -400.00     4480.00
00726            -440.00     4480.00
00727            -440.00     4480.00
00728            -400.00     4480.00
00729            -440.00     4480.00
00730            -400.00     4480.00
00731            -440.00     4480.00
00732            -440.00     4480.00
00733            -440.00     4480.00
00734            -400.00     4480.00
00735            -440.00     4480.00
00736            -440.00     4480.00
00737            -440.00     4480.00
00738            -440.00     4480.00
00739            -400.00     4440.00
00740            -440.00     4480.00
00741            -440.00     4440.00
00742            -440.00     4440.00
00743            -440.00     4440.00
00744            -440.00     4400.00
00745            -440.00     4440.00
00746            -440.00     4440.00
00747            -440.00     4400.00
00748            -440.00     4440.00
00749            -440.00     4400.00
00750            -440.00     4400.00
00751            -400.00     4400.00
00752            -400.00     4400.00
00753            -440.00     4400.00
00754            -440.00     4400.00
00755            -440.00     4400.00
00756            -440.00     4400.00
00757            -440.00     4320.00
00758            -440.00     4360.00
00759            -440.00     4360.00
00760            -440.00     4320.00
00761            -440.00     4320.00
00762            -440.00     4320.00
00763            -440.00     4320.00
00764            -440.00     4320.00
00765            -440.00     4320.00
00766            -440.00     4280.00
00767            -440.00     4280.00
00768            -440.00     4280.00
00769            -440.00     4280.00
00770            -440.00     4280.00
00771            -440.00     4240.00
00772            -440.00     4240.00
00773            -440.00     4240.00
00774            -440.00     4240.00
00775            -440.00     4200.00
00776            -400.00     4240.00
00777            -440.00     4200.00
00778            -400.00     4160.00
00779            -440.00     4200.00
00780            -400.00     4160.00
00781            -440.00     4120.00
00782            -440.00     4120.00
00783            -400.00     4160.00
00784            -400.00     4120.00
00785            -400.00     4120.00
00786            -440.00     4120.00
00787            -400.00     4080.00
00788            -400.00     4080.00
00789            -440.00     4080.00
00790            -400.00     4040.00
00791            -440.00     4040.00
00792            -400.00     4040.00
00793            -400.00     4000.00
00794            -400.00     4000.00
00795            -400.00     4000.00
00796            -400.00     3960.00
00797            -400.00     4000.00
00798            -400.00     3920.00
00799            -400.00     3920.00
00800            -400.00     3920.00
00801            -400.00     3920.00
00802            -400.00     3920.00
00803            -400.00     3880.00
00804            -400.00     3880.00
00805            -400.00     3840.00
00806            -400.00     3840.00
00807            -400.00     3800.00
00808            -400.00     3800.00
00809            -400.00     3800.00
00810            -360.00     3800.00
00811            -400.00     3760.00
00812            -360.00     3760.00
00813            -400.00     3720.00
00814            -360.00     3680.00
00815            -360.00     3720.00
00816            -400.00     3680.00
00817            -400.00     3680.00
00818            -400.00     3680.00
00819            -400.00     3640.00
00820            -400.00     3640.00
00821            -400.00     3600.00
00822            -400.00     3600.00
00823            -400.00     3560.00
00824            -360.00     3560.00
00825            -400.00     3520.00
00826            -400.00     3520.00
00827            -360.00     3520.00
00828            -400.00     3480.00
00829            -400.00     3480.00
00830            -400.00     3440.00
00831            -360.00     3440.00
00832            -400.00     3440.00
00833            -400.00     3400.00
00834            -400.00     3360.00
00835            -360.00     3360.00
00836            -400.00     3360.00
00837            -360.00     3320.00
00838            -360.00     3280.00
00839            -360.00     3280.00
00840            -360.00     3280.00
00841            -360.00     3240.00
00842            -360.00     3200.00
00843            -360.00     3200.00
00844            -360.00     3200.00
00845            -360.00     3200.00
00846            -280.00     3160.00
00847            -320.00     3120.00
00848            -280.00     3120.00
00849            -280.00     3120.00
00850            -360.00     3080.00
00851            -360.00     3040.00
00852            -360.00     3040.00
00853            -280.00     3000.00
00854            -360.00     3000.00
00855            -280.00     2960.00
00856            -280.00     2960.00
00857            -240.00     2960.00
00858            -320.00     2880.00
00859            -280.00     2880.00
00860            -280.00     2880.00
00861            -240.00     2840.00
00862            -280.00     2800.00
00863            -280.00     2800.00
00864            -280.00     2760.00
00865            -240.00     2760.00
00866            -280.00     2720.00
00867            -280.00     2720.00
00868            -240.00     2680.00
00869            -280.00     2680.00
00870            -280.00     2640.00
00871            -280.00     2640.00
00872            -240.00     2600.00
00873            -240.00     2560.00
00874            -280.00     2560.00
00875            -280.00     2520.00
00876            -240.00     2520.00
00877            -240.00     2480.00
00878            -240.00     2480.00
00879            -240.00     2400.00
00880            -240.00     2400.00
00881            -240.00     2400.00
00882            -240.00     2360.00
00883            -240.00     2320.00
00884            -240.00     2320.00
00885            -240.00     2280.00
00886            -240.00     2240.00
00887            -240.00     2240.00
00888            -240.00     2200.00
00889            -240.00     2200.00
00890            -240.00     2160.00
00891            -240.00     2160.00
00892            -240.00     2120.00
00893            -240.00     2080.00
00894            -240.00     2080.00
00895            -240.00     2040.00
00896            -200.00     2000.00
00897            -240.00     2000.00
00898            -240.00     2000.00
00899            -240.00     1960.00
00900            -240.00     1920.00
00901            -240.00     1920.00
00902            -240.00     1880.00
00903            -240.00     1840.00
00904            -200.00     1840.00
00905            -200.00     1840.00
00906            -240.00     1760.00
00907            -200.00     1760.00
00908            -200.00     1720.00
00909            -240.00     1720.00
00910            -200.00     1680.00
00911            -200.00     1680.00
00912            -200.00     1600.00
00913            -200.00     1600.00
00914            -200.00     1560.00
00915            -120.00     1560.00
00916            -120.00     1560.00
00917            -200.00     1520.00
00918            -120.00     1480.00
00919            -200.00     1440.00
00920            -120.00     1400.00
00921            -160.00     1400.00
00922            -200.00     1360.00
00923            -120.00     1360.00
00924            -120.00     1280.00
00925            -120.00     1280.00
00926            -120.00     1280.00
00927            -120.00     1240.00
00928            -120.00     1240.00
00929            -120.00     1200.00
00930            -120.00     1160.00
00931            -120.00     1120.00
00932            -160.00     1120.00
00933            -120.00     1120.00
00934            -120.00     1040.00
00935            -120.00     1040.00
00936            -120.00     1000.00
00937            -120.00      960.00
00938            -120.00      960.00
00939            -120.00      920.00
00940            -120.00      920.00
00941            -120.00      880.00
00942             -80.00      840.00
00943             -80.00      800.00
00944            -120.00      800.00
00945            -120.00      720.00
00946             -80.00      720.00
00947            -120.00      720.00
00948            -120.00      640.00
00949            -120.00      640.00
00950            -120.00      640.00
00951            -120.00      600.00
00952             -80.00      600.00
00953             -80.00      560.00
00954            -120.00      480.00
00955             -80.00      480.00
00956            -120.00      440.00
00957            -120.00      440.00
00958             -80.00      400.00
00959             -80.00      400.00
00960             -80.00      360.00
00961             -80.00      320.00
00962             -80.00      320.00
00963             -80.00      240.00
00964             -80.00      240.00
00965             -40.00      200.00
00966             -80.00      160.00
00967             -40.00      160.00
00968             -80.00      120.00
00969             -40.00      120.00
00970             -40.00       80.00
00971             -80.00       40.00
00972             -40.00        0.00
00973             -40.00        0.00
00974             -40.00      -40.00
00975             -40.00      -40.00
00976               0.00      -80.00
00977             -40.00     -120.00
00978               0.00     -160.00
00979             -40.00     -160.00
00980             -40.00     -200.00
00981              40.00     -240.00
00982               0.00     -240.00
00983              40.00     -280.00
00984              40.00     -280.00
00985              40.00     -360.00
00986             -40.00     -400.00
00987             -80.00     -440.00
00988              40.00     -400.00
00989              40.00     -480.00
00990              40.00     -480.00
00991              40.00     -480.00
00992              80.00     -520.00
00993              40.00     -560.00
00994               0.00     -640.00
00995              40.00     -560.00
00996              80.00     -640.00
00997              40.00     -680.00
00998              80.00     -720.00
00999              40.00     -720.00
01000              80.00     -760.00
01001              40.00     -800.00
01002              80.00     -800.00
01003              40.00     -840.00
01004              80.00     -840.00
01005              80.00     -880.00
01006              80.00     -880.00
01007              80.00     -960.00
01008              80.00     -960.00
01009              80.00    -1000.00
01010              80.00    -1040.00
01011              80.00    -1080.00
01012              80.00    -1080.00
01013              80.00    -1120.00
01014              80.00    -1120.00
01015              80.00    -1160.00
01016              80.00    -1200.00
01017              80.00    -1240.00
01018              80.00    -1280.00
01019              80.00    -1280.00
01020              80.00    -1280.00
01021              80.00    -1320.00
01022              80.00    -1360.00
01023             120.00    -1360.00
01024             120.00    -1440.00
01025             120.00    -1440.00
01026             120.00    -1440.00
01027             120.00    -1480.00
01028             120.00    -1520.00
01029             120.00    -1520.00
01030             120.00    -1600.00
01031             120.00    -1600.00
01032             120.00    -1600.00
01033             120.00    -1680.00
01034             120.00    -1640.00
01035             120.00    -1680.00
01036             120.00    -1720.00
01037             120.00    -1760.00
01038             160.00    -1800.00
01039             120.00    -1800.00
01040             200.00    -1800.00
01041             120.00    -1840.00
01042             200.00    -1840.00
01043             200.00    -1920.00
01044             120.00    -1920.00
01045             200.00    -1960.00
01046             200.00    -2000.00
01047             200.00    -2000.00
01048             160.00    -2000.00
01049             200.00    -2040.00
01050             200.00    -2080.00
01051             200.00    -2120.00
01052             200.00    -2120.00
01053             200.00    -2160.00
01054             200.00    -2160.00
01055             200.00    -2200.00
01056             240.00    -2240.00
01057             200.00    -2240.00
01058             200.00    -2280.00
01059             200.00    -2320.00
01060             240.00    -2320.00
01061             200.00    -2360.00
01062             200.00    -2400.00
01063             240.00    -2400.00
01064             240.00    -2400.00
01065             240.00    -2440.00
01066             240.00    -2440.00
01067             240.00    -2480.00
01068             240.00    -2480.00
01069             240.00    -2520.00
01070             240.00    -2560.00
01071             240.00    -2600.00
01072             240.00    -2600.00
01073             240.00    -2640.00
01074             280.00    -2640.00
01075             240.00    -2640.00
01076             240.00    -2680.00
01077             240.00    -2720.00
01078             240.00    -2720.00
01079             240.00    -2760.00
01080             240.00    -2800.00
01081             280.00    -2800.00
01082             240.00    -2840.00
01083             240.00    -2840.00
01084             240.00    -2880.00
01085             240.00    -2880.00
01086             240.00    -2920.00
01087             280.00    -2960.00
01088             280.00    -2960.00
01089             280.00    -2960.00
01090             280.00    -2960.00
01091             280.00    -3040.00
01092             240.00    -3080.00
01093             280.00    -3040.00
01094             280.00    -3080.00
01095             280.00    -3120.00
01096             280.00    -3120.00
01097             280.00    -3120.00
01098             320.00    -3160.00
01099             280.00    -3200.00
01100             320.00    -3200.00
01101             280.00    -3200.00
01102             280.00    -3240.00
01103             280.00    -3280.00
01104             360.00    -3280.00
01105             280.00    -3280.00
01106             280.00    -3280.00
01107             320.00    -3360.00
01108             280.00    -3360.00
01109             360.00    -3400.00
01110             360.00    -3360.00
01111             360.00    -3400.00
01112             320.00    -3440.00
01113             360.00    -3440.00
01114             360.00    -3440.00
01115             360.00    -3480.00
01116             360.00    -3480.00
01117             360.00    -3520.00
01118             360.00    -3480.00
01119             360.00    -3560.00
01120             360.00    -3560.00
01121             360.00    -3560.00
01122             360.00    -3600.00
01123             360.00    -3640.00
01124             360.00    -3680.00
01125             360.00    -3640.00
01126             360.00    -3680.00
01127             360.00    -3680.00
01128             360.00    -3680.00
01129             360.00    -3720.00
01130             360.00    -3720.00
01131             400.00    -3760.00
01132             400.00    -3760.00
01133             400.00    -3760.00
01134             400.00    -3800.00
01135             400.00    -3800.00
01136             400.00    -3800.00
01137             400.00    -3840.00
01138             400.00    -3840.00
01139             400.00    -3880.00
01140             360.00    -3880.00
01141             400.00    -3880.00
01142             400.00    -3880.00
01143             400.00    -3920.00
01144             400.00    -3920.00
01145             360.00    -3960.00
01146             400.00    -4000.00
01147             360.00    -4000.00
01148             400.00    -4000.00
01149             400.00    -4000.00
01150             400.00    -4000.00
01151             400.00    -4000.00
01152             400.00    -4040.00
01153             400.00    -4040.00
01154             400.00    -4040.00
01155             360.00    -4080.00
01156             400.00    -4080.00
01157             400.00    -4080.00
01158             400.00    -4120.00
01159             400.00    -4120.00
01160             400.00    -4120.00
01161             400.00    -4160.00
01162             400.00    -4160.00
01163             400.00    -4160.00
01164             400.00    -4200.00
01165             400.00    -4200.00
01166             400.00    -4200.00
01167             400.00    -4200.00
01168             400.00    -4240.00
01169             400.00    -4240.00
01170             400.00    -4240.00
01171             440.00    -4240.00
01172             400.00    -4240.00
01173             400.00    -4240.00
01174             400.00    -4280.00
01175             440.00    -4280.00
01176             400.00    -4280.00
01177             400.00    -4320.00
01178             440.00    -4320.00
01179             400.00    -4320.00
01180             440.00    -4320.00
01181             400.00    -4320.00
01182             400.00    -4360.00
01183             400.00    -4360.00
01184             440.00    -4360.00
01185             440.00    -4360.00
01186             440.00    -4360.00
01187             440.00    -4360.00
01188             440.00    -4400.00
01189             440.00    -4360.00
01190             440.00    -4400.00
01191             440.00    -4400.00
01192             440.00    -4400.00
01193             400.00    -4400.00
01194             440.00    -4400.00
01195             440.00    -4400.00
01196             440.00    -4400.00
01197             440.00    -4400.00
01198             440.00    -4400.00
01199             440.00    -4440.00
01200             400.00    -4440.00
01201             440.00    -4480.00
01202             440.00    -4440.00
01203             440.00    -4440.00
01204             440.00    -4480.00
01205             440.00    -4440.00
01206             440.00    -4480.00
01207             440.00    -4440.00
01208             400.00    -4480.00
01209             440.00    -4480.00
01210             400.00    -4480.00
01211             440.00    -4480.00
01212             440.00    -4480.00
01213             440.00    -4520.00
01214             440.00    -4480.00
01215             440.00    -4480.00
01216             400.00    -4480.00
01217             440.00    -4480.00
01218             440.00    -4480.00
01219             440.00    -4520.00
01220             440.00    -4480.00
01221             440.00    -4480.00
01222             440.00    -4480.00
01223             440.00    -4480.00
01224             440.00    -4480.00
01225             440.00    -4480.00
01226             440.00    -4520.00
01227             440.00    -4480.00
01228             440.00    -4480.00
01229             440.00    -4480.00
01230             440.00    -4480.00
01231             400.00    -4520.00
01232             440.00    -4480.00
01233             440.00    -4480.00
01234             400.00    -4480.00
01235             440.00    -4480.00
01236             440.00    -4480.00
01237             440.00    -4480.00
01238             480.00    -4520.00
01239             440.00    -4480.00
01240             440.00    -4480.00
01241             440.00    -4480.00
01242             440.00    -4480.00
01243             440.00    -4480.00
01244             440.00    -4480.00
01245             440.00    -4440.00
01246             440.00    -4480.00
01247             440.00    -4480.00
01248             480.00    -4440.00
01249             440.00    -4440.00
01250             440.00    -4480.00
01251             440.00    -4440.00
01252             440.00    -4400.00
01253             440.00    -4440.00
01254             440.00    -4400.00
01255             440.00    -4400.00
01256             440.00    -4400.00
01257             440.00    -4400.00
01258             440.00    -4400.00
01259             440.00    -4400.00
01260             440.00    -4360.00
01261             440.00    -4400.00
01262             440.00    -4400.00
01263             440.00    -4360.00
01264             440.00    -4360.00
01265             520.00    -4360.00
01266             440.00    -4360.00
01267             440.00    -4360.00
01268             440.00    -4320.00
01269             480.00    -4320.00
01270             440.00    -4320.00
01271             440.00    -4320.00
01272             440.00    -4320.00
01273             440.00    -4320.00
01274             440.00    -4280.00
01275             440.00    -4240.00
01276             440.00    -4320.00
01277             440.00    -4280.00
01278             400.00    -4240.00
01279             440.00    -4240.00
01280             400.00    -4240.00
01281             440.00    -4240.00
01282             440.00    -4240.00
01283             440.00    -4240.00
01284             400.00    -4200.00
01285             440.00    -4200.00
01286             440.00    -4200.00
01287             400.00    -4200.00
01288             440.00    -4160.00
01289             440.00    -4160.00
01290             400.00    -4160.00
01291             400.00    -4160.00
01292             400.00    -4120.00
01293             400.00    -4120.00
01294             440.00    -4080.00
01295             400.00    -4080.00
01296             400.00    -4080.00
01297             440.00    -4040.00
01298             400.00    -4080.00
01299             400.00    -4040.00
01300             400.00    -4000.00
01301             400.00    -4040.00
01302             440.00    -4000.00
01303             400.00    -4000.00
01304             400.00    -4000.00
01305             400.00    -3960.00
01306             440.00    -3920.00
01307             440.00    -3960.00
01308             400.00    -3920.00
01309             400.00    -3920.00
01310             400.00    -3920.00
01311             400.00    -3880.00
01312             400.00    -3880.00
01313             440.00    -3840.00
01314             400.00    -3840.00
01315             400.00    -3840.00
01316             400.00    -3840.00
01317             400.00    -3840.00
01318             400.00    -3760.00
01319             400.00    -3760.00
01320             400.00    -3760.00
01321             400.00    -3760.00
01322             400.00    -3720.00
01323             400.00    -3720.00
01324             400.00    -3680.00
01325             400.00    -3680.00
01326             400.00    -3680.00
01327             400.00    -3600.00
01328             400.00    -3640.00
01329             400.00    -3600.00
01330             400.00    -3600.00
01331             400.00    -3560.00
01332             360.00    -3560.00
01333             400.00    -3560.00
01334             360.00    -3520.00
01335             400.00    -3480.00
01336             400.00    -3480.00
01337             400.00    -3480.00
01338             360.00    -3440.00
01339             360.00    -3440.00
01340             400.00    -3400.00
01341             360.00    -3400.00
01342             360.00    -3400.00
01343             360.00    -3400.00
01344             360.00    -3360.00
01345             360.00    -3360.00
01346             360.00    -3320.00
01347             360.00    -3280.00
01348             360.00    -3280.00
01349             320.00    -3280.00
01350             360.00    -3240.00
01351             360.00    -3240.00
01352             360.00    -3200.00
01353             360.00    -3200.00
01354             360.00    -3120.00
01355             360.00    -3120.00
01356             360.00    -3120.00
01357             360.00    -3080.00
01358             360.00    -3080.00
01359             360.00    -3040.00
01360             360.00    -3000.00
01361             360.00    -3040.00
01362             320.00    -3000.00
01363             280.00    -2960.00
01364             280.00    -2920.00
01365             360.00    -2920.00
01366             280.00    -2920.00
01367             320.00    -2880.00
01368             280.00    -2880.00
01369             280.00    -2880.00
01370             320.00    -2840.00
01371             360.00    -2800.00
01372             280.00    -2760.00
01373             280.00    -2760.00
01374             280.00    -2720.00
01375             280.00    -2720.00
01376             280.00    -2720.00
01377             280.00    -2680.00
01378             280.00    -2640.00
01379             280.00    -2640.00
01380             280.00    -2600.00
01381             280.00    -2560.00
01382             280.00    -2560.00
01383             280.00    -2560.00
01384             280.00    -2480.00
01385             280.00    -2480.00
01386             280.00    -2480.00
01387             280.00    -2440.00
01388             280.00    -2440.00
01389             240.00    -2400.00
01390             280.00    -2400.00
01391             280.00    -2320.00
01392             240.00    -2320.00
01393             280.00    -2320.00
01394             240.00    -2200.00
01395             240.00    -2240.00
01396             240.00    -2200.00
01397             240.00    -2240.00
01398             280.00    -2200.00
01399             240.00    -2120.00
01400             240.00    -2120.00
01401             240.00    -2080.00
01402             240.00    -2080.00
01403             240.00    -2080.00
01404             240.00    -2040.00
01405             240.00    -2000.00
01406             200.00    -2000.00
01407             240.00    -1960.00
01408             200.00    -1920.00
01409             240.00    -1920.00
01410             200.00    -1920.00
01411             240.00    -1880.00
01412             200.00    -1840.00
01413             240.00    -1800.00
01414             200.00    -1800.00
01415             200.00    -1760.00
01416             200.00    -1760.00
01417             200.00    -1680.00
01418             200.00    -1680.00
01419             200.00    -1680.00
01420             200.00    -1640.00
01421             200.00    -1640.00
01422             200.00    -1600.00
01423             160.00    -1600.00
01424             200.00    -1520.00
01425             200.00    -1520.00
01426             160.00    -1480.00
01427             200.00    -1480.00
01428             160.00    -1440.00
01429             160.00    -1440.00
01430             120.00    -1400.00
01431             160.00    -1360.00
01432             200.00    -1320.00
01433             120.00    -1320.00
01434             200.00    -1280.00
01435             160.00    -1240.00
01436             120.00    -1200.00
01437             160.00    -1200.00
01438             120.00    -1200.00
01439             120.00    -1160.00
01440             120.00    -1120.00
01441             200.00    -1120.00
01442             120.00    -1040.00
01443             160.00    -1040.00
01444             160.00    -1000.00
01445             120.00    -1000.00
01446             160.00     -960.00
01447             120.00     -920.00
01448             120.00     -880.00
01449             120.00     -880.00
01450             120.00     -840.00
01451             120.00     -840.00
01452              80.00     -800.00
01453             120.00     -800.00
01454             120.00     -760.00
01455              80.00     -720.00
01456             120.00     -720.00
01457             120.00     -680.00
01458             120.00     -640.00
01459              80.00     -640.00
01460             120.00     -560.00
01461              80.00     -560.00
01462             120.00     -520.00
01463              80.00     -520.00
01464              80.00     -480.00
01465             120.00     -440.00
01466              80.00     -400.00
01467              80.00     -400.00
01468              80.00     -360.00
01469              40.00     -320.00
01470              40.00     -320.00
01471              80.00     -280.00
01472              40.00     -240.00
01473              40.00     -240.00
01474              40.00     -200.00
01475              40.00     -160.00
01476              40.00     -160.00
01477              40.00     -120.00
01478              40.00      -80.00
01479              40.00      -80.00
01480              40.00      -40.00
01481              40.00        0.00
01482              40.00        0.00
01483              40.00        0.00
01484              40.00       80.00
01485              40.00      120.00
01486              40.00      120.00
01487              40.00      160.00
01488              40.00      160.00
01489              40.00      240.00
01490              40.00      240.00
01491              40.00      280.00
01492              40.00      360.00
01493              40.00      320.00
01494             -80.00      280.00
01495             -80.00      360.00
01496               0.00      440.00
01497              40.00      440.00
01498              40.00      480.00
01499              40.00      480.00
01500               0.00      520.00
01501             -40.00      560.00
01502             -40.00      560.00
01503             -40.00      600.00
01504              40.00      640.00
01505             -40.00      640.00
01506             -80.00      680.00
01507             -40.00      680.00
01508             -40.00      720.00
01509             -40.00      760.00
01510             -40.00      800.00
01511             -40.00      800.00
01512             -40.00      840.00
01513             -40.00      880.00
01514             -40.00      920.00
01515             -40.00      920.00
01516             -80.00      960.00
01517             -80.00      960.00
01518             -80.00     1000.00
01519             -80.00     1080.00
01520             -40.00     1080.00
01521             -80.00     1080.00
01522             -80.00     1080.00
01523            -120.00     1160.00
01524             -80.00     1200.00
01525             -80.00     1200.00
01526             -80.00     1240.00
01527             -80.00     1240.00
01528             -80.00     1280.00
01529             -80.00     1320.00
01530            -120.00     1360.00
01531             -80.00     1320.00
01532            -120.00     1400.00
01533             -80.00     1400.00
01534            -120.00     1440.00
01535            -120.00     1440.00
01536            -120.00     1520.00
01537            -120.00     1560.00
01538            -120.00     1560.00
01539            -120.00     1600.00
01540            -120.00     1640.00
01541            -120.00     1600.00
01542            -120.00     1640.00
01543            -120.00     1680.00
01544            -120.00     1720.00
01545            -160.00     1760.00
01546            -160.00     1760.00
01547            -120.00     1760.00
01548            -120.00     1800.00
01549            -160.00     1840.00
01550            -160.00     1840.00
01551            -200.00     1880.00
01552            -160.00     1920.00
01553            -120.00     1920.00
01554            -160.00     1920.00
01555            -160.00     2000.00
01556            -120.00     2040.00
01557            -200.00     2040.00
01558            -160.00     2080.00
01559            -200.00     2080.00
01560            -200.00     2120.00
01561            -200.00     2160.00
01562            -200.00     2160.00
01563            -200.00     2200.00
01564            -200.00     2240.00
01565            -200.00     2240.00
01566            -200.00     2240.00
01567            -200.00     2280.00
01568            -200.00     2320.00
01569            -200.00     2360.00
01570            -200.00     2360.00
01571            -240.00     2360.00
01572            -200.00     2400.00
01573            -240.00     2440.00
01574            -200.00     2480.00
01575            -240.00     2480.00
01576            -240.00     2520.00
01577            -240.00     2520.00
01578            -200.00     2560.00
01579            -240.00     2560.00
01580            -240.00     2600.00
01581            -200.00     2600.00
01582            -240.00     2640.00
01583            -240.00     2640.00
01584            -240.00     2680.00
01585            -240.00     2720.00
01586            -240.00     2720.00
01587            -240.00     2720.00
01588            -240.00     2800.00
01589            -240.00     2800.00
01590            -240.00     2840.00
01591            -240.00     2840.00
01592            -240.00     2880.00
01593            -240.00     2920.00
01594            -240.00     2920.00
01595            -240.00     2920.00
01596            -240.00     2960.00
01597            -240.00     2960.00
01598            -240.00     3040.00
01599            -280.00     3000.00
01600            -280.00     3040.00
01601            -280.00     3080.00
01602            -280.00     3080.00
01603            -280.00     3080.00
01604            -280.00     3120.00
01605            -280.00     3120.00
01606            -280.00     3200.00
01607            -280.00     3160.00
01608            -240.00     3200.00
01609            -280.00     3200.00
01610            -320.00     3240.00
01611            -280.00     3200.00
01612            -280.00     3280.00
01613            -280.00     3280.00
01614            -320.00     3320.00
01615            -360.00     3320.00
01616            -280.00     3320.00
01617            -360.00     3360.00
01618            -280.00     3360.00
01619            -280.00     3440.00
01620            -360.00     3440.00
01621            -320.00     3440.00
01622            -360.00     3480.00
01623            -360.00     3440.00
01624            -360.00     3480.00
01625            -320.00     3520.00
01626            -360.00     3520.00
01627            -320.00     3520.00
01628            -280.00     3560.00
01629            -280.00     3560.00
01630            -320.00     3600.00
01631            -360.00     3640.00
01632            -320.00     3640.00
01633            -360.00     3640.00
01634            -360.00     3680.00
01635            -360.00     3680.00
01636            -360.00     3720.00
01637            -360.00     3680.00
01638            -360.00     3760.00
01639            -360.00     3760.00
01640            -360.00     3760.00
01641            -360.00     3800.00
01642            -320.00     3760.00
01643            -360.00     3840.00
01644            -360.00     3800.00
01645            -360.00     3840.00
01646            -400.00     3840.00
01647            -360.00     3880.00
01648            -360.00     3880.00
01649            -400.00     3920.00
01650            -360.00     3920.00
01651            -360.00     3920.00
01652            -360.00     3920.00
01653            -360.00     3960.00
01654            -400.00     3960.00
01655            -360.00     3960.00
01656            -360.00     4000.00
01657            -400.00     4000.00
01658            -360.00     4000.00
01659            -360.00     4000.00
01660            -400.00     4000.00
01661            -360.00     4080.00
01662            -400.00     4080.00
01663            -400.00     4080.00
01664            -400.00     4080.00
01665            -400.00     4080.00
01666            -400.00     4120.00
01667            -400.00     4120.00
01668            -400.00     4120.00
01669            -400.00     4120.00
01670            -400.00     4120.00
01671            -400.00     4200.00
01672            -400.00     4200.00
01673            -400.00     4160.00
01674            -360.00     4200.00
01675            -400.00     4240.00
01676            -440.00     4240.00
01677            -400.00     4240.00
01678            -400.00     4240.00
01679            -400.00     4240.00
01680            -400.00     4280.00
01681            -400.00     4280.00
01682            -440.00     4280.00
01683            -440.00     4280.00
01684            -440.00     4280.00
01685            -440.00     4320.00
01686            -440.00     4320.00
01687            -440.00     4320.00
01688            -400.00     4320.00
01689            -440.00     4320.00
01690            -440.00     4320.00
01691            -400.00     4320.00
01692            -440.00     4360.00
01693            -400.00     4320.00
01694            -400.00     4360.00
01695            -440.00     4360.00
01696            -400.00     4400.00
01697            -440.00     4400.00
01698            -400.00     4400.00
01699            -440.00     4400.00
01700            -440.00     4400.00
01701            -440.00     4400.00
01702            -400.00     4440.00
01703            -440.00     4440.00
01704            -440.00     4400.00
01705            -440.00     4440.00
01706            -440.00     4400.00
01707            -400.00     4440.00
01708            -440.00     4440.00
01709            -400.00     4440.00
01710            -440.00     4440.00
01711            -440.00     4440.00
01712            -440.00     4440.00
01713            -440.00     4480.00
01714            -440.00     4480.00
01715            -440.00     4480.00
01716            -400.00     4480.00
01717            -440.00     4440.00
01718            -440.00     4480.00
01719            -440.00     4480.00
01720            -440.00     4480.00
01721            -400.00     4480.00
01722            -440.00     4480.00
01723            -440.00     4480.00
01724            -400.00     4480.00
01725            -440.00     4480.00
01726            -440.00     4480.00
01727            -440.00     4440.00
01728            -400.00     4480.00
01729            -400.00     4480.00
01730            -440.00     4480.00
01731            -440.00     4480.00
01732            -440.00     4520.00
01733            -440.00     4520.00
01734            -440.00     4480.00
01735            -440.00     4480.00
01736            -440.00     4480.00
01737            -440.00     4480.00
01738            -440.00     4480.00
01739            -440.00     4480.00
01740            -440.00     4520.00
01741            -440.00     4480.00
01742            -440.00     4480.00
01743            -440.00     4480.00
01744            -440.00     4480.00
01745            -440.00     4480.00
01746            -440.00     4480.00
01747            -440.00     4480.00
01748            -440.00     4440.00
01749            -440.00     4480.00
01750            -440.00     4480.00
01751            -440.00     4480.00
01752            -440.00     4440.00
01753            -440.00     4480.00
01754            -440.00     4440.00
01755            -440.00     4440.00
01756            -440.00     4440.00
01757            -440.00     4440.00
01758            -440.00     4400.00
01759            -440.00     4440.00
01760            -440.00     4440.00
01761            -400.00     4440.00
01762            -440.00     4440.00
01763            -440.00     4440.00
01764            -440.00     4400.00
01765            -440.00     4440.00
01766            -440.00     4400.00
01767            -440.00     4400.00
01768            -440.00     4440.00
01769            -440.00     4400.00
01770            -440.00     4400.00
01771            -440.00     4400.00
01772            -440.00     4400.00
01773            -440.00     4360.00
01774            -440.00     4360.00
01775            -400.00     4320.00
01776            -400.00     4320.00
01777            -440.00     4320.00
01778            -400.00     4320.00
01779            -440.00     4320.00
01780            -400.00     4280.00
01781            -400.00     4320.00
01782            -440.00     4280.00
01783            -400.00     4280.00
01784            -440.00     4280.00
01785            -440.00     4280.00
01786            -400.00     4280.00
01787            -400.00     4240.00
01788            -440.00     4280.00
01789            -440.00     4240.00
01790            -440.00     4240.00
01791            -400.00     4200.00
01792            -440.00     4200.00
01793            -400.00     4240.00
01794            -440.00     4200.00
01795            -440.00     4160.00
01796            -400.00     4200.00
01797            -440.00     4160.00
01798            -400.00     4200.00
01799            -400.00     4160.00
01800            -440.00     4120.00
01801            -440.00     4120.00
01802            -440.00     4120.00
01803            -440.00     4080.00
01804            -440.00     4120.00
01805            -400.00     4080.00
01806            -440.00     4040.00
01807            -440.00     4080.00
01808            -400.00     4000.00
01809            -440.00     4040.00
01810            -400.00     4000.00
01811            -400.00     4000.00
01812            -440.00     4000.00
01813            -440.00     3960.00
01814            -400.00     3960.00
01815            -440.00     3960.00
01816            -440.00     3920.00
01817            -400.00     3920.00
01818            -400.00     3920.00
01819            -400.00     3880.00
01820            -400.00     3880.00
01821            -400.00     3880.00
01822            -400.00     3840.00
01823            -400.00     3840.00
01824            -400.00     3840.00
01825            -400.00     3840.00
01826            -400.00     3800.00
01827            -400.00     3800.00
01828            -400.00     3760.00
01829            -400.00     3760.00
01830            -400.00     3760.00
01831            -400.00     3720.00
01832            -360.00     3680.00
01833            -400.00     3680.00
01834            -360.00     3680.00
01835            -400.00     3640.00
01836            -400.00     3680.00
01837            -360.00     3640.00
01838            -360.00     3600.00
01839            -360.00     3600.00
01840            -360.00     3560.00
01841            -360.00     3520.00
01842            -400.00     3520.00
01843            -360.00     3520.00
01844            -360.00     3480.00
01845            -360.00     3480.00
01846            -360.00     3480.00
01847            -360.00     3440.00
01848            -360.00     3440.00
01849            -360.00     3400.00
01850            -360.00     3360.00
01851            -360.00     3360.00
01852            -360.00     3360.00
01853            -360.00     3320.00
01854            -360.00     3320.00
01855            -360.00     3320.00
01856            -360.00     3280.00
01857            -280.00     3280.00
01858            -360.00     3280.00
01859            -360.00     3240.00
01860            -360.00     3200.00
01861            -280.00     3200.00
01862            -360.00     3160.00
01863            -360.00     3160.00
01864            -360.00     3120.00
01865            -360.00     3120.00
01866            -360.00     3120.00
01867            -360.00     3080.00
01868            -360.00     3040.00
01869            -280.00     3040.00
01870            -360.00     3000.00
01871            -280.00     3000.00
01872            -360.00     3000.00
01873            -320.00     2960.00
01874            -280.00     2960.00
01875            -320.00     2920.00
01876            -360.00     2880.00
01877            -280.00     2880.00
01878            -280.00     2840.00
01879            -280.00     2840.00
01880            -320.00     2800.00
01881            -320.00     2800.00
01882            -360.00     2720.00
01883            -280.00     2720.00
01884            -280.00     2680.00
01885            -280.00     2680.00
01886            -280.00     2640.00
01887            -240.00     2640.00
01888            -280.00     2640.00
01889            -280.00     2600.00
01890            -240.00     2560.00
01891            -240.00     2560.00
01892            -280.00     2520.00
01893            -240.00     2520.00
01894            -240.00     2480.00
01895            -280.00     2480.00
01896            -280.00     2440.00
01897            -240.00     2400.00
01898            -240.00     2400.00
01899            -240.00     2360.00
01900            -240.00     2360.00
01901            -240.00     2320.00
01902            -240.00     2320.00
01903            -240.00     2240.00
01904            -240.00     2240.00
01905            -240.00     2240.00
01906            -240.00     2200.00
01907            -240.00     2160.00
01908            -240.00     2160.00
01909            -240.00     2160.00
01910            -200.00     2080.00
01911            -200.00     2080.00
01912            -200.00     2040.00
01913            -240.00     2040.00
01914            -240.00     2000.00
01915            -240.00     2000.00
01916            -200.00     1960.00
01917            -240.00     1920.00
01918            -200.00     1920.00
01919            -200.00     1880.00
01920            -200.00     1840.00
01921            -160.00     1840.00
01922            -200.00     1840.00
01923            -200.00     1760.00
01924            -200.00     1760.00
01925            -200.00     1720.00
01926            -200.00     1680.00
01927            -200.00     1680.00
01928            -200.00     1680.00
01929            -200.00     1600.00
01930            -160.00     1600.00
01931            -200.00     1600.00
01932            -200.00     1560.00
01933            -200.00     1520.00
01934            -200.00     1520.00
01935            -160.00     1520.00
01936            -160.00     1440.00
01937            -200.00     1440.00
01938            -120.00     1400.00
01939            -120.00     1360.00
01940            -200.00     1360.00
01941            -120.00     1320.00
01942            -120.00     1280.00
01943            -160.00     1280.00
01944            -120.00     1240.00
01945            -160.00     1200.00
01946            -120.00     1160.00
01947            -120.00     1200.00
01948            -120.00     1120.00
01949            -120.00     1120.00
01950            -120.00     1120.00
01951            -120.00     1080.00
01952            -120.00     1040.00
01953            -120.00     1000.00
01954            -120.00      960.00
01955            -120.00      920.00
01956            -120.00      880.00
01957            -120.00      880.00
01958            -120.00      880.00
01959            -120.00      880.00
01960             -80.00      800.00
01961             -80.00      800.00
01962             -80.00      720.00
01963            -120.00      720.00
01964            -120.00      720.00
01965             -80.00      680.00
01966             -80.00      640.00
01967             -80.00      640.00
01968             -80.00      640.00
01969             -80.00      560.00
01970             -40.00      560.00
01971             -80.00      520.00
01972             -80.00      480.00
01973             -80.00      440.00
01974             -40.00      440.00
01975             -80.00      400.00
01976             -40.00      400.00
01977             -40.00      360.00
01978             -40.00      320.00
01979             -80.00      320.00
01980             -40.00      280.00
01981             -40.00      240.00
01982             -40.00      200.00
01983             -40.00      200.00
01984             -40.00      160.00
01985             -40.00      120.00
01986             -40.00      120.00
01987             -40.00       80.00
01988             -40.00       40.00
01989             -40.00        0.00
01990             -40.00        0.00
01991             -80.00        0.00
01992             -40.00      -80.00
01993             -40.00      -80.00
01994               0.00     -120.00
01995             -40.00     -120.00
01996             -40.00     -160.00
01997               0.00     -160.00
01998             -40.00     -240.00
01999              40.00     -240.00
02000              40.00     -240.00
02001              40.00     -240.00
02002              40.00     -360.00
02003             -40.00     -440.00
02004             -40.00     -400.00
02005               0.00     -400.00
02006              40.00     -440.00
02007              40.00     -480.00
02008              40.00     -480.00
02009              80.00     -520.00
02010              40.00     -560.00
02011              40.00     -600.00
02012              40.00     -600.00
02013              80.00     -640.00
02014              40.00     -680.00
02015              40.00     -680.00
02016              40.00     -720.00
02017              40.00     -800.00
02018              40.00     -760.00
02019              80.00     -800.00
02020              80.00     -840.00
02021              80.00     -880.00
02022              40.00     -880.00
02023              80.00     -920.00
02024              80.00     -960.00
02025              80.00     -960.00
02026              80.00    -1000.00
02027              40.00    -1040.00
02028              80.00    -1040.00
02029             120.00    -1040.00
02030              80.00    -1120.00
02031              80.00    -1160.00
02032             120.00    -1160.00
02033              80.00    -1160.00
02034              80.00    -1200.00
02035              80.00    -1280.00
02036             120.00    -1280.00
02037             120.00    -1320.00
02038             120.00    -1320.00
02039              80.00    -1360.00
02040             120.00    -1360.00
02041             120.00    -1360.00
02042             120.00    -1440.00
02043              80.00    -1440.00
02044             120.00    -1480.00
02045             120.00    -1480.00
02046             200.00    -1520.00
02047             120.00    -1600.00
02048             120.00    -1600.00
02049             200.00    -1640.00
02050             200.00    -1680.00
02051             160.00    -1680.00
02052             120.00    -1680.00
02053             120.00    -1720.00
02054             200.00    -1720.00
02055             200.00    -1760.00
02056             160.00    -1800.00
02057             160.00    -1840.00
02058             120.00    -1840.00
02059             200.00    -1880.00
02060             200.00    -1920.00
02061             120.00    -1920.00
02062             160.00    -1960.00
02063             200.00    -1960.00
02064             160.00    -2000.00
02065             120.00    -2000.00
02066             200.00    -2080.00
02067             200.00    -2080.00
02068             200.00    -2080.00
02069             200.00    -2120.00
02070             200.00    -2160.00
02071             160.00    -2160.00
02072             200.00    -2200.00
02073             200.00    -2240.00
02074             200.00    -2240.00
02075             240.00    -2280.00
02076             200.00    -2320.00
02077             240.00    -2320.00
02078             200.00    -2360.00
02079             200.00    -2400.00
02080             200.00    -2400.00
02081             200.00    -2440.00
02082             240.00    -2440.00
02083             200.00    -2440.00
02084             240.00    -2480.00
02085             240.00    -2480.00
02086             200.00    -2560.00
02087             240.00    -2560.00
02088             240.00    -2600.00
02089             240.00    -2600.00
02090             240.00    -2640.00
02091             240.00    -2640.00
02092             240.00    -2680.00
02093             240.00    -2680.00
02094             280.00    -2720.00
02095             240.00    -2720.00
02096             240.00    -2760.00
02097             240.00    -2760.00
02098             280.00    -2800.00
02099             280.00    -2840.00
02100             280.00    -2880.00
02101             240.00    -2880.00
02102             280.00    -2880.00
02103             280.00    -2920.00
02104             280.00    -2920.00
02105             280.00    -2960.00
02106             280.00    -2960.00
02107             280.00    -3000.00
02108             280.00    -3040.00
02109             280.00    -3040.00
02110             240.00    -3080.00
02111             360.00    -3080.00
02112             320.00    -3120.00
02113             280.00    -3120.00
02114             280.00    -3120.00
02115             280.00    -3200.00
02116             280.00    -3160.00
02117             320.00    -3200.00
02118             320.00    -3240.00
02119             320.00    -3240.00
02120             360.00    -3240.00
02121             320.00    -3280.00
02122             280.00    -3280.00
02123             320.00    -3280.00
02124             280.00    -3360.00
02125             360.00    -3360.00
02126             320.00    -3360.00
02127             360.00    -3360.00
02128             320.00    -3400.00
02129             360.00    -3400.00
02130             320.00    -3440.00
02131             280.00    -3440.00
02132             320.00    -3480.00
02133             360.00    -3520.00
02134             360.00    -3520.00
02135             360.00    -3520.00
02136             320.00    -3560.00
02137             360.00    -3560.00
02138             360.00    -3600.00
02139             360.00    -3600.00
02140             360.00    -3600.00
02141             360.00    -3640.00
02142             360.00    -3680.00
02143             360.00    -3640.00
02144             360.00    -3680.00
02145             360.00    -3720.00
02146             360.00    -3760.00
02147             360.00    -3720.00
02148             360.00    -3760.00
02149             360.00    -3760.00
02150             400.00    -3840.00
02151             400.00    -3800.00
02152             400.00    -3800.00
02153             360.00    -3840.00
02154             400.00    -3840.00
02155             360.00    -3880.00
02156             400.00    -3880.00
02157             360.00    -3880.00
02158             400.00    -3880.00
02159             360.00    -3920.00
02160             400.00    -3920.00
02161             400.00    -3920.00
02162             400.00    -3920.00
02163             400.00    -3960.00
02164             400.00    -4000.00
02165             400.00    -4000.00
02166             400.00    -4000.00
02167             400.00    -4000.00
02168             400.00    -4000.00
02169             400.00    -4040.00
02170             400.00    -4080.00
02171             400.00    -4080.00
02172             400.00    -4080.00
02173             360.00    -4080.00
02174             400.00    -4080.00
02175             400.00    -4080.00
02176             400.00    -4120.00
02177             400.00    -4120.00
02178             400.00    -4160.00
02179             400.00    -4160.00
02180             400.00    -4160.00
02181             400.00    -4160.00
02182             400.00    -4200.00
02183             440.00    -4200.00
02184             440.00    -4200.00
02185             400.00    -4200.00
02186             400.00    -4200.00
02187             400.00    -4240.00
02188             440.00    -4240.00
02189             400.00    -4240.00
02190             440.00    -4240.00
02191             400.00    -4240.00
02192             400.00    -4280.00
02193             400.00    -4320.00
02194             400.00    -4320.00
02195             400.00    -4320.00
02196             440.00    -4320.00
02197             400.00    -4320.00
02198             400.00    -4360.00
02199             400.00    -4320.00
02200             400.00    -4360.00
02201             400.00    -4360.00
02202             400.00    -4360.00
02203             440.00    -4360.00
02204             440.00    -4360.00
02205             400.00    -4400.00
02206             400.00    -4400.00
02207             400.00    -4400.00
02208             440.00    -4400.00
02209             440.00    -4400.00
02210             440.00    -4400.00
02211             440.00    -4400.00
02212             400.00    -4440.00
02213             400.00    -4400.00
02214             440.00    -4440.00
02215             400.00    -4400.00
02216             440.00    -4440.00
02217             440.00    -4480.00
02218             400.00    -4440.00
02219             440.00    -4440.00
02220             480.00    -4440.00
02221             440.00    -4480.00
02222             440.00    -4440.00
02223             440.00    -4440.00
02224             440.00    -4480.00
02225             440.00    -4440.00
02226             440.00    -4480.00
02227             440.00    -4480.00
02228             440.00    -4480.00
02229             440.00    -4480.00
02230             440.00    -4480.00
02231             440.00    -4480.00
02232             440.00    -4480.00
02233             440.00    -4480.00
02234             440.00    -4520.00
02235             440.00    -4480.00
02236             440.00    -4480.00
02237             440.00    -4480.00
02238             440.00    -4480.00
02239             440.00    -4480.00
02240             520.00    -4480.00
02241             440.00    -4520.00
02242             480.00    -4480.00
02243             440.00    -4480.00
02244             440.00    -4480.00
02245             440.00    -4520.00
02246             440.00    -4480.00
02247             440.00    -4520.00
02248             440.00    -4480.00
02249             440.00    -4480.00
02250             480.00    -4480.00
02251             440.00    -4480.00
02252             440.00    -4480.00
02253             440.00    -4520.00
02254             440.00    -4480.00
02255             440.00    -4480.00
02256             440.00    -4480.00
02257             440.00    -4480.00
02258             440.00    -4480.00
02259             440.00    -4480.00
02260             440.00    -4480.00
02261             440.00    -4480.00
02262             440.00    -4480.00
02263             440.00    -4480.00
02264             440.00    -4440.00
02265             440.00    -4400.00
02266             440.00    -4480.00
02267             440.00    -4400.00
02268             440.00    -4440.00
02269             400.00    -4400.00
02270             440.00    -4400.00
02271             440.00    -4440.00
02272             400.00    -4400.00
02273             440.00    -4400.00
02274             400.00    -4400.00
02275             440.00    -4400.00
02276             440.00    -4400.00
02277             440.00    -4400.00
02278             400.00    -4360.00
02279             400.00    -4360.00
02280             440.00    -4360.00
02281             440.00    -4360.00
02282             440.00    -4400.00
02283             440.00    -4360.00
02284             440.00    -4320.00
02285             440.00    -4320.00
02286             440.00    -4320.00
02287             400.00    -4320.00
02288             440.00    -4320.00
02289             440.00    -4320.00
02290             440.00    -4320.00
02291             440.00    -4280.00
02292             440.00    -4320.00
02293             440.00    -4240.00
02294             440.00    -4280.00
02295             440.00    -4280.00
02296             480.00    -4240.00
02297             440.00    -4240.00
02298             440.00    -4240.00
02299             440.00    -4240.00
02300             400.00    -4240.00
02301             440.00    -4200.00
02302             440.00    -4200.00
02303             400.00    -4200.00
02304             440.00    -4200.00
02305             440.00    -4160.00
02306             440.00    -4160.00
02307             440.00    -4160.00
02308             440.00    -4160.00
02309             400.00    -4120.00
02310             440.00    -4160.00
02311             440.00    -4080.00
02312             440.00    -4080.00
02313             400.00    -4080.00
02314             440.00    -4040.00
02315             400.00    -4040.00
02316             440.00    -4040.00
02317             440.00    -4040.00
02318             400.00    -4000.00
02319             400.00    -4040.00
02320             400.00    -4000.00
02321             400.00    -3960.00
02322             400.00    -3960.00
02323             400.00    -3960.00
02324             400.00    -3920.00
02325             400.00    -3920.00
02326             400.00    -3920.00
02327             400.00    -3880.00
02328             400.00    -3880.00
02329             400.00    -3840.00
02330             400.00    -3880.00
02331             360.00    -3840.00
02332             360.00    -3840.00
02333             400.00    -3800.00
02334             400.00    -3760.00
02335             400.00    -3760.00
02336             400.00    -3760.00
02337             400.00    -3760.00
02338             400.00    -3760.00
02339             400.00    -3720.00
02340             400.00    -3720.00
02341             400.00    -3720.00
02342             400.00    -3680.00
02343             400.00    -3680.00
02344             360.00    -3680.00
02345             360.00    -3600.00
02346             400.00    -3600.00
02347             360.00    -3600.00
02348             360.00    -3560.00
02349             360.00    -3560.00
02350             360.00    -3560.00
02351             400.00    -3520.00
02352             360.00    -3480.00
02353             360.00    -3480.00
02354             400.00    -3440.00
02355             400.00    -3440.00
02356             400.00    -3440.00
02357             360.00    -3400.00
02358             400.00    -3400.00
02359             400.00    -3400.00
02360             360.00    -3360.00
02361             400.00    -3360.00
02362             360.00    -3320.00
02363             360.00    -3320.00
02364             360.00    -3280.00
02365             360.00    -3280.00
02366             360.00    -3280.00
02367             360.00    -3240.00
02368             360.00    -3200.00
02369             360.00    -3200.00
02370             400.00    -3200.00
02371             360.00    -3160.00
02372             360.00    -3160.00
02373             360.00    -3120.00
02374             360.00    -3120.00
02375             360.00    -3080.00
02376             360.00    -3040.00
02377             360.00    -3040.00
02378             360.00    -3000.00
02379             360.00    -3000.00
02380             320.00    -3000.00
02381             360.00    -2960.00
02382             320.00    -2960.00
02383             320.00    -2920.00
02384             280.00    -2880.00
02385             360.00    -2880.00
02386             280.00    -2840.00
02387             320.00    -2800.00
02388             320.00    -2800.00
02389             280.00    -2760.00
02390             280.00    -2760.00
02391             280.00    -2760.00
02392             280.00    -2720.00
02393             280.00    -2720.00
02394             280.00    -2680.00
02395             280.00    -2640.00
02396             280.00    -2640.00
02397             280.00    -2600.00
02398             280.00    -2600.00
02399             280.00    -2560.00
02400             280.00    -2560.00
02401             280.00    -2520.00
02402             240.00    -2480.00
02403             240.00    -2480.00
02404             280.00    -2440.00
02405             280.00    -2440.00
02406             240.00    -2400.00
02407             240.00    -2400.00
02408             280.00    -2320.00
02409             240.00    -2320.00
02410             280.00    -2280.00
02411             240.00    -2280.00
02412             240.00    -2280.00
02413             280.00    -2200.00
02414             240.00    -2240.00
02415             240.00    -2160.00
02416             280.00    -2160.00
02417             240.00    -2160.00
02418             200.00    -2120.00
02419             240.00    -2080.00
02420             240.00    -2080.00
02421             240.00    -2040.00
02422             240.00    -2040.00
02423             240.00    -2000.00
02424             240.00    -1960.00
02425             240.00    -1920.00
02426             240.00    -1920.00
02427             240.00    -1920.00
02428             240.00    -1880.00
02429             200.00    -1840.00
02430             200.00    -1800.00
02431             240.00    -1800.00
02432             240.00    -1760.00
02433             200.00    -1760.00
02434             200.00    -1720.00
02435             200.00    -1680.00
02436             200.00    -1680.00
02437             200.00    -1680.00
02438             200.00    -1600.00
02439             200.00    -1600.00
02440             200.00    -1600.00
02441             200.00    -1560.00
02442             200.00    -1520.00
02443             200.00    -1480.00
02444             200.00    -1480.00
02445             200.00    -1440.00
02446             160.00    -1440.00
02447             200.00    -1400.00
02448             200.00    -1360.00
02449             200.00    -1360.00
02450             120.00    -1320.00
02451             120.00    -1280.00
02452             160.00    -1280.00
02453             120.00    -1240.00
02454             120.00    -1200.00
02455             120.00    -1160.00
02456             120.00    -1160.00
02457             160.00    -1120.00
02458              80.00    -1120.00
02459             120.00    -1080.00
02460              80.00    -1040.00
02461              80.00    -1000.00
02462              80.00     -960.00
02463             120.00     -960.00
02464             120.00     -920.00
02465             120.00     -880.00
02466              80.00     -880.00
02467              80.00     -840.00
02468              80.00     -840.00
02469             120.00     -800.00
02470              80.00     -800.00
02471             120.00     -760.00
02472              80.00     -720.00
02473              80.00     -720.00
02474              80.00     -680.00
02475              80.00     -640.00
02476              80.00     -600.00
02477              80.00     -560.00
02478              80.00     -560.00
02479              80.00     -520.00
02480              80.00     -520.00
02481              80.00     -480.00
02482              80.00     -480.00
02483              80.00     -400.00
02484              80.00     -400.00
02485              80.00     -360.00
02486              40.00     -320.00
02487              40.00     -320.00
02488              80.00     -280.00
02489              80.00     -280.00
02490              80.00     -240.00
02491              40.00     -200.00
02492              40.00     -160.00
02493              40.00     -120.00
02494              80.00     -160.00
02495              40.00      -80.00
02496              40.00      -80.00
02497              40.00      -40.00
02498              40.00        0.00
02499              40.00        0.00
02500              80.00       40.00
02501              40.00       80.00
02502              40.00       80.00
02503              40.00      120.00
02504              40.00      160.00
02505              40.00      200.00
02506              40.00      240.00
02507              40.00      240.00
02508              40.00      280.00
02509              40.00      320.00
02510              40.00      360.00
02511             -80.00      280.00
02512             -80.00      320.00
02513             -40.00      400.00
02514              40.00      440.00
02515               0.00      480.00
02516               0.00      480.00
02517             -40.00      560.00
02518             -40.00      520.00
02519             -80.00      560.00
02520             -40.00      600.00
02521              40.00      640.00
02522             -40.00      640.00
02523             -40.00      640.00
02524             -40.00      720.00
02525             -40.00      720.00
02526             -80.00      760.00
02527             -40.00      800.00
02528             -40.00      840.00
02529             -80.00      840.00
02530             -80.00      840.00
02531             -40.00      920.00
02532             -40.00      920.00
02533             -80.00      960.00
02534             -80.00      960.00
02535             -80.00     1040.00
02536             -80.00     1040.00
02537            -120.00     1080.00
02538             -80.00     1120.00
02539             -80.00     1120.00
02540             -80.00     1160.00
02541             -80.00     1160.00
02542             -80.00     1240.00
02543             -80.00     1200.00
02544             -80.00     1240.00
02545             -80.00     1280.00
02546            -120.00     1320.00
02547             -80.00     1360.00
02548            -120.00     1360.00
02549             -80.00     1400.00
02550            -120.00     1400.00
02551             -80.00     1440.00
02552            -120.00     1440.00
02553            -120.00     1520.00
02554             -80.00     1520.00
02555            -120.00     1560.00
02556            -120.00     1640.00
02557            -120.00     1600.00
02558            -120.00     1680.00
02559            -120.00     1680.00
02560            -120.00     1680.00
02561            -120.00     1720.00
02562            -120.00     1760.00
02563            -120.00     1760.00
02564            -120.00     1760.00
02565            -160.00     1800.00
02566            -120.00     1840.00
02567            -160.00     1880.00
02568            -120.00     1880.00
02569            -120.00     1920.00
02570            -120.00     1920.00
02571            -120.00     2000.00
02572            -160.00     1960.00
02573            -160.00     2040.00
02574            -120.00     2080.00
02575            -120.00     2080.00
02576            -200.00     2080.00
02577            -160.00     2080.00
02578            -160.00     2160.00
02579            -120.00     2200.00
02580            -200.00     2200.00
02581            -200.00     2200.00
02582            -160.00     2240.00
02583            -200.00     2240.00
02584            -240.00     2320.00
02585            -200.00     2320.00
02586            -240.00     2360.00
02587            -240.00     2360.00
02588            -200.00     2400.00
02589            -200.00     2400.00
02590            -200.00     2480.00
02591            -240.00     2480.00
02592            -240.00     2480.00
02593            -200.00     2520.00
02594            -200.00     2520.00
02595            -240.00     2560.00
02596            -240.00     2560.00
02597            -240.00     2600.00
02598            -240.00     2600.00
02599            -240.00     2640.00
02600            -240.00     2640.00
02601            -240.00     2680.00
02602            -240.00     2720.00
02603            -240.00     2720.00
02604            -240.00     2760.00
02605            -240.00     2760.00
02606            -240.00     2800.00
02607            -240.00     2840.00
02608            -280.00     2840.00
02609            -240.00     2880.00
02610            -240.00     2920.00
02611            -280.00     2920.00
02612            -240.00     2960.00
02613            -240.00     3000.00
02614            -280.00     3000.00
02615            -280.00     3000.00
02616            -280.00     3040.00
02617            -280.00     3000.00
02618            -240.00     3040.00
02619            -240.00     3080.00
02620            -280.00     3040.00
02621            -240.00     3120.00
02622            -280.00     3160.00
02623            -240.00     3160.00
02624            -280.00     3200.00
02625            -280.00     3200.00
02626            -280.00     3200.00
02627            -280.00     3240.00
02628            -280.00     3280.00
02629            -280.00     3280.00
02630            -280.00     3280.00
02631            -280.00     3320.00
02632            -280.00     3320.00
02633            -280.00     3360.00
02634            -280.00     3360.00
02635            -320.00     3400.00
02636            -320.00     3400.00
02637            -280.00     3440.00
02638            -280.00     3440.00
02639            -280.00     3480.00
02640            -280.00     3480.00
02641            -360.00     3480.00
02642            -360.00     3520.00
02643            -360.00     3520.00
02644            -280.00     3520.00
02645            -360.00     3560.00
02646            -360.00     3560.00
02647            -360.00     3600.00
02648            -360.00     3640.00
02649            -360.00     3640.00
02650            -360.00     3640.00
02651            -360.00     3680.00
02652            -360.00     3680.00
02653            -400.00     3720.00
02654            -360.00     3680.00
02655            -400.00     3760.00
02656            -360.00     3760.00
02657            -360.00     3760.00
02658            -360.00     3800.00
02659            -400.00     3800.00
02660            -360.00     3800.00
02661            -400.00     3800.00
02662            -400.00     3840.00
02663            -360.00     3840.00
02664            -400.00     3840.00
02665            -360.00     3840.00
02666            -400.00     3920.00
02667            -400.00     3920.00
02668            -400.00     3920.00
02669            -400.00     3920.00
02670            -360.00     3960.00
02671            -400.00     3960.00
02672            -400.00     4000.00
02673            -360.00     4000.00
02674            -400.00     4000.00
02675            -360.00     4000.00
02676            -400.00     4040.00
02677            -360.00     4040.00
02678            -400.00     4080.00
02679            -400.00     4040.00
02680            -400.00     4080.00
02681            -400.00     4080.00
02682            -360.00     4080.00
02683            -400.00     4120.00
02684            -400.00     4120.00
02685            -400.00     4120.00
02686            -400.00     4120.00
02687            -400.00     4160.00
02688            -360.00     4200.00
02689            -400.00     4200.00
02690            -400.00     4200.00
02691            -400.00     4200.00
02692            -400.00     4200.00
02693            -360.00     4240.00
02694            -400.00     4240.00
02695            -400.00     4240.00
02696            -400.00     4240.00
02697            -400.00     4240.00
02698            -360.00     4280.00
02699            -400.00     4280.00
02700            -400.00     4280.00
02701            -400.00     4280.00
02702            -440.00     4320.00
02703            -400.00     4320.00
02704            -400.00     4320.00
02705            -400.00     4320.00
02706            -440.00     4320.00
02707            -400.00     4320.00
02708            -400.00     4360.00
02709            -440.00     4360.00
02710            -400.00     4360.00
02711            -440.00     4360.00
02712            -440.00     4360.00
02713            -440.00     4400.00
02714            -440.00     4400.00
02715            -440.00     4400.00
02716            -440.00     4400.00
02717            -400.00     4440.00
02718            -440.00     4400.00
02719            -440.00     4400.00
02720            -440.00     4400.00
02721            -440.00     4400.00
02722            -440.00     4400.00
02723            -440.00     4440.00
02724            -440.00     4440.00
02725            -440.00     4440.00
02726            -440.00     4440.00
02727            -440.00     4440.00
02728            -440.00     4440.00
02729            -440.00     4480.00
02730            -440.00     4440.00
02731            -440.00     4480.00
02732            -400.00     4440.00
02733            -440.00     4440.00
02734            -440.00     4440.00
02735            -440.00     4440.00
02736            -440.00     4480.00
02737            -440.00     4480.00
02738            -440.00     4440.00
02739            -440.00     4480.00
02740            -400.00     4480.00
02741            -440.00     4480.00
02742            -440.00     4480.00
02743            -440.00     4480.00
02744            -400.00     4480.00
02745            -440.00     4480.00
02746            -400.00     4480.00
02747            -440.00     4480.00
02748            -440.00     4520.00
02749            -440.00     4480.00
02750            -440.00     4480.00
02751            -440.00     4480.00
02752            -400.00     4480.00
02753            -440.00     4520.00
02754            -440.00     4480.00
02755            -440.00     4480.00
02756            -440.00     4480.00
02757            -440.00     4480.00
02758            -400.00     4480.00
02759            -440.00     4480.00
02760            -440.00     4480.00
02761            -400.00     4480.00
02762            -440.00     4480.00
02763            -440.00     4480.00
02764            -440.00     4480.00
02765            -440.00     4480.00
02766            -440.00     4480.00
02767            -400.00     4480.00
02768            -440.00     4480.00
02769            -440.00     4480.00
02770            -400.00     4480.00
02771            -440.00     4480.00
02772            -400.00     4480.00
02773            -440.00     4440.00
02774            -440.00     4440.00
02775            -440.00     4440.00
02776            -440.00     4440.00
02777            -440.00     4440.00
02778            -440.00     4440.00
02779            -440.00     4440.00
02780            -440.00     4440.00
02781            -440.00     4400.00
02782            -440.00     4400.00
02783            -440.00     4400.00
02784            -440.00     4400.00
02785            -440.00     4400.00
02786            -440.00     4400.00
02787            -440.00     4400.00
02788            -440.00     4400.00
02789            -440.00     4400.00
02790            -440.00     4400.00
02791            -440.00     4400.00
02792            -440.00     4360.00
02793            -440.00     4320.00
02794            -440.00     4320.00
02795            -440.00     4320.00
02796            -440.00     4360.00
02797            -440.00     4320.00
02798            -440.00     4320.00
02799            -440.00     4320.00
02800            -440.00     4280.00
02801            -440.00     4280.00
02802            -400.00     4280.00
02803            -440.00     4280.00
02804            -440.00     4280.00
02805            -440.00     4240.00
02806            -440.00     4240.00
02807            -440.00     4240.00
02808            -440.00     4240.00
02809            -400.00     4240.00
02810            -440.00     4200.00
02811            -400.00     4200.00
02812            -400.00     4200.00
02813            -440.00     4160.00
02814            -440.00     4160.00
02815            -400.00     4200.00
02816            -440.00     4160.00
02817            -400.00     4120.00
02818            -400.00     4120.00
02819            -400.00     4120.00
02820            -400.00     4120.00
02821            -400.00     4080.00
02822            -400.00     4120.00
02823            -400.00     4080.00
02824            -400.00     4000.00
02825            -400.00     4080.00
02826            -400.00     4000.00
02827            -400.00     4000.00
02828            -400.00     4000.00
02829            -400.00     4000.00
02830            -400.00     4000.00
02831            -400.00     3960.00
02832            -400.00     3920.00
02833            -440.00     3960.00
02834            -400.00     3920.00
02835            -400.00     3920.00
02836            -400.00     3880.00
02837            -400.00     3880.00
02838            -440.00     3880.00
02839            -400.00     3880.00
02840            -400.00     3840.00
02841            -400.00     3840.00
02842            -400.00     3800.00
02843            -400.00     3800.00
02844            -400.00     3800.00
02845            -400.00     3760.00
02846            -400.00     3760.00
02847            -360.00     3760.00
02848            -400.00     3720.00
02849            -400.00     3680.00
02850            -400.00     3680.00
02851            -400.00     3640.00
02852            -400.00     3680.00
02853            -400.00     3640.00
02854            -360.00     3640.00
02855            -400.00     3600.00
02856            -400.00     3600.00
02857            -360.00     3600.00
02858            -400.00     3560.00
02859            -360.00     3520.00
02860            -360.00     3520.00
02861            -360.00     3480.00
02862            -400.00     3480.00
02863            -360.00     3440.00
02864            -400.00     3440.00
02865            -360.00     3440.00
02866            -360.00     3440.00
02867            -400.00     3400.00
02868            -360.00     3400.00
02869            -360.00     3360.00
02870            -360.00     3360.00
02871            -360.00     3320.00
02872            -320.00     3320.00
02873            -280.00     3280.00
02874            -360.00     3280.00
02875            -360.00     3240.00
02876            -360.00     3240.00
02877            -360.00     3200.00
02878            -320.00     3160.00
02879            -360.00     3200.00
02880            -360.00     3160.00
02881            -360.00     3120.00
02882            -360.00     3120.00
02883            -280.00     3120.00
02884            -320.00     3120.00
02885            -360.00     3040.00
02886            -320.00     3040.00
02887            -280.00     3000.00
02888            -360.00     3000.00
02889            -280.00     2960.00
02890            -280.00     2960.00
02891            -360.00     2920.00
02892            -280.00     2920.00
02893            -320.00     2880.00
02894            -280.00     2840.00
02895            -280.00     2840.00
02896            -280.00     2800.00
02897            -280.00     2840.00
02898            -280.00     2800.00
02899            -280.00     2760.00
02900            -240.00     2720.00
02901            -280.00     2720.00
02902            -280.00     2680.00
02903            -240.00     2680.00
02904            -280.00     2640.00
02905            -280.00     2640.00
02906            -280.00     2600.00
02907            -280.00     2560.00
02908            -280.00     2560.00
02909            -240.00     2520.00
02910            -280.00     2480.00
02911            -280.00     2480.00
02912            -280.00     2480.00
02913            -280.00     2440.00
02914            -240.00     2400.00
02915            -240.00     2400.00
02916            -240.00     2400.00
02917            -240.00     2320.00
02918            -240.00     2320.00
02919            -240.00     2320.00
02920            -240.00     2240.00
02921            -240.00     2240.00
02922            -280.00     2200.00
02923            -240.00     2200.00
02924            -240.00     2200.00
02925            -240.00     2160.00
02926            -240.00     2160.00
02927            -240.00     2120.00
02928            -240.00     2080.00
02929            -240.00     2040.00
02930            -240.00     2040.00
02931            -240.00     2000.00
02932            -240.00     2000.00
02933            -200.00     1960.00
02934            -200.00     1920.00
02935            -200.00     1920.00
02936            -240.00     1880.00
02937            -200.00     1840.00
02938            -200.00     1840.00
02939            -240.00     1840.00
02940            -200.00     1760.00
02941            -200.00     1760.00
02942            -200.00     1760.00
02943            -160.00     1720.00
02944            -200.00     1680.00
02945            -200.00     1680.00
02946            -120.00     1680.00
02947            -160.00     1600.00
02948            -200.00     1600.00
02949            -160.00     1560.00
02950            -200.00     1560.00
02951            -120.00     1520.00
02952            -200.00     1480.00
02953            -120.00     1480.00
02954            -120.00     1440.00
02955            -120.00     1400.00
02956            -160.00     1400.00
02957            -120.00     1360.00
02958            -120.00     1320.00
02959            -120.00     1320.00
02960            -120.00     1240.00
02961            -120.00     1240.00
02962            -120.00     1200.00
02963            -120.00     1200.00
02964            -120.00     1200.00
02965            -120.00     1120.00
02966            -120.00     1120.00
02967            -120.00     1080.00
02968            -120.00     1080.00
02969            -120.00     1040.00
02970             -80.00     1000.00
02971            -120.00      960.00
02972            -120.00      920.00
02973            -120.00      920.00
02974            -120.00      880.00
02975            -120.00      880.00
02976            -120.00      840.00
02977            -120.00      800.00
02978            -120.00      800.00
02979            -120.00      760.00
02980            -120.00      760.00
02981            -120.00      720.00
02982            -120.00      680.00
02983             -80.00      640.00
02984             -80.00      600.00
02985            -120.00      600.00
02986             -80.00      600.00
02987             -80.00      560.00
02988            -120.00      560.00
02989             -80.00      480.00
02990             -80.00      480.00
02991             -80.00      400.00
02992             -80.00      400.00
02993             -40.00      400.00
02994             -80.00      360.00
02995             -80.00      320.00
02996             -80.00      320.00
02997             -80.00      280.00
02998             -80.00      200.00
02999             -40.00      240.00
03000             -40.00      160.00
03001             -40.00      160.00
03002             -40.00      160.00
03003             -80.00      120.00
03004             -40.00       80.00
03005             -40.00       80.00
03006             -40.00        0.00
03007               0.00        0.00
03008             -40.00        0.00
03009               0.00      -40.00
03010               0.00      -80.00
03011               0.00      -80.00
03012               0.00     -160.00
03013              40.00     -160.00
03014              40.00     -160.00
03015               0.00     -200.00
03016              40.00     -240.00
03017              40.00     -240.00
03018              40.00     -320.00
03019              80.00     -360.00
03020             -40.00     -440.00
03021             -40.00     -440.00
03022              40.00     -400.00
03023              80.00     -480.00
03024               0.00     -480.00
03025              40.00     -480.00
03026              40.00     -480.00
03027              40.00     -560.00
03028              40.00     -600.00
03029              40.00     -600.00
03030              80.00     -640.00
03031              40.00     -680.00
03032              40.00     -720.00
03033              40.00     -720.00
03034              80.00     -760.00
03035              40.00     -800.00
03036              40.00     -800.00
03037              80.00     -840.00
03038              40.00     -880.00
03039              40.00     -880.00
03040              40.00     -920.00
03041              80.00     -960.00
03042              80.00    -1000.00
03043              80.00     -960.00
03044              40.00    -1040.00
03045              40.00    -1040.00
03046              80.00    -1080.00
03047              80.00    -1120.00
03048              80.00    -1120.00
03049              80.00    -1160.00
03050              80.00    -1200.00
03051              80.00    -1200.00
03052              80.00    -1240.00
03053              80.00    -1280.00
03054             120.00    -1280.00
03055              80.00    -1320.00
03056              80.00    -1360.00
03057              80.00    -1360.00
03058              80.00    -1400.00
03059              80.00    -1440.00
03060             120.00    -1440.00
03061             120.00    -1480.00
03062             120.00    -1480.00
03063             120.00    -1520.00
03064             120.00    -1560.00
03065             120.00    -1600.00
03066             120.00    -1600.00
03067             120.00    -1680.00
03068             160.00    -1640.00
03069             120.00    -1680.00
03070             120.00    -1720.00
03071             160.00    -1760.00
03072             160.00    -1760.00
03073             120.00    -1800.00
03074             160.00    -1840.00
03075             160.00    -1840.00
03076             160.00    -1840.00
03077             200.00    -1880.00
03078             200.00    -1920.00
03079             160.00    -1960.00
03080             200.00    -2000.00
03081             200.00    -2000.00
03082             240.00    -2040.00
03083             200.00    -2040.00
03084             200.00    -2080.00
03085             200.00    -2120.00
03086             200.00    -2120.00
03087             200.00    -2160.00
03088             200.00    -2160.00
03089             240.00    -2240.00
03090             200.00    -2200.00
03091             200.00    -2240.00
03092             200.00    -2280.00
03093             200.00    -2280.00
03094             200.00    -2320.00
03095             240.00    -2360.00
03096             240.00    -2400.00
03097             200.00    -2400.00
03098             240.00    -2440.00
03099             240.00    -2440.00
03100             240.00    -2480.00
03101             240.00    -2480.00
03102             200.00    -2480.00
03103             240.00    -2520.00
03104             240.00    -2560.00
03105             240.00    -2560.00
03106             200.00    -2600.00
03107             240.00    -2640.00
03108             240.00    -2640.00
03109             240.00    -2680.00
03110             240.00    -2720.00
03111             240.00    -2720.00
03112             240.00    -2760.00
03113             240.00    -2720.00
03114             240.00    -2800.00
03115             240.00    -2800.00
03116             280.00    -2880.00
03117             240.00    -2880.00
03118             240.00    -2880.00
03119             240.00    -2880.00
03120             240.00    -2920.00
03121             240.00    -2920.00
03122             280.00    -2960.00
03123             240.00    -2960.00
03124             240.00    -3000.00
03125             280.00    -3040.00
03126             240.00    -3040.00
03127             280.00    -3080.00
03128             280.00    -3080.00
03129             280.00    -3120.00
03130             280.00    -3120.00
03131             280.00    -3120.00
03132             280.00    -3160.00
03133             280.00    -3200.00
03134             320.00    -3200.00
03135             280.00    -3240.00
03136             320.00    -3240.00
03137             280.00    -3280.00
03138             360.00    -3280.00
03139             280.00    -3280.00
03140             280.00    -3320.00
03141             280.00    -3360.00
03142             360.00    -3360.00
03143             360.00    -3360.00
03144             360.00    -3400.00
03145             360.00    -3400.00
03146             360.00    -3440.00
03147             360.00    -3440.00
03148             280.00    -3440.00
03149             360.00    -3480.00
03150             360.00    -3480.00
03151             400.00    -3520.00
03152             360.00    -3520.00
03153             320.00    -3560.00
03154             360.00    -3560.00
03155             360.00    -3560.00
03156             360.00    -3600.00
03157             360.00    -3600.00
03158             360.00    -3600.00
03159             360.00    -3680.00
03160             360.00    -3680.00
03161             360.00    -3680.00
03162             400.00    -3680.00
03163             360.00    -3720.00
03164             360.00    -3760.00
03165             360.00    -3760.00
03166             360.00    -3760.00
03167             360.00    -3800.00
03168             360.00    -3800.00
03169             360.00    -3840.00
03170             360.00    -3840.00
03171             360.00    -3840.00
03172             360.00    -3880.00
03173             360.00    -3880.00
03174             360.00    -3880.00
03175             360.00    -3880.00
03176             400.00    -3920.00
03177             360.00    -3920.00
03178             400.00    -3920.00
03179             360.00    -3920.00
03180             400.00    -3960.00
03181             400.00    -4000.00
03182             400.00    -4000.00
03183             400.00    -4000.00
03184             400.00    -4000.00
03185             400.00    -4040.00
03186             400.00    -4040.00
03187             360.00    -4040.00
03188             400.00    -4080.00
03189             400.00    -4080.00
03190             360.00    -4080.00
03191             400.00    -4080.00
03192             400.00    -4120.00
03193             360.00    -4120.00
03194             400.00    -4160.00
03195             400.00    -4160.00
03196             400.00    -4160.00
03197             400.00    -4200.00
03198             400.00    -4200.00
03199             400.00    -4200.00
03200             400.00    -4200.00
03201             400.00    -4200.00
03202             400.00    -4240.00
03203             400.00    -4240.00
03204             400.00    -4240.00
03205             400.00    -4240.00
03206             400.00    -4240.00
03207             440.00    -4240.00
03208             440.00    -4240.00
03209             400.00    -4320.00
03210             440.00    -4280.00
03211             440.00    -4320.00
03212             400.00    -4320.00
03213             440.00    -4320.00
03214             440.00    -4320.00
03215             400.00    -4320.00
03216             440.00    -4320.00
03217             440.00    -4320.00
03218             440.00    -4360.00
03219             440.00    -4360.00
03220             400.00    -4360.00
03221             440.00    -4360.00
03222             400.00    -4400.00
03223             440.00    -4360.00
03224             440.00    -4400.00
03225             440.00    -4400.00
03226             440.00    -4400.00
03227             440.00    -4400.00
03228             440.00    -4400.00
03229             440.00    -4400.00
03230             440.00    -4400.00
03231             440.00    -4440.00
03232             440.00    -4440.00
03233             440.00    -4400.00
03234             400.00    -4440.00
03235             400.00    -4440.00
03236             400.00    -4440.00
03237             440.00    -4480.00
03238             400.00    -4480.00
03239             440.00    -4440.00
03240             440.00    -4480.00
03241             440.00    -4480.00
03242             440.00    -4440.00
03243             440.00    -4480.00
03244             440.00    -4480.00
03245             440.00    -4480.00
03246             440.00    -4480.00
03247             440.00    -4520.00
03248             440.00    -4480.00
03249             440.00    -4480.00
03250             440.00    -4480.00
03251             440.00    -4480.00
03252             440.00    -4520.00
03253             400.00    -4480.00
03254             400.00    -4480.00
03255             440.00    -4480.00
03256             440.00    -4480.00
03257             440.00    -4520.00
03258             440.00    -4520.00
03259             440.00    -4480.00
03260             440.00    -4480.00
03261             480.00    -4480.00
03262             440.00    -4520.00
03263             440.00    -4520.00
03264             440.00    -4480.00
03265             440.00    -4480.00
03266             520.00    -4480.00
03267             440.00    -4480.00
03268             440.00    -4480.00
03269             440.00    -4480.00
03270             440.00    -4480.00
03271             440.00    -4520.00
03272             440.00    -4480.00
03273             440.00    -4480.00
03274             480.00    -4480.00
03275             440.00    -4480.00
03276             440.00    -4480.00
03277             440.00    -4480.00
03278             520.00    -4480.00
03279             440.00    -4480.00
03280             440.00    -4480.00
03281             440.00    -4480.00
03282             480.00    -4440.00
03283             440.00    -4480.00
03284             440.00    -4440.00
03285             440.00    -4440.00
03286             440.00    -4400.00
03287             440.00    -4400.00
03288             440.00    -4440.00
03289             440.00    -4400.00
03290             440.00    -4400.00
03291             440.00    -4400.00
03292             480.00    -4400.00
03293             440.00    -4400.00
03294             440.00    -4400.00
03295             440.00    -4400.00
03296             440.00    -4400.00
03297             440.00    -4400.00
03298             440.00    -4360.00
03299             440.00    -4360.00
03300             400.00    -4360.00
03301             440.00    -4360.00
03302             440.00    -4320.00
03303             440.00    -4360.00
03304             440.00    -4320.00
03305             440.00    -4320.00
03306             440.00    -4320.00
03307             440.00    -4320.00
03308             400.00    -4280.00
03309             440.00    -4280.00
03310             400.00    -4320.00
03311             440.00    -4280.00
03312             440.00    -4240.00
03313             440.00    -4240.00
03314             440.00    -4240.00
03315             400.00    -4240.00
03316             400.00    -4240.00
03317             400.00    -4240.00
03318             400.00    -4200.00
03319             400.00    -4200.00
03320             400.00    -4200.00
03321             400.00    -4200.00
03322             440.00    -4200.00
03323             440.00    -4160.00
03324             400.00    -4200.00
03325             400.00    -4160.00
03326             400.00    -4120.00
03327             400.00    -4120.00
03328             440.00    -4080.00
03329             400.00    -4120.00
03330             400.00    -4040.00
03331             400.00    -4080.00
03332             400.00    -4040.00
03333             400.00    -4000.00
03334             400.00    -4000.00
03335             400.00    -4040.00
03336             400.00    -4000.00
03337             400.00    -4000.00
03338             440.00    -3960.00
03339             400.00    -3960.00
03340             400.00    -3960.00
03341             400.00    -3920.00
03342             400.00    -3920.00
03343             400.00    -3920.00
03344             400.00    -3880.00
03345             400.00    -3920.00
03346             400.00    -3880.00
03347             400.00    -3880.00
03348             400.00    -3840.00
03349             400.00    -3840.00
03350             400.00    -3840.00
03351             400.00    -3800.00
03352             400.00    -3800.00
03353             400.00    -3760.00
03354             400.00    -3760.00
03355             400.00    -3760.00
03356             400.00    -3720.00
03357             400.00    -3720.00
03358             400.00    -3680.00
03359             400.00    -3680.00
03360             400.00    -3680.00
03361             400.00    -3680.00
03362             400.00    -3640.00
03363             360.00    -3600.00
03364             400.00    -3600.00
03365             400.00    -3600.00
03366             360.00    -3600.00
03367             360.00    -3560.00
03368             360.00    -3520.00
03369             360.00    -3520.00
03370             360.00    -3480.00
03371             360.00    -3440.00
03372             360.00    -3440.00
03373             360.00    -3440.00
03374             360.00    -3400.00
03375             360.00    -3400.00
03376             360.00    -3400.00
03377             360.00    -3360.00
03378             360.00    -3360.00
03379             360.00    -3360.00
03380             360.00    -3320.00
03381             360.00    -3280.00
03382             360.00    -3240.00
03383             360.00    -3240.00
03384             360.00    -3240.00
03385             360.00    -3240.00
03386             320.00    -3200.00
03387             360.00    -3200.00
03388             360.00    -3160.00
03389             360.00    -3120.00
03390             320.00    -3120.00
03391             360.00    -3120.00
03392             360.00    -3080.00
03393             320.00    -3080.00
03394             360.00    -3040.00
03395             280.00    -3040.00
03396             360.00    -3000.00
03397             360.00    -2960.00
03398             360.00    -2960.00
03399             360.00    -2960.00
03400             320.00    -2920.00
03401             360.00    -2920.00
03402             320.00    -2880.00
03403             280.00    -2840.00
03404             360.00    -2880.00
03405             320.00    -2760.00
03406             320.00    -2800.00
03407             280.00    -2760.00
03408             320.00    -2760.00
03409             280.00    -2720.00
03410             320.00    -2720.00
03411             280.00    -2640.00
03412             280.00    -2640.00
03413             280.00    -2640.00
03414             280.00    -2600.00
03415             320.00    -2600.00
03416             280.00    -2560.00
03417             280.00    -2560.00
03418             280.00    -2480.00
03419             280.00    -2480.00
03420             280.00    -2480.00
03421             280.00    -2440.00
03422             280.00    -2440.00
03423             240.00    -2400.00
03424             280.00    -2400.00
03425             240.00    -2360.00
03426             240.00    -2320.00
03427             280.00    -2320.00
03428             240.00    -2280.00
03429             280.00    -2240.00
03430             240.00    -2240.00
03431             240.00    -2200.00
03432             240.00    -2200.00
03433             240.00    -2160.00
03434             240.00    -2120.00
03435             240.00    -2120.00
03436             240.00    -2120.00
03437             240.00    -2080.00
03438             200.00    -2040.00
03439             200.00    -2000.00
03440             240.00    -2000.00
03441             240.00    -1960.00
03442             200.00    -1960.00
03443             200.00    -1920.00
03444             200.00    -1880.00
03445             200.00    -1920.00
03446             200.00    -1840.00
03447             200.00    -1800.00
03448             200.00    -1800.00
03449             200.00    -1760.00
03450             200.00    -1760.00
03451             200.00    -1720.00
03452             200.00    -1720.00
03453             240.00    -1680.00
03454             200.00    -1640.00
03455             200.00    -1600.00
03456             200.00    -1600.00
03457             200.00    -1600.00
03458             200.00    -1560.00
03459             200.00    -1520.00
03460             200.00    -1480.00
03461             160.00    -1440.00
03462             200.00    -1440.00
03463             120.00    -1440.00
03464             200.00    -1360.00
03465             120.00    -1360.00
03466             160.00    -1320.00
03467             200.00    -1320.00
03468             200.00    -1280.00
03469             160.00    -1280.00
03470             120.00    -1240.00
03471             200.00    -1200.00
03472             160.00    -1160.00
03473             120.00    -1160.00
03474             120.00    -1120.00
03475             120.00    -1120.00
03476             120.00    -1080.00
03477             120.00    -1040.00
03478             160.00    -1000.00
03479             120.00    -1000.00
03480             120.00    -1000.00
03481             120.00     -920.00
03482             120.00     -920.00
03483             120.00     -880.00
03484             120.00     -840.00
03485             120.00     -840.00
03486              80.00     -800.00
03487             120.00     -800.00
03488              80.00     -800.00
03489             120.00     -720.00
03490              80.00     -680.00
03491              80.00     -640.00
03492              80.00     -640.00
03493              80.00     -640.00
03494              80.00     -600.00
03495              40.00     -560.00
03496              80.00     -520.00
03497              80.00     -480.00
03498              80.00     -480.00
03499              80.00     -480.00
03500              80.00     -440.00
03501              40.00     -400.00
03502              80.00     -400.00
03503              40.00     -320.00
03504              40.00     -320.00
03505              40.00     -280.00
03506              80.00     -240.00
03507              40.00     -240.00
03508              40.00     -200.00
03509              40.00     -200.00
03510              40.00     -160.00
03511              40.00     -120.00
03512              40.00      -80.00
03513              40.00      -80.00
03514              40.00      -40.00
03515              40.00        0.00
03516              40.00        0.00
03517              40.00       40.00
03518              40.00       40.00
03519              40.00       80.00
03520               0.00      120.00
03521              40.00      120.00
03522               0.00      160.00
03523               0.00      200.00
03524              40.00      240.00
03525              40.00      280.00
03526              40.00      360.00
03527              40.00      360.00
03528             -40.00      280.00
03529             -80.00      360.00
03530               0.00      440.00
03531              40.00      440.00
03532               0.00      440.00
03533             -40.00      480.00
03534             -40.00      520.00
03535             -40.00      520.00
03536             -40.00      560.00
03537               0.00      600.00
03538               0.00      640.00
03539             -40.00      640.00
03540             -40.00      640.00
03541             -40.00      720.00
03542             -40.00      760.00
03543             -40.00      760.00
03544             -40.00      800.00
03545             -40.00      800.00
03546             -80.00      800.00
03547             -80.00      880.00
03548             -40.00      920.00
03549             -40.00      920.00
03550             -80.00      960.00
03551             -80.00     1000.00
03552             -80.00     1000.00
03553             -80.00     1040.00
03554             -40.00     1080.00
03555             -80.00     1080.00
03556             -80.00     1120.00
03557             -80.00     1120.00
03558             -80.00     1160.00
03559             -80.00     1200.00
03560             -80.00     1240.00
03561            -120.00     1240.00
03562            -120.00     1280.00
03563            -120.00     1280.00
03564            -120.00     1360.00
03565            -120.00     1360.00
03566            -120.00     1400.00
03567            -120.00     1440.00
03568            -120.00     1440.00
03569            -120.00     1440.00
03570            -120.00     1480.00
03571            -120.00     1520.00
03572            -120.00     1560.00
03573            -120.00     1560.00
03574            -120.00     1640.00
03575            -120.00     1640.00
03576            -120.00     1680.00
03577            -120.00     1680.00
03578            -120.00     1680.00
03579            -120.00     1720.00
03580            -120.00     1760.00
03581            -120.00     1800.00
03582            -120.00     1840.00
03583            -120.00     1840.00
03584            -120.00     1840.00
03585            -160.00     1880.00
03586            -160.00     1920.00
03587            -120.00     1920.00
03588            -120.00     1960.00
03589            -200.00     2000.00
03590            -200.00     2000.00
03591            -200.00     2040.00
03592            -200.00     2040.00
03593            -200.00     2120.00
03594            -200.00     2120.00
03595            -200.00     2160.00
03596            -160.00     2160.00
03597            -160.00     2200.00
03598            -200.00     2200.00
03599            -160.00     2240.00
03600            -120.00     2240.00
03601            -200.00     2320.00
03602            -200.00     2320.00
03603            -200.00     2360.00
03604            -200.00     2360.00
03605            -200.00     2400.00
03606            -200.00     2400.00
03607            -160.00     2440.00
03608            -200.00     2480.00
03609            -240.00     2480.00
03610            -200.00     2520.00
03611            -200.00     2520.00
03612            -240.00     2520.00
03613            -240.00     2560.00
03614            -200.00     2600.00
03615            -240.00     2640.00
03616            -240.00     2640.00
03617            -240.00     2680.00
03618            -240.00     2680.00
03619            -200.00     2680.00
03620            -240.00     2720.00
03621            -200.00     2760.00
03622            -240.00     2760.00
03623            -240.00     2800.00
03624            -240.00     2840.00
03625            -240.00     2800.00
03626            -240.00     2880.00
03627            -240.00     2920.00
03628            -280.00     2880.00
03629            -240.00     2920.00
03630            -240.00     2960.00
03631            -280.00     2960.00
03632            -240.00     3000.00
03633            -280.00     3000.00
03634            -240.00     3040.00
03635            -280.00     3040.00
03636            -240.00     3120.00
03637            -280.00     3120.00
03638            -240.00     3120.00
03639            -280.00     3160.00
03640            -280.00     3160.00
03641            -280.00     3160.00
03642            -320.00     3200.00
03643            -280.00     3200.00
03644            -280.00     3240.00
03645            -280.00     3280.00
03646            -280.00     3280.00
03647            -280.00     3320.00
03648            -280.00     3320.00
03649            -280.00     3320.00
03650            -280.00     3320.00
03651            -320.00     3360.00
03652            -360.00     3360.00
03653            -360.00     3440.00
03654            -280.00     3440.00
03655            -320.00     3440.00
03656            -280.00     3480.00
03657            -280.00     3440.00
03658            -360.00     3480.00
03659            -280.00     3520.00
03660            -360.00     3520.00
03661            -360.00     3520.00
03662            -360.00     3560.00
03663            -360.00     3560.00
03664            -360.00     3600.00
03665            -360.00     3640.00
03666            -320.00     3680.00
03667            -360.00     3640.00
03668            -360.00     3680.00
03669            -360.00     3680.00
03670            -360.00     3680.00
03671            -360.00     3720.00
03672            -320.00     3760.00
03673            -360.00     3720.00
03674            -360.00     3760.00
03675            -360.00     3760.00
03676            -360.00     3760.00
03677            -320.00     3840.00
03678            -360.00     3840.00
03679            -360.00     3840.00
03680            -360.00     3840.00
03681            -360.00     3840.00
03682            -360.00     3880.00
03683            -360.00     3920.00
03684            -360.00     3920.00
03685            -400.00     3920.00
03686            -400.00     3920.00
03687            -400.00     3960.00
03688            -400.00     3960.00
03689            -400.00     3960.00
03690            -400.00     3960.00
03691            -400.00     4000.00
03692            -400.00     4000.00
03693            -400.00     4080.00
03694            -400.00     4000.00
03695            -400.00     4080.00
03696            -400.00     4080.00
03697            -400.00     4080.00
03698            -400.00     4080.00
03699            -400.00     4120.00
03700            -440.00     4120.00
03701            -400.00     4120.00
03702            -400.00     4160.00
03703            -400.00     4120.00
03704            -400.00     4160.00
03705            -400.00     4200.00
03706            -440.00     4160.00
03707            -440.00     4200.00
03708            -400.00     4200.00
03709            -440.00     4200.00
03710            -400.00     4240.00
03711            -400.00     4240.00
03712            -400.00     4240.00
03713            -400.00     4240.00
03714            -400.00     4280.00
03715            -440.00     4280.00
03716            -400.00     4320.00
03717            -400.00     4280.00
03718            -440.00     4280.00
03719            -440.00     4320.00
03720            -440.00     4280.00
03721            -440.00     4320.00
03722            -440.00     4320.00
03723            -440.00     4320.00
03724            -440.00     4320.00
03725            -400.00     4320.00
03726            -440.00     4360.00
03727            -400.00     4320.00
03728            -400.00     4400.00
03729            -440.00     4400.00
03730            -400.00     4360.00
03731            -440.00     4400.00
03732            -440.00     4400.00
03733            -440.00     4400.00
03734            -440.00     4400.00
03735            -400.00     4400.00
03736            -400.00     4400.00
03737            -440.00     4400.00
03738            -440.00     4400.00
03739            -440.00     4440.00
03740            -400.00     4440.00
03741            -440.00     4440.00
03742            -440.00     4440.00
03743            -440.00     4440.00
03744            -440.00     4440.00
03745            -440.00     4440.00
03746            -400.00     4480.00
03747            -440.00     4440.00
03748            -400.00     4480.00
03749            -440.00     4440.00
03750            -440.00     4480.00
03751            -400.00     4440.00
03752            -440.00     4480.00
03753            -440.00     4480.00
03754            -440.00     4480.00
03755            -440.00     4440.00
03756            -440.00     4480.00
03757            -440.00     4480.00
03758            -440.00     4440.00
03759            -440.00     4480.00
03760            -440.00     4480.00
03761            -440.00     4480.00
03762            -440.00     4480.00
03763            -440.00     4520.00
03764            -440.00     4480.00
03765            -440.00     4480.00
03766            -440.00     4480.00
03767            -440.00     4480.00
03768            -440.00     4480.00
03769            -440.00     4520.00
03770            -440.00     4480.00
03771            -440.00     4480.00
03772            -440.00     4480.00
03773            -440.00     4480.00
03774            -440.00     4480.00
03775            -440.00     4480.00
03776            -440.00     4480.00
03777            -440.00     4520.00
03778            -440.00     4480.00
03779            -440.00     4480.00
03780            -440.00     4480.00
03781            -440.00     4480.00
03782            -440.00     4480.00
03783            -440.00     4480.00
03784            -440.00     4480.00
03785            -440.00     4480.00
03786            -440.00     4440.00
03787            -440.00     4480.00
03788            -440.00     4440.00
03789            -440.00     4440.00
03790            -440.00     4440.00
03791            -400.00     4480.00
03792            -440.00     4440.00
03793            -440.00     4440.00
03794            -440.00     4440.00
03795            -440.00     4440.00
03796            -440.00     4440.00
03797            -440.00     4440.00
03798            -440.00     4400.00
03799            -440.00     4400.00
03800            -440.00     4400.00
03801            -400.00     4400.00
03802            -440.00     4400.00
03803            -400.00     4400.00
03804            -400.00     4400.00
03805            -440.00     4400.00
03806            -440.00     4400.00
03807            -440.00     4360.00
03808            -400.00     4360.00
03809            -440.00     4360.00
03810            -400.00     4360.00
03811            -440.00     4320.00
03812            -440.00     4320.00
03813            -400.00     4320.00
03814            -400.00     4320.00
03815            -440.00     4320.00
03816            -440.00     4320.00
03817            -440.00     4280.00
03818            -440.00     4280.00
03819            -440.00     4280.00
03820            -440.00     4280.00
03821            -440.00     4280.00
03822            -440.00     4240.00
03823            -440.00     4240.00
03824            -440.00     4240.00
03825            -440.00     4240.00
03826            -440.00     4240.00
03827            -440.00     4200.00
03828            -440.00     4200.00
03829            -440.00     4240.00
03830            -440.00     4200.00
03831            -440.00     4160.00
03832            -440.00     4120.00
03833            -440.00     4160.00
03834            -400.00     4120.00
03835            -400.00     4120.00
03836            -400.00     4120.00
03837            -440.00     4120.00
03838            -440.00     4120.00
03839            -440.00     4080.00
03840            -400.00     4080.00
03841            -400.00     4080.00
03842            -400.00     4040.00
03843            -440.00     4000.00
03844            -400.00     4040.00
03845            -400.00     4000.00
03846            -400.00     4000.00
03847            -440.00     4000.00
03848            -400.00     3960.00
03849            -400.00     3960.00
03850            -400.00     3960.00
03851            -400.00     3920.00
03852            -400.00     3920.00
03853            -400.00     3920.00
03854            -440.00     3840.00
03855            -400.00     3880.00
03856            -400.00     3840.00
03857            -400.00     3840.00
03858            -400.00     3840.00
03859            -400.00     3840.00
03860            -400.00     3800.00
03861            -400.00     3800.00
03862            -400.00     3760.00
03863            -400.00     3760.00
03864            -400.00     3760.00
03865            -400.00     3720.00
03866            -400.00     3720.00
03867            -360.00     3680.00
03868            -400.00     3680.00
03869            -400.00     3680.00
03870            -360.00     3640.00
03871            -400.00     3640.00
03872            -400.00     3640.00
03873            -360.00     3600.00
03874            -360.00     3600.00
03875            -400.00     3560.00
03876            -360.00     3520.00
03877            -360.00     3520.00
03878            -360.00     3480.00
03879            -360.00     3480.00
03880            -360.00     3480.00
03881            -360.00     3440.00
03882            -360.00     3440.00
03883            -360.00     3440.00
03884            -400.00     3440.00
03885            -360.00     3360.00
03886            -400.00     3360.00
03887            -360.00     3360.00
03888            -360.00     3320.00
03889            -400.00     3280.00
03890            -360.00     3280.00
03891            -360.00     3280.00
03892            -360.00     3280.00
03893            -360.00     3240.00
03894            -280.00     3200.00
03895            -360.00     3200.00
03896            -360.00     3160.00
03897            -320.00     3160.00
03898            -360.00     3160.00
03899            -360.00     3120.00
03900            -320.00     3120.00
03901            -360.00     3080.00
03902            -360.00     3040.00
03903            -360.00     3040.00
03904            -360.00     3000.00
03905            -360.00     3000.00
03906            -280.00     3000.00
03907            -280.00     2960.00
03908            -280.00     2960.00
03909            -320.00     2880.00
03910            -320.00     2880.00
03911            -280.00     2880.00
03912            -360.00     2840.00
03913            -280.00     2840.00
03914            -280.00     2800.00
03915            -280.00     2800.00
03916            -280.00     2800.00
03917            -280.00     2720.00
03918            -280.00     2720.00
03919            -280.00     2720.00
03920            -280.00     2640.00
03921            -240.00     2640.00
03922            -280.00     2640.00
03923            -280.00     2600.00
03924            -280.00     2600.00
03925            -240.00     2560.00
03926            -280.00     2520.00
03927            -280.00     2520.00
03928            -240.00     2480.00
03929            -240.00     2480.00
03930            -240.00     2480.00
03931            -240.00     2400.00
03932            -280.00     2400.00
03933            -240.00     2400.00
03934            -240.00     2360.00
03935            -240.00     2360.00
03936            -240.00     2320.00
03937            -240.00     2240.00
03938            -240.00     2240.00
03939            -240.00     2240.00
03940            -200.00     2200.00
03941            -240.00     2200.00
03942            -240.00     2160.00
03943            -240.00     2160.00
03944            -240.00     2160.00
03945            -240.00     2080.00
03946            -240.00     2080.00
03947            -200.00     2040.00
03948            -240.00     2000.00
03949            -240.00     2000.00
03950            -240.00     1960.00
03951            -200.00     1920.00
03952            -240.00     1920.00
03953            -200.00     1880.00
03954            -200.00     1880.00
03955            -240.00     1840.00
03956            -200.00     1840.00
03957            -200.00     1800.00
03958            -200.00     1760.00
03959            -200.00     1760.00
03960            -200.00     1680.00
03961            -240.00     1720.00
03962            -200.00     1680.00
03963            -200.00     1640.00
03964            -200.00     1600.00
03965            -200.00     1560.00
03966            -200.00     1560.00
03967            -120.00     1560.00
03968            -200.00     1520.00
03969            -160.00     1480.00
03970            -160.00     1440.00
03971            -200.00     1400.00
03972            -200.00     1400.00
03973            -120.00     1400.00
03974            -200.00     1360.00
03975            -120.00     1360.00
03976            -160.00     1280.00
03977            -120.00     1280.00
03978            -120.00     1240.00
03979            -120.00     1240.00
03980            -120.00     1200.00
03981            -120.00     1160.00
03982            -160.00     1160.00
03983            -120.00     1120.00
03984            -120.00     1120.00
03985            -120.00     1080.00
03986            -120.00     1040.00
03987             -80.00     1040.00
03988            -120.00     1000.00
03989            -120.00      960.00
03990            -120.00      920.00
03991            -120.00      880.00
03992            -120.00      880.00
03993             -80.00      880.00
03994            -120.00      800.00
03995             -80.00      800.00
03996            -120.00      760.00
03997             -80.00      760.00
03998             -80.00      720.00
03999             -80.00      680.00
04000             -80.00      680.00
04001             -80.00      640.00
04002             -80.00      600.00
04003             -80.00      600.00
04004             -80.00      560.00
04005             -80.00      560.00
04006             -40.00      480.00
04007             -80.00      440.00
04008             -80.00      440.00
04009             -80.00      440.00
04010             -40.00      400.00
04011             -80.00      360.00
04012             -40.00      320.00
04013             -80.00      320.00
04014             -40.00      280.00
04015             -80.00      240.00
04016             -40.00      240.00
04017             -80.00      160.00
04018             -80.00      160.00
04019             -40.00      120.00
04020             -40.00      120.00
04021             -40.00       80.00
04022             -40.00       80.00
04023             -40.00       40.00
04024             -40.00        0.00
04025             -40.00      -40.00
04026             -40.00      -40.00
04027             -40.00      -80.00
04028             -40.00      -80.00
04029             -40.00     -120.00
04030             -40.00     -160.00
04031             -40.00     -200.00
04032             -40.00     -200.00
04033             -40.00     -280.00
04034              40.00     -240.00
04035              40.00     -280.00
04036              40.00     -360.00
04037             -40.00     -400.00
04038             -80.00     -440.00
04039             -40.00     -360.00
04040              40.00     -480.00
04041              40.00     -480.00
04042               0.00     -480.00
04043              40.00     -520.00
04044              40.00     -560.00
04045               0.00     -600.00
04046              40.00     -600.00
04047              40.00     -640.00
04048              40.00     -640.00
04049              40.00     -680.00
04050              80.00     -720.00
04051              40.00     -720.00
04052              80.00     -800.00
04053              80.00     -800.00
04054              80.00     -840.00
04055              80.00     -840.00
04056              80.00     -880.00
04057              80.00     -880.00
04058              80.00     -960.00
04059              80.00     -960.00
04060              80.00     -960.00
04061              80.00    -1040.00
04062              80.00    -1040.00
04063              80.00    -1080.00
04064              80.00    -1120.00
04065              80.00    -1160.00
04066              80.00    -1160.00
04067             120.00    -1200.00
04068             120.00    -1200.00
04069              80.00    -1280.00
04070              80.00    -1280.00
04071             120.00    -1280.00
04072             120.00    -1320.00
04073              80.00    -1360.00
04074              80.00    -1360.00
04075              80.00    -1360.00
04076             120.00    -1440.00
04077             120.00    -1440.00
04078              80.00    -1480.00
04079              80.00    -1480.00
04080              80.00    -1520.00
04081             120.00    -1560.00
04082             120.00    -1600.00
04083             120.00    -1600.00
04084             120.00    -1680.00
04085             120.00    -1680.00
04086             120.00    -1680.00
04087             160.00    -1720.00
04088             120.00    -1720.00
04089             120.00    -1760.00
04090             120.00    -1800.00
04091             120.00    -1840.00
04092             160.00    -1840.00
04093             120.00    -1840.00
04094             160.00    -1920.00
04095             120.00    -1920.00
04096             160.00    -1960.00
04097             160.00    -1960.00
04098             160.00    -2000.00
04099             200.00    -2040.00
04100             200.00    -2040.00
04101             160.00    -2080.00
04102             200.00    -2120.00
04103             160.00    -2120.00
04104             200.00    -2160.00
04105             200.00    -2160.00
04106             200.00    -2160.00
04107             200.00    -2240.00
04108             200.00    -2240.00
04109             200.00    -2240.00
04110             240.00    -2320.00
04111             200.00    -2320.00
04112             200.00    -2360.00
04113             200.00    -2400.00
04114             200.00    -2400.00
04115             240.00    -2440.00
04116             200.00    -2440.00
04117             240.00    -2480.00
04118             240.00    -2480.00
04119             240.00    -2480.00
04120             240.00    -2560.00
04121             240.00    -2560.00
04122             240.00    -2600.00
04123             280.00    -2600.00
04124             240.00    -2640.00
04125             240.00    -2640.00
04126             240.00    -2680.00
04127             240.00    -2720.00
04128             240.00    -2720.00
04129             240.00    -2720.00
04130             280.00    -2760.00
04131             240.00    -2760.00
04132             240.00    -2840.00
04133             240.00    -2800.00
04134             280.00    -2840.00
04135             280.00    -2880.00
04136             280.00    -2880.00
04137             280.00    -2880.00
04138             280.00    -2960.00
04139             280.00    -2960.00
04140             280.00    -2960.00
04141             280.00    -3000.00
04142             280.00    -3040.00
04143             280.00    -3040.00
04144             280.00    -3080.00
04145             240.00    -3120.00
04146             280.00    -3080.00
04147             280.00    -3120.00
04148             280.00    -3120.00
04149             280.00    -3160.00
04150             280.00    -3200.00
04151             280.00    -3200.00
04152             280.00    -3240.00
04153             280.00    -3240.00
04154             360.00    -3280.00
04155             280.00    -3280.00
04156             320.00    -3280.00
04157             280.00    -3320.00
04158             320.00    -3360.00
04159             360.00    -3360.00
04160             280.00    -3360.00
04161             360.00    -3400.00
04162             360.00    -3440.00
04163             360.00    -3440.00
04164             360.00    -3440.00
04165             360.00    -3440.00
04166             360.00    -3480.00
04167             320.00    -3520.00
04168             360.00    -3520.00
04169             360.00    -3520.00
04170             360.00    -3560.00
04171             360.00    -3560.00
04172             360.00    -3560.00
04173             360.00    -3600.00
04174             360.00    -3600.00
04175             360.00    -3680.00
04176             360.00    -3640.00
04177             360.00    -3680.00
04178             360.00    -3680.00
04179             360.00    -3680.00
04180             360.00    -3720.00
04181             360.00    -3720.00
04182             360.00    -3760.00
04183             400.00    -3760.00
04184             360.00    -3760.00
04185             360.00    -3800.00
04186             360.00    -3840.00
04187             400.00    -3800.00
04188             400.00    -3840.00
04189             400.00    -3840.00
04190             400.00    -3840.00
04191             400.00    -3880.00
04192             400.00    -3880.00
04193             400.00    -3920.00
04194             360.00    -3920.00
04195             400.00    -3920.00
04196             400.00    -3920.00
04197             400.00    -3960.00
04198             400.00    -4000.00
04199             360.00    -4000.00
04200             400.00    -4000.00
04201             400.00    -4000.00
04202             400.00    -4040.00
04203             400.00    -4040.00
04204             400.00    -4040.00
04205             400.00    -4040.00
04206             400.00    -4080.00
04207             400.00    -4080.00
04208             400.00    -4080.00
04209             400.00    -4080.00
04210             400.00    -4160.00
04211             400.00    -4120.00
04212             400.00    -4160.00
04213             400.00    -4160.00
04214             400.00    -4160.00
04215             400.00    -4200.00
04216             400.00    -4200.00
04217             400.00    -4200.00
04218             400.00    -4200.00
04219             400.00    -4200.00
04220             400.00    -4240.00
04221             440.00    -4240.00
04222             400.00    -4240.00
04223             400.00    -4240.00
04224             400.00    -4240.00
04225             400.00    -4240.00
04226             400.00    -4280.00
04227             400.00    -4280.00
04228             400.00    -4320.00
04229             400.00    -4280.00
04230             440.00    -4320.00
04231             400.00    -4320.00
04232             400.00    -4320.00
04233             400.00    -4320.00
04234             400.00    -4360.00
04235             440.00    -4360.00
04236             440.00    -4320.00
04237             440.00    -4360.00
04238             440.00    -4400.00
04239             440.00    -4360.00
04240             400.00    -4400.00
04241             440.00    -4400.00
04242             400.00    -4400.00
04243             440.00    -4400.00
04244             440.00    -4400.00
04245             400.00    -4400.00
04246             440.00    -4400.00
04247             440.00    -4400.00
04248             440.00    -4400.00
04249             400.00    -4400.00
04250             440.00    -4400.00
04251             440.00    -4440.00
04252             440.00    -4400.00
04253             440.00    -4480.00
04254             440.00    -4440.00
04255             440.00    -4480.00
04256             440.00    -4440.00
04257             440.00    -4480.00
04258             440.00    -4480.00
04259             440.00    -4480.00
04260             440.00    -4480.00
04261             440.00    -4480.00
04262             440.00    -4480.00
04263             440.00    -4480.00
04264             440.00    -4480.00
04265             440.00    -4480.00
04266             440.00    -4520.00
04267             440.00    -4480.00
04268             440.00    -4480.00
04269             440.00    -4480.00
04270             440.00    -4480.00
04271             440.00    -4520.00
04272             440.00    -4480.00
04273             440.00    -4520.00
04274             440.00    -4480.00
04275             440.00    -4480.00
04276             440.00    -4480.00
04277             440.00    -4520.00
04278             440.00    -4480.00
04279             440.00    -4520.00
04280             440.00    -4480.00
04281             440.00    -4480.00
04282             440.00    -4520.00
04283             400.00    -4480.00
04284             440.00    -4480.00
04285             400.00    -4480.00
04286             400.00    -4480.00
04287             440.00    -4480.00
04288             440.00    -4480.00
04289             440.00    -4480.00
04290             440.00    -4480.00
04291             440.00    -4480.00
04292             440.00    -4480.00
04293             440.00    -4480.00
04294             440.00    -4480.00
04295             440.00    -4480.00
04296             480.00    -4480.00
04297             440.00    -4440.00
04298             440.00    -4480.00
04299             400.00    -4480.00
04300             440.00    -4440.00
04301             400.00    -4400.00
04302             440.00    -4440.00
04303             440.00    -4400.00
04304             440.00    -4400.00
04305             440.00    -4440.00
04306             440.00    -4400.00
04307             440.00    -4400.00
04308             440.00    -4400.00
04309             440.00    -4400.00
04310             440.00    -4400.00
04311             440.00    -4360.00
04312             440.00    -4400.00
04313             400.00    -4360.00
04314             480.00    -4360.00
04315             480.00    -4360.00
04316             440.00    -4360.00
04317             440.00    -4360.00
04318             440.00    -4360.00
04319             440.00    -4320.00
04320             440.00    -4360.00
04321             440.00    -4320.00
04322             440.00    -4320.00
04323             400.00    -4320.00
04324             440.00    -4320.00
04325             440.00    -4320.00
04326             440.00    -4320.00
04327             440.00    -4240.00
04328             440.00    -4280.00
04329             440.00    -4240.00
04330             440.00    -4240.00
04331             480.00    -4240.00
04332             440.00    -4240.00
04333             440.00    -4240.00
04334             440.00    -4240.00
04335             440.00    -4200.00
04336             440.00    -4200.00
04337             440.00    -4200.00
04338             400.00    -4200.00
04339             440.00    -4200.00
04340             400.00    -4160.00
04341             440.00    -4160.00
04342             440.00    -4160.00
04343             400.00    -4120.00
04344             400.00    -4160.00
04345             400.00    -4080.00
04346             400.00    -4080.00
04347             440.00    -4080.00
04348             400.00    -4080.00
04349             400.00    -4040.00
04350             440.00    -4040.00
04351             400.00    -4040.00
04352             400.00    -4040.00
04353             360.00    -4000.00
04354             400.00    -4000.00
04355             400.00    -3960.00
04356             400.00    -3960.00
04357             400.00    -3960.00
04358             400.00    -3920.00
04359             400.00    -3920.00
04360             400.00    -3880.00
04361             400.00    -3880.00
04362             400.00    -3880.00
04363             400.00    -3880.00
04364             400.00    -3840.00
04365             400.00    -3840.00
04366             400.00    -3840.00
04367             400.00    -3840.00
04368             400.00    -3800.00
04369             400.00    -3840.00
04370             400.00    -3760.00
04371             400.00    -3760.00
04372             400.00    -3760.00
04373             400.00    -3720.00
04374             400.00    -3720.00
04375             400.00    -3680.00
04376             360.00    -3680.00
04377             360.00    -3680.00
04378             400.00    -3680.00
04379             360.00    -3640.00
04380             400.00    -3600.00
04381             400.00    -3600.00
04382             400.00    -3560.00
04383             400.00    -3520.00
04384             400.00    -3560.00
04385             400.00    -3520.00
04386             400.00    -3480.00
04387             360.00    -3480.00
04388             360.00    -3480.00
04389             360.00    -3440.00
04390             360.00    -3440.00
04391             360.00    -3400.00
04392             360.00    -3440.00
04393             360.00    -3400.00
04394             360.00    -3400.00
04395             360.00    -3360.00
04396             400.00    -3320.00
04397             360.00    -3360.00
04398             360.00    -3280.00
04399             400.00    -3280.00
04400             360.00    -3280.00
04401             360.00    -3240.00
04402             360.00    -3200.00
04403             360.00    -3200.00
04404             400.00    -3160.00
04405             360.00    -3160.00
04406             360.00    -3160.00
04407             360.00    -3120.00
04408             320.00    -3080.00
04409             280.00    -3080.00
04410             360.00    -3080.00
04411             360.00    -3040.00
04412             360.00    -3040.00
04413             280.00    -3000.00
04414             360.00    -2960.00
04415             360.00    -2960.00
04416             280.00    -2920.00
04417             320.00    -2920.00
04418             280.00    -2920.00
04419             280.00    -2880.00
04420             280.00    -2880.00
04421             320.00    -2840.00
04422             320.00    -2800.00
04423             280.00    -2800.00
04424             280.00    -2760.00
04425             280.00    -2760.00
04426             280.00    -2720.00
04427             240.00    -2720.00
04428             320.00    -2680.00
04429             280.00    -2640.00
04430             280.00    -2640.00
04431             280.00    -2600.00
04432             280.00    -2600.00
04433             280.00    -2560.00
04434             240.00    -2560.00
04435             280.00    -2520.00
04436             280.00    -2520.00
04437             280.00    -2480.00
04438             280.00    -2440.00
04439             240.00    -2440.00
04440             280.00    -2400.00
04441             240.00    -2400.00
04442             240.00    -2360.00
04443             240.00    -2320.00
04444             280.00    -2280.00
04445             280.00    -2280.00
04446             280.00    -2280.00
04447             240.00    -2200.00
04448             240.00    -2200.00
04449             240.00    -2160.00
04450             240.00    -2160.00
04451             240.00    -2120.00
04452             240.00    -2120.00
04453             240.00    -2120.00
04454             240.00    -2080.00
04455             240.00    -2040.00
04456             240.00    -2000.00
04457             240.00    -2000.00
04458             240.00    -2000.00
04459             240.00    -1920.00
04460             240.00    -1920.00
04461             240.00    -1920.00
04462             240.00    -1880.00
04463             240.00    -1840.00
04464             200.00    -1840.00
04465             200.00    -1800.00
04466             200.00    -1760.00
04467             200.00    -1720.00
04468             200.00    -1720.00
04469             200.00    -1680.00
04470             200.00    -1680.00
04471             200.00    -1680.00
04472             200.00    -1600.00
04473             200.00    -1600.00
04474             200.00    -1600.00
04475             200.00    -1560.00
04476             200.00    -1520.00
04477             160.00    -1520.00
04478             200.00    -1480.00
04479             120.00    -1440.00
04480             160.00    -1440.00
04481             200.00    -1360.00
04482             160.00    -1360.00
04483             160.00    -1320.00
04484             120.00    -1320.00
04485             120.00    -1280.00
04486             120.00    -1280.00
04487             120.00    -1200.00
04488             120.00    -1200.00
04489             120.00    -1200.00
04490             120.00    -1160.00
04491             120.00    -1120.00
04492             120.00    -1120.00
04493             160.00    -1080.00
04494             120.00    -1040.00
04495             120.00    -1000.00
04496             120.00    -1000.00
04497             120.00     -960.00
04498             120.00     -920.00
04499             120.00     -920.00
04500             120.00     -880.00
04501             120.00     -880.00
04502             120.00     -800.00
04503              80.00     -800.00
04504             120.00     -800.00
04505              80.00     -760.00
04506             120.00     -720.00
04507              80.00     -680.00
04508             120.00     -680.00
04509              80.00     -640.00
04510              80.00     -640.00
04511             120.00     -600.00
04512              80.00     -560.00
04513              80.00     -560.00
04514              80.00     -520.00
04515              80.00     -480.00
04516              80.00     -440.00
04517              80.00     -400.00
04518              80.00     -400.00
04519              80.00     -360.00
04520              80.00     -400.00
04521              40.00     -320.00
04522              80.00     -320.00
04523              80.00     -240.00
04524              40.00     -240.00
04525              80.00     -200.00
04526              40.00     -200.00
04527              80.00     -160.00
04528              40.00     -120.00
04529              40.00      -80.00
04530              40.00      -80.00
04531              40.00      -40.00
04532              40.00        0.00
04533              40.00        0.00
04534              40.00       40.00
04535              40.00       80.00
04536              40.00       80.00
04537             -40.00      120.00
04538              40.00      160.00
04539               0.00      160.00
04540             -40.00      200.00
04541              40.00      240.00
04542              40.00      280.00
04543              40.00      360.00
04544              40.00      360.00
04545             -80.00      320.00
04546             -80.00      320.00
04547             -40.00      440.00
04548              40.00      440.00
04549              40.00      480.00
04550               0.00      480.00
04551             -40.00      520.00
04552             -40.00      560.00
04553             -80.00      560.00
04554             -40.00      600.00
04555               0.00      640.00
04556             -80.00      640.00
04557             -80.00      640.00
04558             -40.00      720.00
04559             -40.00      720.00
04560             -40.00      760.00
04561             -80.00      800.00
04562             -40.00      800.00
04563             -80.00      840.00
04564             -80.00      840.00
04565             -80.00      880.00
04566             -40.00      920.00
04567             -80.00      960.00
04568             -80.00     1000.00
04569             -80.00     1040.00
04570             -80.00     1040.00
04571             -80.00     1080.00
04572             -80.00     1120.00
04573             -80.00     1120.00
04574             -80.00     1120.00
04575            -120.00     1160.00
04576             -80.00     1200.00
04577             -80.00     1240.00
04578             -80.00     1280.00
04579             -80.00     1280.00
04580             -80.00     1360.00
04581            -120.00     1360.00
04582             -80.00     1360.00
04583            -120.00     1360.00
04584            -120.00     1440.00
04585            -120.00     1440.00
04586            -120.00     1440.00
04587             -80.00     1520.00
04588            -120.00     1560.00
04589            -120.00     1560.00
04590            -120.00     1600.00
04591            -120.00     1640.00
04592            -120.00     1600.00
04593            -120.00     1680.00
04594            -120.00     1680.00
04595            -120.00     1720.00
04596            -120.00     1760.00
04597            -120.00     1760.00
04598            -120.00     1760.00
04599            -120.00     1800.00
04600            -160.00     1840.00
04601            -120.00     1840.00
04602            -120.00     1880.00
04603            -200.00     1920.00
04604            -200.00     1920.00
04605            -120.00     1960.00
04606            -160.00     2000.00
04607            -160.00     2000.00
04608            -200.00     2040.00
04609            -200.00     2080.00
04610            -160.00     2080.00
04611            -200.00     2120.00
04612            -200.00     2160.00
04613            -200.00     2160.00
04614            -200.00     2200.00
04615            -200.00     2240.00
04616            -200.00     2240.00
04617            -200.00     2280.00
04618            -200.00     2280.00
04619            -240.00     2320.00
04620            -200.00     2320.00
04621            -200.00     2360.00
04622            -240.00     2400.00
04623            -240.00     2400.00
04624            -240.00     2400.00
04625            -200.00     2480.00
04626            -200.00     2480.00
04627            -240.00     2480.00
04628            -200.00     2520.00
04629            -240.00     2560.00
04630            -240.00     2560.00
04631            -240.00     2560.00
04632            -240.00     2640.00
04633            -240.00     2640.00
04634            -240.00     2640.00
04635            -240.00     2680.00
04636            -240.00     2720.00
04637            -240.00     2720.00
04638            -240.00     2720.00
04639            -240.00     2800.00
04640            -240.00     2800.00
04641            -240.00     2840.00
04642            -240.00     2800.00
04643            -240.00     2880.00
04644            -240.00     2920.00
04645            -240.00     2920.00
04646            -240.00     2960.00
04647            -240.00     2960.00
04648            -240.00     2960.00
04649            -240.00     3000.00
04650            -240.00     3000.00
04651            -240.00     3040.00
04652            -240.00     3040.00
04653            -280.00     3080.00
04654            -280.00     3120.00
04655            -280.00     3120.00
04656            -280.00     3120.00
04657            -280.00     3160.00
04658            -280.00     3160.00
04659            -280.00     3200.00
04660            -280.00     3200.00
04661            -280.00     3200.00
04662            -280.00     3240.00
04663            -280.00     3280.00
04664            -280.00     3280.00
04665            -320.00     3280.00
04666            -280.00     3320.00
04667            -360.00     3360.00
04668            -280.00     3360.00
04669            -280.00     3360.00
04670            -360.00     3360.00
04671            -360.00     3440.00
04672            -280.00     3440.00
04673            -360.00     3440.00
04674            -360.00     3480.00
04675            -360.00     3480.00
04676            -280.00     3520.00
04677            -360.00     3520.00
04678            -400.00     3560.00
04679            -320.00     3520.00
04680            -320.00     3600.00
04681            -360.00     3600.00
04682            -360.00     3600.00
04683            -360.00     3680.00
04684            -360.00     3640.00
04685            -360.00     3640.00
04686            -360.00     3680.00
04687            -360.00     3680.00
04688            -400.00     3720.00
04689            -360.00     3760.00
04690            -360.00     3760.00
04691            -360.00     3760.00
04692            -360.00     3760.00
04693            -400.00     3800.00
04694            -360.00     3800.00
04695            -360.00     3800.00
04696            -360.00     3840.00
04697            -360.00     3840.00
04698            -360.00     3840.00
04699            -360.00     3880.00
04700            -360.00     3920.00
04701            -360.00     3920.00
04702            -400.00     3920.00
04703            -360.00     3920.00
04704            -400.00     3960.00
04705            -360.00     3960.00
04706            -360.00     3960.00
04707            -360.00     4000.00
04708            -360.00     4000.00
04709            -360.00     4000.00
04710            -400.00     4000.00
04711            -400.00     4000.00
04712            -400.00     4040.00
04713            -360.00     4040.00
04714            -400.00     4080.00
04715            -360.00     4080.00
04716            -400.00     4120.00
04717            -400.00     4120.00
04718            -400.00     4120.00
04719            -400.00     4120.00
04720            -360.00     4120.00
04721            -400.00     4160.00
04722            -400.00     4200.00
04723            -400.00     4200.00
04724            -400.00     4200.00
04725            -400.00     4200.00
04726            -400.00     4240.00
04727            -400.00     4240.00
04728            -400.00     4240.00
04729            -400.00     4240.00
04730            -400.00     4240.00
04731            -400.00     4280.00
04732            -400.00     4240.00
04733            -400.00     4280.00
04734            -400.00     4280.00
04735            -440.00     4280.00
04736            -400.00     4320.00
04737            -440.00     4320.00
04738            -440.00     4320.00
04739            -440.00     4320.00
04740            -400.00     4320.00
04741            -440.00     4320.00
04742            -440.00     4320.00
04743            -440.00     4320.00
04744            -440.00     4400.00
04745            -440.00     4400.00
04746            -440.00     4360.00
04747            -400.00     4400.00
04748            -440.00     4400.00
04749            -440.00     4400.00
04750            -440.00     4400.00
04751            -440.00     4400.00
04752            -440.00     4400.00
04753            -400.00     4400.00
04754            -400.00     4440.00
04755            -440.00     4440.00
04756            -440.00     4400.00
04757            -440.00     4440.00
04758            -440.00     4480.00
04759            -400.00     4440.00
04760            -440.00     4440.00
04761            -440.00     4440.00
04762            -440.00     4440.00
04763            -440.00     4480.00
04764            -440.00     4480.00
04765            -440.00     4480.00
04766            -440.00     4440.00
04767            -440.00     4480.00
04768            -440.00     4480.00
04769            -440.00     4480.00
04770            -440.00     4480.00
04771            -440.00     4480.00
04772            -440.00     4480.00
04773            -400.00     4480.00
04774            -440.00     4480.00
04775            -440.00     4480.00
04776            -440.00     4480.00
04777            -440.00     4480.00
04778            -440.00     4480.00
04779            -400.00     4480.00
04780            -440.00     4520.00
04781            -400.00     4520.00
04782            -440.00     4480.00
04783            -440.00     4480.00
04784            -400.00     4520.00
04785            -440.00     4480.00
04786            -440.00     4520.00
04787            -440.00     4480.00
04788            -440.00     4480.00
04789            -440.00     4480.00
04790            -440.00     4480.00
04791            -440.00     4480.00
04792            -400.00     4480.00
04793            -440.00     4480.00
04794            -440.00     4480.00
04795            -440.00     4520.00
04796            -440.00     4480.00
04797            -440.00     4480.00
04798            -440.00     4480.00
04799            -440.00     4480.00
04800            -440.00     4480.00
04801            -440.00     4480.00
04802            -440.00     4440.00
04803            -440.00     4480.00
04804            -440.00     4480.00
04805            -440.00     4480.00
04806            -440.00     4480.00
04807            -440.00     4440.00
04808            -440.00     4440.00
04809            -440.00     4440.00
04810            -440.00     4440.00
04811            -440.00     4440.00
04812            -440.00     4440.00
04813            -480.00     4440.00
04814            -440.00     4440.00
04815            -440.00     4440.00
04816            -440.00     4400.00
04817            -440.00     4400.00
04818            -440.00     4400.00
04819            -440.00     4400.00
04820            -440.00     4400.00
04821            -440.00     4400.00
04822            -440.00     4400.00
04823            -440.00     4400.00
04824            -440.00     4400.00
04825            -440.00     4400.00
04826            -400.00     4400.00
04827            -440.00     4360.00
04828            -400.00     4320.00
04829            -440.00     4320.00
04830            -440.00     4320.00
04831            -440.00     4320.00
04832            -440.00     4320.00
04833            -440.00     4320.00
04834            -440.00     4320.00
04835            -400.00     4280.00
04836            -400.00     4280.00
04837            -440.00     4280.00
04838            -440.00     4240.00
04839            -440.00     4240.00
04840            -440.00     4280.00
04841            -400.00     4240.00
04842            -400.00     4240.00
04843            -400.00     4240.00
04844            -440.00     4200.00
04845            -400.00     4200.00
04846            -400.00     4240.00
04847            -440.00     4200.00
04848            -440.00     4200.00
04849            -440.00     4160.00
04850            -400.00     4160.00
04851            -400.00     4160.00
04852            -400.00     4120.00
04853            -400.00     4120.00
04854            -400.00     4120.00
04855            -400.00     4080.00
04856            -400.00     4080.00
04857            -400.00     4080.00
04858            -400.00     4080.00
04859            -400.00     4080.00
04860            -400.00     4080.00
04861            -400.00     4000.00
04862            -400.00     4000.00
04863            -440.00     4000.00
04864            -400.00     4000.00
04865            -400.00     3960.00
04866            -400.00     3960.00
04867            -400.00     3960.00
04868            -400.00     3920.00
04869            -400.00     3920.00
04870            -400.00     3920.00
04871            -400.00     3920.00
04872            -400.00     3840.00
04873            -400.00     3840.00
04874            -400.00     3840.00
04875            -400.00     3840.00
04876            -400.00     3800.00
04877            -360.00     3840.00
04878            -400.00     3760.00
04879            -400.00     3760.00
04880            -400.00     3760.00
04881            -400.00     3760.00
04882            -400.00     3720.00
04883            -400.00     3680.00
04884            -360.00     3680.00
04885            -400.00     3680.00
04886            -400.00     3680.00
04887            -400.00     3640.00
04888            -400.00     3640.00
04889            -400.00     3640.00
04890            -400.00     3600.00
04891            -360.00     3600.00
04892            -360.00     3560.00
04893            -360.00     3560.00
04894            -360.00     3520.00
04895            -360.00     3520.00
04896            -360.00     3520.00
04897            -400.00     3480.00
04898            -360.00     3480.00
04899            -360.00     3440.00
04900            -360.00     3440.00
04901            -360.00     3440.00
04902            -360.00     3400.00
04903            -320.00     3360.00
04904            -360.00     3360.00
04905            -360.00     3360.00
04906            -360.00     3320.00
04907            -360.00     3320.00
04908            -360.00     3280.00
04909            -360.00     3280.00
04910            -360.00     3280.00
04911            -360.00     3240.00
04912            -360.00     3200.00
04913            -320.00     3200.00
04914            -320.00     3160.00
04915            -280.00     3120.00
04916            -360.00     3160.00
04917            -280.00     3120.00
04918            -360.00     3040.00
04919            -280.00     3080.00
04920            -320.00     3000.00
04921            -280.00     3000.00
04922            -280.00     3000.00
04923            -320.00     2960.00
04924            -280.00     3000.00
04925            -280.00     2920.00
04926            -280.00     2920.00
04927            -280.00     2920.00
04928            -320.00     2840.00
04929            -280.00     2840.00
04930            -280.00     2800.00
04931            -360.00     2800.00
04932            -360.00     2800.00
04933            -280.00     2760.00
04934            -280.00     2760.00
04935            -280.00     2720.00
04936            -280.00     2720.00
04937            -280.00     2680.00
04938            -320.00     2640.00
04939            -280.00     2640.00
04940            -280.00     2600.00
04941            -280.00     2560.00
04942            -280.00     2560.00
04943            -280.00     2560.00
04944            -240.00     2520.00
04945            -280.00     2480.00
04946            -280.00     2480.00
04947            -280.00     2440.00
04948            -280.00     2440.00
04949            -280.00     2400.00
04950            -240.00     2360.00
04951            -280.00     2360.00
04952            -240.00     2320.00
04953            -280.00     2320.00
04954            -240.00     2320.00
04955            -240.00     2280.00
04956            -240.00     2240.00
04957            -240.00     2240.00
04958            -240.00     2200.00
04959            -240.00     2160.00
04960            -200.00     2120.00
04961            -240.00     2120.00
04962            -240.00     2080.00
04963            -240.00     2080.00
04964            -200.00     2040.00
04965            -240.00     2040.00
04966            -240.00     2000.00
04967            -200.00     2000.00
04968            -240.00     1920.00
04969            -240.00     1920.00
04970            -200.00     1920.00
04971            -240.00     1880.00
04972            -200.00     1840.00
04973            -200.00     1840.00
04974            -160.00     1800.00
04975            -200.00     1760.00
04976            -200.00     1760.00
04977            -200.00     1720.00
04978            -200.00     1720.00
04979            -120.00     1680.00
04980            -200.00     1640.00
04981            -120.00     1600.00
04982            -200.00     1600.00
04983            -160.00     1600.00
04984            -200.00     1520.00
04985            -160.00     1520.00
04986            -160.00     1480.00
04987            -160.00     1480.00
04988            -200.00     1440.00
04989            -160.00     1400.00
04990            -160.00     1400.00
04991            -160.00     1360.00
04992            -160.00     1360.00
04993            -200.00     1320.00
04994            -200.00     1280.00
04995            -120.00     1240.00
04996            -120.00     1240.00
04997            -120.00     1200.00
04998            -120.00     1160.00
04999            -160.00     1160.00
05000            -120.00     1120.00
