Unit:(mV)
                     CH1         CH2
Frequency              ?  98.316 kHz
00001             240.00    -1120.00
00002             240.00    -1120.00
00003             240.00    -1120.00
00004             240.00    -1160.00
00005             280.00    -1200.00
00006             280.00    -1200.00
00007             280.00    -1200.00
00008             320.00    -1240.00
00009             280.00    -1280.00
00010             280.00    -1280.00
00011             280.00    -1320.00
00012             280.00    -1360.00
00013             320.00    -1360.00
00014             320.00    -1400.00
00015             320.00    -1440.00
00016             360.00    -1440.00
00017             360.00    -1480.00
00018             360.00    -1520.00
00019             360.00    -1520.00
00020             360.00    -1520.00
00021             360.00    -1560.00
00022             360.00    -1600.00
00023             400.00    -1600.00
00024             360.00    -1640.00
00025             400.00    -1640.00
00026             400.00    -1680.00
00027             400.00    -1680.00
00028             400.00    -1760.00
00029             400.00    -1760.00
00030             400.00    -1760.00
00031             400.00    -1800.00
00032             440.00    -1800.00
00033             440.00    -1840.00
00034             440.00    -1840.00
00035             440.00    -1920.00
00036             440.00    -1920.00
00037             440.00    -1960.00
00038             440.00    -1960.00
00039             480.00    -2000.00
00040             440.00    -2000.00
00041             520.00    -2000.00
00042             520.00    -2000.00
00043             480.00    -2080.00
00044             480.00    -2080.00
00045             520.00    -2080.00
00046             520.00    -2120.00
00047             520.00    -2160.00
00048             520.00    -2160.00
00049             520.00    -2160.00
00050             520.00    -2240.00
00051             560.00    -2240.00
00052             560.00    -2280.00
00053             560.00    -2240.00
00054             560.00    -2320.00
00055             560.00    -2320.00
00056             560.00    -2320.00
00057             560.00    -2360.00
00058             600.00    -2400.00
00059             600.00    -2400.00
00060             600.00    -2400.00
00061             600.00    -2440.00
00062             600.00    -2440.00
00063             600.00    -2480.00
00064             640.00    -2480.00
00065             600.00    -2480.00
00066             640.00    -2520.00
00067             600.00    -2560.00
00068             600.00    -2560.00
00069             680.00    -2600.00
00070             680.00    -2560.00
00071             680.00    -2640.00
00072             680.00    -2640.00
00073             680.00    -2640.00
00074             680.00    -2680.00
00075             680.00    -2720.00
00076             680.00    -2720.00
00077             680.00    -2720.00
00078             680.00    -2760.00
00079             720.00    -2760.00
00080             680.00    -2800.00
00081             720.00    -2800.00
00082             720.00    -2840.00
00083             720.00    -2880.00
00084             720.00    -2840.00
00085             720.00    -2880.00
00086             720.00    -2880.00
00087             720.00    -2920.00
00088             720.00    -2920.00
00089             720.00    -2960.00
00090             720.00    -2960.00
00091             720.00    -2960.00
00092             720.00    -3040.00
00093             760.00    -3000.00
00094             720.00    -3040.00
00095             760.00    -3040.00
00096             720.00    -3040.00
00097             800.00    -3080.00
00098             760.00    -3080.00
00099             760.00    -3120.00
00100             840.00    -3120.00
00101             760.00    -3120.00
00102             800.00    -3200.00
00103             760.00    -3160.00
00104             760.00    -3200.00
00105             800.00    -3200.00
00106             800.00    -3200.00
00107             760.00    -3240.00
00108             840.00    -3280.00
00109             840.00    -3280.00
00110             840.00    -3280.00
00111             840.00    -3280.00
00112             840.00    -3280.00
00113             840.00    -3320.00
00114             840.00    -3320.00
00115             840.00    -3360.00
00116             840.00    -3360.00
00117             840.00    -3400.00
00118             840.00    -3360.00
00119             840.00    -3440.00
00120             840.00    -3400.00
00121             880.00    -3400.00
00122             880.00    -3440.00
00123             880.00    -3440.00
00124             880.00    -3480.00
00125             840.00    -3480.00
00126             880.00    -3480.00
00127             880.00    -3520.00
00128             920.00    -3520.00
00129             880.00    -3480.00
00130             880.00    -3520.00
00131             920.00    -3560.00
00132             920.00    -3560.00
00133             880.00    -3600.00
00134             920.00    -3600.00
00135             920.00    -3600.00
00136             880.00    -3600.00
00137             920.00    -3600.00
00138             920.00    -3640.00
00139             920.00    -3640.00
00140             920.00    -3680.00
00141             920.00    -3680.00
00142             920.00    -3680.00
00143             920.00    -3680.00
00144            1000.00    -3680.00
00145             960.00    -3680.00
00146             920.00    -3720.00
00147             920.00    -3720.00
00148             920.00    -3760.00
00149             920.00    -3760.00
00150             920.00    -3760.00
00151             920.00    -3760.00
00152            1000.00    -3760.00
00153             920.00    -3760.00
00154            1000.00    -3760.00
00155             960.00    -3760.00
00156            1000.00    -3800.00
00157            1000.00    -3800.00
00158             960.00    -3840.00
00159            1000.00    -3840.00
00160            1000.00    -3840.00
00161            1000.00    -3840.00
00162            1000.00    -3840.00
00163            1000.00    -3880.00
00164            1000.00    -3840.00
00165            1000.00    -3880.00
00166             960.00    -3880.00
00167            1000.00    -3880.00
00168            1000.00    -3920.00
00169            1000.00    -3880.00
00170            1000.00    -3880.00
00171            1040.00    -3920.00
00172            1000.00    -3920.00
00173            1000.00    -3920.00
00174            1040.00    -3880.00
00175            1040.00    -3920.00
00176            1000.00    -3920.00
00177            1040.00    -3920.00
00178            1040.00    -3960.00
00179            1040.00    -3920.00
00180            1040.00    -3960.00
00181            1040.00    -3920.00
00182            1040.00    -3920.00
00183            1040.00    -3960.00
00184            1040.00    -3960.00
00185            1040.00    -3960.00
00186            1040.00    -4000.00
00187            1040.00    -4000.00
00188            1040.00    -3960.00
00189            1040.00    -4000.00
00190            1040.00    -4000.00
00191            1040.00    -4000.00
00192            1040.00    -4000.00
00193            1040.00    -4000.00
00194            1040.00    -4000.00
00195            1040.00    -4000.00
00196            1040.00    -4000.00
00197            1080.00    -4000.00
00198            1040.00    -4000.00
00199            1040.00    -4000.00
00200            1040.00    -4000.00
00201            1040.00    -4040.00
00202            1080.00    -4000.00
00203            1040.00    -4040.00
00204            1040.00    -4000.00
00205            1080.00    -4000.00
00206            1040.00    -4000.00
00207            1080.00    -4040.00
00208            1040.00    -4040.00
00209            1080.00    -4000.00
00210            1040.00    -4000.00
00211            1040.00    -4000.00
00212            1040.00    -4000.00
00213            1080.00    -4000.00
00214            1040.00    -4000.00
00215            1040.00    -4040.00
00216            1040.00    -4000.00
00217            1040.00    -4040.00
00218            1040.00    -4040.00
00219            1040.00    -4000.00
00220            1040.00    -4000.00
00221            1040.00    -4000.00
00222            1040.00    -4000.00
00223            1040.00    -4000.00
00224            1040.00    -4000.00
00225            1040.00    -4000.00
00226            1040.00    -4000.00
00227            1000.00    -4000.00
00228            1080.00    -4000.00
00229            1040.00    -4000.00
00230            1040.00    -4000.00
00231            1040.00    -4000.00
00232            1040.00    -3960.00
00233            1040.00    -4000.00
00234            1040.00    -3960.00
00235            1040.00    -3960.00
00236            1040.00    -3920.00
00237            1040.00    -3920.00
00238            1040.00    -3920.00
00239            1040.00    -3920.00
00240            1040.00    -3920.00
00241            1040.00    -3960.00
00242            1040.00    -3920.00
00243            1040.00    -3920.00
00244            1040.00    -3920.00
00245            1040.00    -3920.00
00246            1040.00    -3920.00
00247            1040.00    -3920.00
00248            1040.00    -3880.00
00249            1040.00    -3920.00
00250            1040.00    -3880.00
00251            1040.00    -3880.00
00252            1040.00    -3920.00
00253            1040.00    -3880.00
00254            1040.00    -3840.00
00255            1040.00    -3840.00
00256            1040.00    -3840.00
00257            1040.00    -3840.00
00258            1040.00    -3840.00
00259            1040.00    -3840.00
00260            1040.00    -3840.00
00261            1040.00    -3800.00
00262            1040.00    -3800.00
00263            1000.00    -3800.00
00264            1040.00    -3760.00
00265            1040.00    -3760.00
00266            1000.00    -3760.00
00267            1000.00    -3760.00
00268            1040.00    -3760.00
00269            1040.00    -3760.00
00270            1000.00    -3720.00
00271            1000.00    -3720.00
00272            1000.00    -3720.00
00273            1040.00    -3720.00
00274            1000.00    -3720.00
00275            1000.00    -3680.00
00276            1000.00    -3680.00
00277             920.00    -3680.00
00278            1000.00    -3680.00
00279            1000.00    -3680.00
00280             920.00    -3600.00
00281            1000.00    -3600.00
00282             920.00    -3600.00
00283            1000.00    -3600.00
00284             920.00    -3560.00
00285             920.00    -3600.00
00286             920.00    -3600.00
00287             920.00    -3560.00
00288             920.00    -3560.00
00289             960.00    -3560.00
00290             920.00    -3480.00
00291             920.00    -3520.00
00292             920.00    -3520.00
00293             920.00    -3480.00
00294             920.00    -3480.00
00295             880.00    -3440.00
00296             920.00    -3440.00
00297             920.00    -3440.00
00298             880.00    -3440.00
00299             920.00    -3440.00
00300             920.00    -3400.00
00301             880.00    -3400.00
00302             880.00    -3360.00
00303             880.00    -3400.00
00304             880.00    -3360.00
00305             880.00    -3320.00
00306             880.00    -3280.00
00307             920.00    -3320.00
00308             880.00    -3280.00
00309             880.00    -3280.00
00310             880.00    -3280.00
00311             880.00    -3240.00
00312             840.00    -3240.00
00313             840.00    -3200.00
00314             880.00    -3200.00
00315             840.00    -3200.00
00316             840.00    -3200.00
00317             840.00    -3160.00
00318             880.00    -3200.00
00319             880.00    -3080.00
00320             840.00    -3120.00
00321             880.00    -3080.00
00322             840.00    -3080.00
00323             840.00    -3040.00
00324             840.00    -3040.00
00325             840.00    -3040.00
00326             840.00    -3040.00
00327             840.00    -3000.00
00328             840.00    -2960.00
00329             840.00    -3000.00
00330             840.00    -2920.00
00331             840.00    -2920.00
00332             800.00    -2920.00
00333             840.00    -2920.00
00334             760.00    -2880.00
00335             840.00    -2880.00
00336             800.00    -2880.00
00337             760.00    -2800.00
00338             760.00    -2800.00
00339             760.00    -2760.00
00340             760.00    -2760.00
00341             760.00    -2760.00
00342             720.00    -2720.00
00343             760.00    -2720.00
00344             760.00    -2720.00
00345             720.00    -2680.00
00346             720.00    -2640.00
00347             720.00    -2640.00
00348             720.00    -2600.00
00349             720.00    -2600.00
00350             720.00    -2600.00
00351             680.00    -2560.00
00352             720.00    -2560.00
00353             680.00    -2520.00
00354             680.00    -2520.00
00355             680.00    -2560.00
00356             680.00    -2480.00
00357             680.00    -2440.00
00358             680.00    -2440.00
00359             680.00    -2400.00
00360             680.00    -2400.00
00361             680.00    -2400.00
00362             640.00    -2360.00
00363             680.00    -2320.00
00364             640.00    -2320.00
00365             640.00    -2320.00
00366             640.00    -2280.00
00367             600.00    -2240.00
00368             600.00    -2240.00
00369             600.00    -2200.00
00370             600.00    -2200.00
00371             600.00    -2160.00
00372             600.00    -2160.00
00373             600.00    -2120.00
00374             600.00    -2120.00
00375             560.00    -2080.00
00376             600.00    -2080.00
00377             600.00    -2000.00
00378             560.00    -2040.00
00379             560.00    -2000.00
00380             520.00    -1960.00
00381             560.00    -1960.00
00382             560.00    -1960.00
00383             520.00    -1920.00
00384             560.00    -1920.00
00385             560.00    -1840.00
00386             520.00    -1840.00
00387             520.00    -1840.00
00388             520.00    -1800.00
00389             520.00    -1800.00
00390             520.00    -1760.00
00391             520.00    -1760.00
00392             520.00    -1720.00
00393             520.00    -1680.00
00394             520.00    -1680.00
00395             520.00    -1640.00
00396             520.00    -1640.00
00397             440.00    -1600.00
00398             520.00    -1600.00
00399             440.00    -1600.00
00400             440.00    -1520.00
00401             520.00    -1560.00
00402             400.00    -1520.00
00403             440.00    -1440.00
00404             400.00    -1440.00
00405             440.00    -1440.00
00406             400.00    -1400.00
00407             400.00    -1360.00
00408             400.00    -1360.00
00409             400.00    -1360.00
00410             400.00    -1320.00
00411             400.00    -1280.00
00412             360.00    -1280.00
00413             400.00    -1240.00
00414             400.00    -1240.00
00415             400.00    -1200.00
00416             360.00    -1200.00
00417             360.00    -1160.00
00418             360.00    -1160.00
00419             360.00    -1160.00
00420             360.00    -1120.00
00421             360.00    -1040.00
00422             360.00    -1040.00
00423             280.00    -1040.00
00424             360.00    -1000.00
00425             320.00    -1000.00
00426             280.00     -920.00
00427             280.00     -920.00
00428             280.00     -920.00
00429             240.00     -880.00
00430             280.00     -840.00
00431             280.00     -840.00
00432             240.00     -800.00
00433             240.00     -760.00
00434             240.00     -760.00
00435             240.00     -720.00
00436             280.00     -720.00
00437             240.00     -680.00
00438             240.00     -640.00
00439             200.00     -640.00
00440             240.00     -640.00
00441             200.00     -600.00
00442             200.00     -560.00
00443             200.00     -560.00
00444             200.00     -520.00
00445             200.00     -480.00
00446             200.00     -480.00
00447             160.00     -440.00
00448             200.00     -400.00
00449             120.00     -400.00
00450             120.00     -400.00
00451             160.00     -360.00
00452             120.00     -320.00
00453             120.00     -320.00
00454             120.00     -240.00
00455             120.00     -200.00
00456             120.00     -200.00
00457              80.00     -200.00
00458              80.00     -160.00
00459             120.00     -160.00
00460              80.00     -120.00
00461              80.00      -80.00
00462              80.00      -80.00
00463              80.00      -40.00
00464              40.00      -40.00
00465              80.00        0.00
00466              40.00        0.00
00467              40.00       80.00
00468              40.00       80.00
00469              40.00       80.00
00470              40.00       80.00
00471              40.00      160.00
00472              40.00      160.00
00473              40.00      200.00
00474               0.00      240.00
00475              40.00      280.00
00476               0.00      360.00
00477               0.00      360.00
00478             -80.00      280.00
00479            -120.00      360.00
00480             -80.00      400.00
00481             -40.00      400.00
00482             -80.00      440.00
00483             -80.00      440.00
00484             -80.00      480.00
00485            -120.00      480.00
00486            -120.00      520.00
00487             -80.00      560.00
00488             -80.00      600.00
00489             -80.00      600.00
00490            -120.00      600.00
00491            -120.00      640.00
00492            -120.00      680.00
00493            -120.00      680.00
00494            -120.00      720.00
00495            -120.00      760.00
00496            -120.00      760.00
00497            -200.00      800.00
00498            -200.00      800.00
00499            -120.00      840.00
00500            -200.00      880.00
00501            -200.00      880.00
00502            -200.00      920.00
00503            -200.00      920.00
00504            -200.00      960.00
00505            -200.00     1040.00
00506            -200.00     1000.00
00507            -200.00     1040.00
00508            -240.00     1080.00
00509            -200.00     1080.00
00510            -240.00     1120.00
00511            -240.00     1120.00
00512            -240.00     1200.00
00513            -240.00     1200.00
00514            -240.00     1200.00
00515            -240.00     1200.00
00516            -280.00     1280.00
00517            -240.00     1280.00
00518            -240.00     1280.00
00519            -280.00     1320.00
00520            -280.00     1360.00
00521            -280.00     1360.00
00522            -280.00     1400.00
00523            -280.00     1400.00
00524            -280.00     1440.00
00525            -320.00     1480.00
00526            -360.00     1520.00
00527            -360.00     1520.00
00528            -360.00     1560.00
00529            -360.00     1560.00
00530            -320.00     1600.00
00531            -360.00     1640.00
00532            -400.00     1600.00
00533            -360.00     1680.00
00534            -360.00     1720.00
00535            -400.00     1680.00
00536            -400.00     1720.00
00537            -400.00     1720.00
00538            -400.00     1760.00
00539            -400.00     1760.00
00540            -440.00     1840.00
00541            -440.00     1840.00
00542            -440.00     1880.00
00543            -440.00     1840.00
00544            -440.00     1880.00
00545            -440.00     1920.00
00546            -480.00     1920.00
00547            -440.00     2000.00
00548            -480.00     2000.00
00549            -440.00     2040.00
00550            -440.00     2040.00
00551            -480.00     2040.00
00552            -560.00     2080.00
00553            -480.00     2080.00
00554            -520.00     2080.00
00555            -520.00     2160.00
00556            -520.00     2160.00
00557            -520.00     2200.00
00558            -520.00     2200.00
00559            -560.00     2200.00
00560            -560.00     2240.00
00561            -560.00     2240.00
00562            -560.00     2320.00
00563            -560.00     2320.00
00564            -560.00     2320.00
00565            -560.00     2360.00
00566            -560.00     2400.00
00567            -600.00     2400.00
00568            -560.00     2400.00
00569            -560.00     2440.00
00570            -560.00     2440.00
00571            -560.00     2440.00
00572            -600.00     2480.00
00573            -600.00     2520.00
00574            -600.00     2520.00
00575            -640.00     2520.00
00576            -600.00     2560.00
00577            -600.00     2560.00
00578            -600.00     2600.00
00579            -680.00     2640.00
00580            -600.00     2640.00
00581            -640.00     2640.00
00582            -600.00     2720.00
00583            -680.00     2680.00
00584            -640.00     2720.00
00585            -680.00     2720.00
00586            -680.00     2760.00
00587            -680.00     2760.00
00588            -680.00     2800.00
00589            -680.00     2800.00
00590            -680.00     2840.00
00591            -680.00     2840.00
00592            -720.00     2880.00
00593            -720.00     2880.00
00594            -720.00     2920.00
00595            -720.00     2960.00
00596            -720.00     2960.00
00597            -720.00     2960.00
00598            -760.00     2960.00
00599            -720.00     2960.00
00600            -760.00     3000.00
00601            -760.00     3000.00
00602            -720.00     3040.00
00603            -760.00     3040.00
00604            -720.00     3080.00
00605            -760.00     3120.00
00606            -760.00     3120.00
00607            -760.00     3120.00
00608            -800.00     3120.00
00609            -760.00     3160.00
00610            -840.00     3160.00
00611            -760.00     3160.00
00612            -840.00     3200.00
00613            -760.00     3200.00
00614            -840.00     3200.00
00615            -760.00     3200.00
00616            -800.00     3280.00
00617            -840.00     3240.00
00618            -840.00     3280.00
00619            -840.00     3280.00
00620            -880.00     3280.00
00621            -880.00     3320.00
00622            -840.00     3320.00
00623            -840.00     3360.00
00624            -840.00     3360.00
00625            -840.00     3360.00
00626            -880.00     3360.00
00627            -840.00     3400.00
00628            -880.00     3440.00
00629            -880.00     3440.00
00630            -880.00     3440.00
00631            -880.00     3440.00
00632            -880.00     3480.00
00633            -880.00     3480.00
00634            -880.00     3480.00
00635            -880.00     3480.00
00636            -880.00     3520.00
00637            -880.00     3520.00
00638            -880.00     3520.00
00639            -880.00     3520.00
00640            -880.00     3520.00
00641            -880.00     3560.00
00642            -920.00     3600.00
00643            -920.00     3600.00
00644            -880.00     3600.00
00645            -880.00     3600.00
00646            -920.00     3640.00
00647            -880.00     3680.00
00648            -920.00     3640.00
00649            -920.00     3640.00
00650            -920.00     3680.00
00651            -920.00     3680.00
00652            -920.00     3680.00
00653            -920.00     3680.00
00654            -920.00     3720.00
00655            -920.00     3720.00
00656            -920.00     3760.00
00657            -920.00     3720.00
00658            -960.00     3760.00
00659            -920.00     3760.00
00660            -960.00     3760.00
00661            -920.00     3760.00
00662            -920.00     3800.00
00663            -920.00     3800.00
00664            -960.00     3840.00
00665            -920.00     3800.00
00666           -1000.00     3840.00
00667            -920.00     3800.00
00668            -960.00     3840.00
00669           -1000.00     3840.00
00670           -1000.00     3840.00
00671           -1000.00     3840.00
00672           -1000.00     3880.00
00673           -1000.00     3840.00
00674           -1000.00     3920.00
00675           -1000.00     3880.00
00676           -1040.00     3880.00
00677           -1040.00     3920.00
00678           -1000.00     3920.00
00679           -1040.00     3920.00
00680           -1000.00     3920.00
00681           -1040.00     3920.00
00682           -1040.00     3920.00
00683           -1000.00     3920.00
00684           -1040.00     3920.00
00685           -1040.00     3960.00
00686           -1040.00     3920.00
00687           -1040.00     3960.00
00688           -1000.00     3920.00
00689           -1040.00     3960.00
00690           -1040.00     3960.00
00691           -1040.00     3960.00
00692           -1040.00     3960.00
00693           -1040.00     3960.00
00694           -1000.00     4000.00
00695           -1000.00     4000.00
00696           -1040.00     4000.00
00697           -1040.00     4000.00
00698           -1040.00     3960.00
00699           -1040.00     4000.00
00700           -1040.00     4000.00
00701           -1040.00     3960.00
00702           -1000.00     4000.00
00703           -1040.00     4000.00
00704           -1000.00     4000.00
00705           -1040.00     4000.00
00706           -1000.00     4000.00
00707           -1040.00     4000.00
00708           -1040.00     4000.00
00709           -1040.00     4000.00
00710           -1040.00     4000.00
00711           -1040.00     4000.00
00712           -1040.00     4000.00
00713           -1040.00     4040.00
00714           -1000.00     4000.00
00715           -1040.00     4000.00
00716           -1040.00     4000.00
00717           -1040.00     4000.00
00718           -1040.00     4000.00
00719           -1080.00     4000.00
00720           -1000.00     4040.00
00721           -1040.00     4000.00
00722           -1040.00     4000.00
00723           -1040.00     4000.00
00724           -1040.00     4000.00
00725           -1040.00     4000.00
00726           -1080.00     4000.00
00727           -1040.00     4040.00
00728           -1040.00     4000.00
00729           -1000.00     4000.00
00730           -1040.00     4000.00
00731           -1040.00     4000.00
00732           -1040.00     4000.00
00733           -1040.00     3960.00
00734           -1040.00     3960.00
00735           -1040.00     4000.00
00736           -1040.00     4000.00
00737           -1040.00     3960.00
00738           -1040.00     4000.00
00739           -1040.00     3960.00
00740           -1040.00     3960.00
00741           -1080.00     3960.00
00742           -1040.00     3960.00
00743           -1040.00     4000.00
00744           -1040.00     3960.00
00745           -1040.00     3960.00
00746           -1040.00     3960.00
00747           -1040.00     3960.00
00748           -1040.00     3960.00
00749           -1040.00     3920.00
00750           -1040.00     3960.00
00751           -1040.00     3920.00
00752           -1000.00     3920.00
00753           -1040.00     3920.00
00754           -1040.00     3920.00
00755           -1000.00     3920.00
00756           -1040.00     3920.00
00757           -1040.00     3920.00
00758           -1040.00     3880.00
00759           -1040.00     3880.00
00760           -1040.00     3880.00
00761           -1040.00     3840.00
00762           -1040.00     3880.00
00763           -1000.00     3840.00
00764           -1040.00     3840.00
00765           -1000.00     3840.00
00766           -1000.00     3840.00
00767           -1000.00     3840.00
00768           -1040.00     3840.00
00769           -1000.00     3800.00
00770           -1040.00     3840.00
00771           -1000.00     3800.00
00772           -1000.00     3800.00
00773           -1000.00     3800.00
00774           -1000.00     3800.00
00775           -1000.00     3760.00
00776           -1000.00     3800.00
00777           -1000.00     3760.00
00778            -960.00     3760.00
00779            -920.00     3760.00
00780            -960.00     3720.00
00781           -1000.00     3720.00
00782            -960.00     3720.00
00783            -920.00     3680.00
00784            -920.00     3680.00
00785            -960.00     3680.00
00786            -920.00     3680.00
00787            -960.00     3680.00
00788            -960.00     3680.00
00789            -920.00     3640.00
00790           -1000.00     3640.00
00791            -920.00     3600.00
00792            -960.00     3600.00
00793            -920.00     3600.00
00794            -920.00     3600.00
00795            -920.00     3560.00
00796            -920.00     3520.00
00797            -920.00     3520.00
00798            -920.00     3520.00
00799            -920.00     3520.00
00800            -920.00     3520.00
00801            -920.00     3480.00
00802            -920.00     3480.00
00803            -920.00     3480.00
00804            -920.00     3440.00
00805            -920.00     3440.00
00806            -920.00     3440.00
00807            -920.00     3440.00
00808            -920.00     3440.00
00809            -920.00     3400.00
00810            -920.00     3360.00
00811            -880.00     3360.00
00812            -880.00     3360.00
00813            -920.00     3360.00
00814            -880.00     3360.00
00815            -880.00     3320.00
00816            -880.00     3280.00
00817            -880.00     3280.00
00818            -880.00     3280.00
00819            -880.00     3240.00
00820            -880.00     3280.00
00821            -880.00     3200.00
00822            -880.00     3200.00
00823            -880.00     3200.00
00824            -880.00     3160.00
00825            -880.00     3200.00
00826            -880.00     3160.00
00827            -840.00     3120.00
00828            -840.00     3120.00
00829            -840.00     3120.00
00830            -840.00     3120.00
00831            -880.00     3080.00
00832            -840.00     3080.00
00833            -840.00     3040.00
00834            -840.00     3040.00
00835            -840.00     3000.00
00836            -800.00     3000.00
00837            -840.00     3000.00
00838            -800.00     2960.00
00839            -800.00     2960.00
00840            -760.00     2960.00
00841            -760.00     2920.00
00842            -760.00     2960.00
00843            -760.00     2880.00
00844            -760.00     2920.00
00845            -760.00     2840.00
00846            -760.00     2840.00
00847            -720.00     2800.00
00848            -760.00     2800.00
00849            -760.00     2760.00
00850            -760.00     2720.00
00851            -720.00     2720.00
00852            -720.00     2720.00
00853            -720.00     2720.00
00854            -720.00     2680.00
00855            -720.00     2680.00
00856            -720.00     2640.00
00857            -720.00     2640.00
00858            -720.00     2600.00
00859            -720.00     2560.00
00860            -680.00     2560.00
00861            -680.00     2560.00
00862            -720.00     2520.00
00863            -720.00     2520.00
00864            -680.00     2480.00
00865            -680.00     2480.00
00866            -680.00     2480.00
00867            -680.00     2440.00
00868            -680.00     2400.00
00869            -680.00     2400.00
00870            -680.00     2360.00
00871            -680.00     2360.00
00872            -640.00     2360.00
00873            -680.00     2320.00
00874            -600.00     2320.00
00875            -640.00     2240.00
00876            -640.00     2240.00
00877            -600.00     2240.00
00878            -600.00     2200.00
00879            -600.00     2200.00
00880            -600.00     2160.00
00881            -600.00     2160.00
00882            -600.00     2160.00
00883            -600.00     2120.00
00884            -560.00     2080.00
00885            -600.00     2080.00
00886            -560.00     2040.00
00887            -560.00     2000.00
00888            -560.00     2000.00
00889            -560.00     2000.00
00890            -560.00     1960.00
00891            -560.00     1960.00
00892            -560.00     1920.00
00893            -560.00     1880.00
00894            -520.00     1880.00
00895            -520.00     1840.00
00896            -560.00     1840.00
00897            -520.00     1840.00
00898            -520.00     1760.00
00899            -520.00     1760.00
00900            -480.00     1760.00
00901            -520.00     1720.00
00902            -480.00     1680.00
00903            -520.00     1680.00
00904            -440.00     1680.00
00905            -480.00     1640.00
00906            -440.00     1600.00
00907            -440.00     1640.00
00908            -440.00     1600.00
00909            -440.00     1560.00
00910            -440.00     1520.00
00911            -400.00     1520.00
00912            -440.00     1480.00
00913            -440.00     1480.00
00914            -440.00     1400.00
00915            -400.00     1400.00
00916            -400.00     1360.00
00917            -400.00     1360.00
00918            -400.00     1360.00
00919            -400.00     1320.00
00920            -400.00     1280.00
00921            -400.00     1280.00
00922            -360.00     1240.00
00923            -400.00     1240.00
00924            -360.00     1200.00
00925            -360.00     1200.00
00926            -360.00     1160.00
00927            -360.00     1120.00
00928            -360.00     1120.00
00929            -360.00     1080.00
00930            -280.00     1080.00
00931            -320.00     1040.00
00932            -280.00     1040.00
00933            -280.00      960.00
00934            -280.00      960.00
00935            -280.00      920.00
00936            -280.00      920.00
00937            -280.00      880.00
00938            -240.00      880.00
00939            -280.00      880.00
00940            -280.00      800.00
00941            -280.00      800.00
00942            -240.00      760.00
00943            -240.00      760.00
00944            -240.00      720.00
00945            -240.00      720.00
00946            -240.00      720.00
00947            -240.00      640.00
00948            -200.00      600.00
00949            -240.00      600.00
00950            -200.00      560.00
00951            -200.00      560.00
00952            -200.00      560.00
00953            -200.00      560.00
00954            -160.00      480.00
00955            -120.00      480.00
00956            -160.00      440.00
00957            -120.00      400.00
00958            -120.00      400.00
00959            -120.00      400.00
00960            -120.00      360.00
00961            -120.00      320.00
00962            -120.00      280.00
00963            -120.00      280.00
00964            -120.00      240.00
00965            -120.00      200.00
00966            -120.00      160.00
00967             -80.00      160.00
00968             -80.00      160.00
00969             -80.00      120.00
00970             -80.00       80.00
00971             -40.00       80.00
00972             -40.00       40.00
00973             -40.00        0.00
00974             -40.00        0.00
00975             -40.00      -40.00
00976             -40.00      -40.00
00977             -40.00      -80.00
00978             -40.00      -80.00
00979             -40.00     -120.00
00980             -40.00     -160.00
00981              40.00     -160.00
00982               0.00     -160.00
00983              40.00     -200.00
00984              40.00     -240.00
00985              80.00     -240.00
00986              80.00     -320.00
00987              40.00     -400.00
00988               0.00     -400.00
00989              40.00     -360.00
00990              80.00     -400.00
00991              80.00     -440.00
00992              80.00     -440.00
00993              80.00     -480.00
00994              80.00     -480.00
00995              80.00     -560.00
00996              80.00     -520.00
00997             120.00     -560.00
00998              80.00     -560.00
00999              80.00     -600.00
01000              80.00     -640.00
01001             120.00     -680.00
01002             120.00     -720.00
01003             120.00     -720.00
01004             120.00     -720.00
01005             120.00     -800.00
01006             120.00     -800.00
01007             200.00     -800.00
01008             160.00     -840.00
01009             120.00     -880.00
01010             160.00     -920.00
01011             200.00     -920.00
01012             160.00     -960.00
01013             200.00    -1000.00
01014             200.00    -1000.00
01015             240.00    -1040.00
01016             200.00    -1040.00
01017             240.00    -1080.00
01018             240.00    -1120.00
01019             240.00    -1120.00
01020             240.00    -1120.00
01021             240.00    -1160.00
01022             240.00    -1200.00
01023             240.00    -1200.00
01024             280.00    -1240.00
01025             280.00    -1280.00
01026             280.00    -1280.00
01027             280.00    -1280.00
01028             280.00    -1360.00
01029             360.00    -1320.00
01030             280.00    -1400.00
01031             360.00    -1400.00
01032             320.00    -1440.00
01033             360.00    -1440.00
01034             360.00    -1480.00
01035             360.00    -1520.00
01036             400.00    -1480.00
01037             360.00    -1520.00
01038             400.00    -1560.00
01039             400.00    -1600.00
01040             400.00    -1640.00
01041             400.00    -1640.00
01042             400.00    -1680.00
01043             400.00    -1680.00
01044             400.00    -1680.00
01045             400.00    -1720.00
01046             400.00    -1760.00
01047             440.00    -1760.00
01048             400.00    -1760.00
01049             400.00    -1840.00
01050             440.00    -1840.00
01051             440.00    -1880.00
01052             440.00    -1880.00
01053             480.00    -1920.00
01054             440.00    -1920.00
01055             520.00    -1920.00
01056             440.00    -1960.00
01057             520.00    -2000.00
01058             520.00    -2000.00
01059             520.00    -2040.00
01060             440.00    -2040.00
01061             520.00    -2080.00
01062             520.00    -2120.00
01063             520.00    -2120.00
01064             520.00    -2120.00
01065             520.00    -2160.00
01066             520.00    -2160.00
01067             520.00    -2200.00
01068             520.00    -2200.00
01069             520.00    -2240.00
01070             520.00    -2280.00
01071             560.00    -2280.00
01072             560.00    -2280.00
01073             560.00    -2320.00
01074             560.00    -2320.00
01075             560.00    -2360.00
01076             600.00    -2400.00
01077             560.00    -2400.00
01078             560.00    -2400.00
01079             600.00    -2440.00
01080             560.00    -2480.00
01081             600.00    -2480.00
01082             600.00    -2520.00
01083             600.00    -2520.00
01084             600.00    -2560.00
01085             600.00    -2560.00
01086             600.00    -2560.00
01087             600.00    -2600.00
01088             680.00    -2640.00
01089             680.00    -2640.00
01090             680.00    -2640.00
01091             680.00    -2680.00
01092             680.00    -2720.00
01093             680.00    -2680.00
01094             680.00    -2720.00
01095             680.00    -2760.00
01096             680.00    -2760.00
01097             680.00    -2760.00
01098             720.00    -2800.00
01099             720.00    -2800.00
01100             720.00    -2880.00
01101             720.00    -2840.00
01102             720.00    -2880.00
01103             720.00    -2920.00
01104             720.00    -2880.00
01105             720.00    -2920.00
01106             720.00    -2960.00
01107             760.00    -2960.00
01108             720.00    -2960.00
01109             760.00    -2960.00
01110             720.00    -3040.00
01111             760.00    -3040.00
01112             760.00    -3040.00
01113             760.00    -3040.00
01114             840.00    -3080.00
01115             840.00    -3120.00
01116             760.00    -3120.00
01117             840.00    -3120.00
01118             840.00    -3160.00
01119             800.00    -3160.00
01120             760.00    -3160.00
01121             800.00    -3160.00
01122             840.00    -3200.00
01123             840.00    -3200.00
01124             840.00    -3240.00
01125             840.00    -3240.00
01126             840.00    -3280.00
01127             840.00    -3280.00
01128             840.00    -3280.00
01129             840.00    -3280.00
01130             840.00    -3280.00
01131             840.00    -3320.00
01132             840.00    -3360.00
01133             840.00    -3360.00
01134             840.00    -3360.00
01135             840.00    -3400.00
01136             840.00    -3400.00
01137             840.00    -3440.00
01138             880.00    -3400.00
01139             880.00    -3440.00
01140             840.00    -3440.00
01141             880.00    -3480.00
01142             840.00    -3440.00
01143             880.00    -3480.00
01144             880.00    -3520.00
01145             840.00    -3520.00
01146             920.00    -3520.00
01147             880.00    -3520.00
01148             880.00    -3560.00
01149             920.00    -3560.00
01150             880.00    -3600.00
01151             920.00    -3560.00
01152             880.00    -3600.00
01153             920.00    -3600.00
01154             880.00    -3640.00
01155             920.00    -3600.00
01156             920.00    -3640.00
01157             920.00    -3640.00
01158             920.00    -3680.00
01159             920.00    -3680.00
01160             920.00    -3680.00
01161             960.00    -3680.00
01162             920.00    -3720.00
01163             960.00    -3720.00
01164             920.00    -3720.00
01165             920.00    -3720.00
01166            1000.00    -3760.00
01167             960.00    -3760.00
01168             960.00    -3760.00
01169             920.00    -3720.00
01170            1000.00    -3800.00
01171             960.00    -3760.00
01172            1000.00    -3760.00
01173            1000.00    -3800.00
01174            1000.00    -3800.00
01175            1000.00    -3840.00
01176            1000.00    -3840.00
01177            1000.00    -3840.00
01178            1000.00    -3840.00
01179            1000.00    -3840.00
01180            1040.00    -3840.00
01181            1000.00    -3840.00
01182            1000.00    -3880.00
01183            1040.00    -3840.00
01184            1000.00    -3880.00
01185            1040.00    -3880.00
01186            1000.00    -3880.00
01187            1040.00    -3880.00
01188            1000.00    -3880.00
01189            1040.00    -3920.00
01190            1040.00    -3880.00
01191            1000.00    -3920.00
01192            1040.00    -3920.00
01193            1040.00    -3920.00
01194            1000.00    -3920.00
01195            1000.00    -3920.00
01196            1040.00    -3920.00
01197            1000.00    -3920.00
01198            1040.00    -3960.00
01199            1040.00    -3960.00
01200            1040.00    -3920.00
01201            1040.00    -3960.00
01202            1040.00    -4000.00
01203            1040.00    -4000.00
01204            1040.00    -4000.00
01205            1040.00    -4000.00
01206            1040.00    -4000.00
01207            1040.00    -4000.00
01208            1040.00    -4000.00
01209            1040.00    -4000.00
01210            1040.00    -4000.00
01211            1040.00    -4000.00
01212            1040.00    -4000.00
01213            1040.00    -4000.00
01214            1040.00    -4040.00
01215            1040.00    -4000.00
01216            1040.00    -4000.00
01217            1040.00    -4000.00
01218            1040.00    -4000.00
01219            1080.00    -4000.00
01220            1040.00    -4000.00
01221            1040.00    -4040.00
01222            1040.00    -4000.00
01223            1040.00    -4000.00
01224            1040.00    -4000.00
01225            1040.00    -4000.00
01226            1040.00    -4000.00
01227            1040.00    -4000.00
01228            1040.00    -4000.00
01229            1040.00    -4040.00
01230            1040.00    -4040.00
01231            1080.00    -4000.00
01232            1040.00    -4000.00
01233            1080.00    -4000.00
01234            1040.00    -4040.00
01235            1040.00    -4000.00
01236            1040.00    -4000.00
01237            1080.00    -4000.00
01238            1040.00    -4000.00
01239            1040.00    -4000.00
01240            1040.00    -4000.00
01241            1040.00    -4000.00
01242            1080.00    -4000.00
01243            1040.00    -4000.00
01244            1080.00    -4000.00
01245            1040.00    -4000.00
01246            1040.00    -4000.00
01247            1040.00    -4000.00
01248            1040.00    -4000.00
01249            1040.00    -4000.00
01250            1040.00    -3920.00
01251            1040.00    -3960.00
01252            1040.00    -3920.00
01253            1040.00    -3960.00
01254            1040.00    -3960.00
01255            1040.00    -3960.00
01256            1040.00    -3920.00
01257            1080.00    -3920.00
01258            1040.00    -3920.00
01259            1040.00    -3920.00
01260            1040.00    -3920.00
01261            1040.00    -3920.00
01262            1040.00    -3920.00
01263            1040.00    -3920.00
01264            1040.00    -3920.00
01265            1040.00    -3880.00
01266            1040.00    -3880.00
01267            1000.00    -3880.00
01268            1040.00    -3880.00
01269            1040.00    -3880.00
01270            1040.00    -3840.00
01271            1040.00    -3840.00
01272            1040.00    -3880.00
01273            1040.00    -3840.00
01274            1040.00    -3840.00
01275            1000.00    -3840.00
01276            1040.00    -3840.00
01277            1000.00    -3840.00
01278            1000.00    -3800.00
01279            1000.00    -3800.00
01280            1000.00    -3760.00
01281            1000.00    -3760.00
01282            1000.00    -3760.00
01283            1040.00    -3760.00
01284            1000.00    -3760.00
01285            1000.00    -3760.00
01286            1000.00    -3760.00
01287            1040.00    -3720.00
01288            1040.00    -3720.00
01289            1000.00    -3720.00
01290            1000.00    -3720.00
01291            1040.00    -3720.00
01292            1000.00    -3680.00
01293            1000.00    -3680.00
01294            1000.00    -3680.00
01295            1000.00    -3640.00
01296            1000.00    -3600.00
01297            1000.00    -3600.00
01298            1000.00    -3640.00
01299            1000.00    -3600.00
01300            1000.00    -3600.00
01301            1000.00    -3600.00
01302            1000.00    -3560.00
01303            1000.00    -3560.00
01304            1000.00    -3560.00
01305            1000.00    -3560.00
01306             960.00    -3560.00
01307             920.00    -3520.00
01308             960.00    -3480.00
01309             920.00    -3520.00
01310             960.00    -3480.00
01311             960.00    -3480.00
01312             920.00    -3480.00
01313             920.00    -3440.00
01314             960.00    -3440.00
01315             920.00    -3440.00
01316             920.00    -3400.00
01317             880.00    -3400.00
01318             920.00    -3400.00
01319             920.00    -3360.00
01320             920.00    -3360.00
01321             880.00    -3360.00
01322             920.00    -3320.00
01323             880.00    -3320.00
01324             880.00    -3280.00
01325             880.00    -3280.00
01326             880.00    -3280.00
01327             840.00    -3280.00
01328             880.00    -3240.00
01329             840.00    -3200.00
01330             840.00    -3240.00
01331             840.00    -3240.00
01332             840.00    -3200.00
01333             840.00    -3160.00
01334             840.00    -3120.00
01335             840.00    -3120.00
01336             840.00    -3120.00
01337             840.00    -3120.00
01338             840.00    -3080.00
01339             840.00    -3080.00
01340             840.00    -3080.00
01341             840.00    -3040.00
01342             840.00    -3040.00
01343             800.00    -3040.00
01344             800.00    -3000.00
01345             840.00    -2960.00
01346             800.00    -2960.00
01347             840.00    -2960.00
01348             800.00    -2920.00
01349             800.00    -2920.00
01350             840.00    -2920.00
01351             840.00    -2880.00
01352             800.00    -2880.00
01353             760.00    -2840.00
01354             760.00    -2840.00
01355             760.00    -2880.00
01356             760.00    -2760.00
01357             720.00    -2760.00
01358             760.00    -2760.00
01359             760.00    -2720.00
01360             760.00    -2720.00
01361             760.00    -2720.00
01362             720.00    -2720.00
01363             720.00    -2680.00
01364             720.00    -2640.00
01365             720.00    -2640.00
01366             720.00    -2600.00
01367             720.00    -2600.00
01368             720.00    -2560.00
01369             720.00    -2560.00
01370             720.00    -2560.00
01371             720.00    -2520.00
01372             720.00    -2520.00
01373             720.00    -2480.00
01374             680.00    -2480.00
01375             680.00    -2440.00
01376             720.00    -2440.00
01377             680.00    -2400.00
01378             680.00    -2400.00
01379             680.00    -2400.00
01380             640.00    -2320.00
01381             680.00    -2320.00
01382             680.00    -2280.00
01383             680.00    -2280.00
01384             640.00    -2240.00
01385             600.00    -2240.00
01386             640.00    -2200.00
01387             600.00    -2200.00
01388             600.00    -2160.00
01389             560.00    -2160.00
01390             600.00    -2160.00
01391             600.00    -2120.00
01392             560.00    -2080.00
01393             600.00    -2080.00
01394             560.00    -2080.00
01395             560.00    -2000.00
01396             560.00    -2000.00
01397             560.00    -2000.00
01398             560.00    -1960.00
01399             560.00    -1960.00
01400             520.00    -1920.00
01401             520.00    -1920.00
01402             520.00    -1840.00
01403             520.00    -1920.00
01404             520.00    -1840.00
01405             520.00    -1840.00
01406             520.00    -1800.00
01407             520.00    -1800.00
01408             520.00    -1760.00
01409             480.00    -1720.00
01410             520.00    -1720.00
01411             440.00    -1680.00
01412             440.00    -1680.00
01413             480.00    -1640.00
01414             440.00    -1600.00
01415             440.00    -1600.00
01416             440.00    -1600.00
01417             480.00    -1560.00
01418             440.00    -1520.00
01419             440.00    -1520.00
01420             440.00    -1480.00
01421             440.00    -1440.00
01422             440.00    -1440.00
01423             440.00    -1400.00
01424             400.00    -1360.00
01425             400.00    -1360.00
01426             400.00    -1320.00
01427             400.00    -1320.00
01428             400.00    -1280.00
01429             400.00    -1280.00
01430             400.00    -1280.00
01431             360.00    -1240.00
01432             360.00    -1200.00
01433             360.00    -1200.00
01434             360.00    -1160.00
01435             360.00    -1160.00
01436             360.00    -1120.00
01437             360.00    -1080.00
01438             360.00    -1080.00
01439             360.00    -1040.00
01440             360.00    -1000.00
01441             360.00    -1000.00
01442             320.00     -920.00
01443             280.00     -920.00
01444             280.00     -920.00
01445             280.00     -880.00
01446             280.00     -880.00
01447             280.00     -840.00
01448             280.00     -800.00
01449             240.00     -840.00
01450             280.00     -760.00
01451             240.00     -720.00
01452             280.00     -720.00
01453             240.00     -720.00
01454             240.00     -680.00
01455             200.00     -680.00
01456             200.00     -640.00
01457             240.00     -600.00
01458             200.00     -560.00
01459             200.00     -560.00
01460             200.00     -560.00
01461             160.00     -520.00
01462             160.00     -480.00
01463             200.00     -480.00
01464             200.00     -440.00
01465             120.00     -400.00
01466             160.00     -400.00
01467             120.00     -360.00
01468             120.00     -320.00
01469             120.00     -360.00
01470             120.00     -320.00
01471             120.00     -320.00
01472             120.00     -240.00
01473              80.00     -200.00
01474              80.00     -200.00
01475              80.00     -160.00
01476              80.00     -160.00
01477              80.00     -120.00
01478              80.00      -80.00
01479              80.00      -80.00
01480              80.00      -40.00
01481              80.00      -40.00
01482              80.00        0.00
01483              80.00        0.00
01484              40.00       40.00
01485              40.00       80.00
01486              40.00       80.00
01487              40.00      120.00
01488              40.00      120.00
01489              40.00      160.00
01490              40.00      160.00
01491               0.00      160.00
01492              40.00      240.00
01493              40.00      320.00
01494              40.00      320.00
01495             -40.00      280.00
01496             -80.00      320.00
01497             -80.00      400.00
01498             -40.00      400.00
01499             -40.00      440.00
01500             -40.00      480.00
01501             -40.00      480.00
01502             -80.00      440.00
01503            -120.00      480.00
01504             -80.00      560.00
01505             -40.00      600.00
01506             -80.00      600.00
01507            -120.00      640.00
01508            -120.00      640.00
01509            -120.00      640.00
01510            -120.00      680.00
01511            -120.00      760.00
01512            -120.00      760.00
01513            -120.00      760.00
01514            -120.00      800.00
01515            -120.00      840.00
01516            -120.00      880.00
01517            -120.00      880.00
01518            -200.00      880.00
01519            -200.00      920.00
01520            -200.00      920.00
01521            -200.00      960.00
01522            -240.00     1000.00
01523            -240.00     1000.00
01524            -240.00     1040.00
01525            -240.00     1080.00
01526            -240.00     1080.00
01527            -240.00     1120.00
01528            -240.00     1120.00
01529            -240.00     1120.00
01530            -240.00     1200.00
01531            -280.00     1200.00
01532            -280.00     1240.00
01533            -280.00     1240.00
01534            -280.00     1280.00
01535            -280.00     1280.00
01536            -280.00     1320.00
01537            -280.00     1360.00
01538            -320.00     1360.00
01539            -360.00     1400.00
01540            -320.00     1400.00
01541            -360.00     1440.00
01542            -360.00     1440.00
01543            -360.00     1480.00
01544            -320.00     1520.00
01545            -360.00     1560.00
01546            -360.00     1560.00
01547            -400.00     1640.00
01548            -360.00     1600.00
01549            -360.00     1640.00
01550            -360.00     1680.00
01551            -400.00     1680.00
01552            -360.00     1680.00
01553            -400.00     1720.00
01554            -440.00     1720.00
01555            -400.00     1760.00
01556            -400.00     1760.00
01557            -400.00     1840.00
01558            -440.00     1840.00
01559            -400.00     1840.00
01560            -440.00     1840.00
01561            -440.00     1920.00
01562            -440.00     1920.00
01563            -440.00     1920.00
01564            -440.00     2000.00
01565            -440.00     2000.00
01566            -440.00     2000.00
01567            -440.00     2040.00
01568            -480.00     2080.00
01569            -480.00     2040.00
01570            -480.00     2080.00
01571            -520.00     2080.00
01572            -520.00     2160.00
01573            -520.00     2160.00
01574            -560.00     2200.00
01575            -520.00     2200.00
01576            -560.00     2200.00
01577            -520.00     2240.00
01578            -560.00     2280.00
01579            -520.00     2320.00
01580            -560.00     2320.00
01581            -560.00     2360.00
01582            -560.00     2360.00
01583            -560.00     2360.00
01584            -560.00     2360.00
01585            -560.00     2400.00
01586            -600.00     2400.00
01587            -600.00     2440.00
01588            -600.00     2480.00
01589            -600.00     2480.00
01590            -600.00     2520.00
01591            -600.00     2520.00
01592            -600.00     2520.00
01593            -600.00     2560.00
01594            -640.00     2560.00
01595            -640.00     2560.00
01596            -680.00     2640.00
01597            -600.00     2680.00
01598            -680.00     2640.00
01599            -680.00     2720.00
01600            -680.00     2680.00
01601            -680.00     2720.00
01602            -680.00     2720.00
01603            -680.00     2720.00
01604            -680.00     2760.00
01605            -680.00     2800.00
01606            -680.00     2800.00
01607            -680.00     2800.00
01608            -720.00     2840.00
01609            -720.00     2840.00
01610            -720.00     2920.00
01611            -720.00     2920.00
01612            -720.00     2920.00
01613            -720.00     2920.00
01614            -720.00     2960.00
01615            -720.00     2960.00
01616            -720.00     2960.00
01617            -720.00     2960.00
01618            -760.00     3000.00
01619            -760.00     3040.00
01620            -760.00     3040.00
01621            -720.00     3040.00
01622            -760.00     3040.00
01623            -760.00     3120.00
01624            -760.00     3080.00
01625            -760.00     3120.00
01626            -760.00     3120.00
01627            -760.00     3160.00
01628            -760.00     3160.00
01629            -800.00     3160.00
01630            -760.00     3200.00
01631            -760.00     3200.00
01632            -800.00     3240.00
01633            -760.00     3280.00
01634            -840.00     3280.00
01635            -760.00     3280.00
01636            -840.00     3280.00
01637            -840.00     3320.00
01638            -760.00     3320.00
01639            -840.00     3320.00
01640            -840.00     3360.00
01641            -840.00     3360.00
01642            -840.00     3360.00
01643            -840.00     3360.00
01644            -840.00     3440.00
01645            -880.00     3440.00
01646            -880.00     3440.00
01647            -880.00     3440.00
01648            -880.00     3480.00
01649            -880.00     3480.00
01650            -880.00     3480.00
01651            -880.00     3480.00
01652            -880.00     3520.00
01653            -880.00     3520.00
01654            -880.00     3520.00
01655            -880.00     3520.00
01656            -880.00     3560.00
01657            -920.00     3600.00
01658            -880.00     3520.00
01659            -920.00     3600.00
01660            -920.00     3600.00
01661            -920.00     3600.00
01662            -920.00     3640.00
01663            -880.00     3640.00
01664            -880.00     3640.00
01665            -920.00     3680.00
01666            -920.00     3680.00
01667            -920.00     3680.00
01668            -920.00     3680.00
01669            -920.00     3680.00
01670            -920.00     3680.00
01671            -920.00     3680.00
01672            -920.00     3680.00
01673            -920.00     3760.00
01674           -1000.00     3760.00
01675            -960.00     3760.00
01676            -920.00     3760.00
01677            -920.00     3760.00
01678            -920.00     3760.00
01679            -920.00     3800.00
01680            -960.00     3800.00
01681            -920.00     3840.00
01682           -1000.00     3840.00
01683            -920.00     3800.00
01684            -920.00     3800.00
01685           -1000.00     3840.00
01686            -920.00     3800.00
01687           -1000.00     3840.00
01688            -960.00     3800.00
01689            -960.00     3840.00
01690            -920.00     3840.00
01691           -1000.00     3840.00
01692            -960.00     3880.00
01693            -920.00     3920.00
01694           -1000.00     3880.00
01695           -1000.00     3880.00
01696           -1000.00     3920.00
01697           -1000.00     3920.00
01698           -1000.00     3920.00
01699           -1000.00     3920.00
01700           -1000.00     3960.00
01701           -1000.00     3960.00
01702           -1000.00     3920.00
01703           -1000.00     3920.00
01704           -1000.00     3960.00
01705           -1000.00     3960.00
01706           -1000.00     3960.00
01707           -1000.00     3960.00
01708           -1040.00     3960.00
01709           -1040.00     3960.00
01710           -1000.00     3960.00
01711           -1040.00     3960.00
01712           -1000.00     3960.00
01713           -1040.00     3960.00
01714           -1040.00     4000.00
01715           -1040.00     3960.00
01716           -1040.00     3960.00
01717           -1040.00     4000.00
01718           -1040.00     4000.00
01719           -1040.00     4000.00
01720           -1040.00     4000.00
01721           -1040.00     4000.00
01722           -1080.00     4000.00
01723           -1040.00     4000.00
01724           -1040.00     4040.00
01725           -1040.00     4000.00
01726           -1080.00     4000.00
01727           -1040.00     4000.00
01728           -1040.00     4000.00
01729           -1040.00     4040.00
01730           -1040.00     4000.00
01731           -1040.00     4000.00
01732           -1040.00     4000.00
01733           -1040.00     4000.00
01734           -1040.00     4000.00
01735           -1080.00     4040.00
01736           -1040.00     4000.00
01737           -1080.00     4000.00
01738           -1080.00     4000.00
01739           -1040.00     4040.00
01740           -1040.00     4000.00
01741           -1040.00     4000.00
01742           -1040.00     4000.00
01743           -1040.00     4000.00
01744           -1000.00     4000.00
01745           -1080.00     4000.00
01746           -1040.00     4000.00
01747           -1040.00     4000.00
01748           -1040.00     4000.00
01749           -1080.00     4000.00
01750           -1040.00     4000.00
01751           -1040.00     4000.00
01752           -1040.00     4000.00
01753           -1040.00     3960.00
01754           -1040.00     4000.00
01755           -1040.00     3960.00
01756           -1040.00     3960.00
01757           -1040.00     4000.00
01758           -1040.00     3960.00
01759           -1040.00     3960.00
01760           -1040.00     4000.00
01761           -1040.00     3960.00
01762           -1040.00     3960.00
01763           -1040.00     4000.00
01764           -1040.00     3920.00
01765           -1040.00     3960.00
01766           -1040.00     3960.00
01767           -1000.00     3960.00
01768           -1040.00     3920.00
01769           -1040.00     3920.00
01770           -1000.00     3920.00
01771           -1040.00     3920.00
01772           -1040.00     3920.00
01773           -1000.00     3920.00
01774           -1000.00     3920.00
01775           -1000.00     3920.00
01776           -1000.00     3920.00
01777           -1000.00     3880.00
01778           -1040.00     3880.00
01779           -1000.00     3880.00
01780           -1000.00     3880.00
01781           -1000.00     3840.00
01782           -1040.00     3840.00
01783           -1000.00     3840.00
01784           -1000.00     3840.00
01785           -1040.00     3840.00
01786           -1040.00     3800.00
01787           -1000.00     3840.00
01788           -1000.00     3800.00
01789           -1000.00     3800.00
01790           -1000.00     3760.00
01791           -1000.00     3760.00
01792           -1000.00     3760.00
01793           -1040.00     3760.00
01794           -1000.00     3760.00
01795           -1000.00     3760.00
01796           -1000.00     3720.00
01797           -1000.00     3760.00
01798           -1000.00     3720.00
01799           -1000.00     3680.00
01800           -1000.00     3680.00
01801           -1000.00     3680.00
01802           -1000.00     3680.00
01803            -960.00     3680.00
01804           -1000.00     3680.00
01805            -960.00     3640.00
01806            -920.00     3640.00
01807            -960.00     3640.00
01808            -960.00     3640.00
01809            -960.00     3600.00
01810            -960.00     3600.00
01811            -920.00     3600.00
01812            -960.00     3600.00
01813            -920.00     3560.00
01814            -960.00     3560.00
01815            -920.00     3520.00
01816            -920.00     3520.00
01817            -920.00     3520.00
01818            -880.00     3480.00
01819            -920.00     3480.00
01820            -920.00     3480.00
01821            -920.00     3440.00
01822            -920.00     3440.00
01823            -880.00     3440.00
01824            -880.00     3440.00
01825            -880.00     3440.00
01826            -880.00     3440.00
01827            -880.00     3360.00
01828            -880.00     3360.00
01829            -880.00     3360.00
01830            -880.00     3320.00
01831            -880.00     3320.00
01832            -880.00     3320.00
01833            -880.00     3320.00
01834            -880.00     3320.00
01835            -880.00     3280.00
01836            -880.00     3280.00
01837            -840.00     3240.00
01838            -880.00     3240.00
01839            -840.00     3200.00
01840            -880.00     3200.00
01841            -840.00     3200.00
01842            -880.00     3160.00
01843            -840.00     3160.00
01844            -840.00     3160.00
01845            -840.00     3120.00
01846            -880.00     3120.00
01847            -840.00     3120.00
01848            -840.00     3040.00
01849            -840.00     3080.00
01850            -800.00     3040.00
01851            -840.00     3000.00
01852            -840.00     3000.00
01853            -840.00     2960.00
01854            -840.00     3000.00
01855            -840.00     2960.00
01856            -760.00     2960.00
01857            -800.00     2960.00
01858            -840.00     2920.00
01859            -760.00     2880.00
01860            -800.00     2880.00
01861            -760.00     2840.00
01862            -760.00     2840.00
01863            -760.00     2800.00
01864            -760.00     2840.00
01865            -760.00     2800.00
01866            -760.00     2760.00
01867            -760.00     2760.00
01868            -760.00     2720.00
01869            -760.00     2720.00
01870            -760.00     2720.00
01871            -720.00     2680.00
01872            -720.00     2680.00
01873            -720.00     2640.00
01874            -720.00     2640.00
01875            -720.00     2600.00
01876            -720.00     2560.00
01877            -680.00     2560.00
01878            -720.00     2560.00
01879            -680.00     2520.00
01880            -720.00     2520.00
01881            -720.00     2520.00
01882            -720.00     2480.00
01883            -680.00     2440.00
01884            -680.00     2440.00
01885            -680.00     2400.00
01886            -600.00     2400.00
01887            -640.00     2400.00
01888            -600.00     2360.00
01889            -600.00     2360.00
01890            -680.00     2320.00
01891            -600.00     2280.00
01892            -640.00     2240.00
01893            -600.00     2240.00
01894            -600.00     2240.00
01895            -640.00     2240.00
01896            -600.00     2200.00
01897            -600.00     2160.00
01898            -560.00     2160.00
01899            -600.00     2160.00
01900            -560.00     2120.00
01901            -600.00     2080.00
01902            -560.00     2080.00
01903            -560.00     2040.00
01904            -560.00     2040.00
01905            -560.00     2000.00
01906            -560.00     2000.00
01907            -560.00     1920.00
01908            -560.00     1920.00
01909            -560.00     1920.00
01910            -560.00     1880.00
01911            -560.00     1880.00
01912            -560.00     1840.00
01913            -520.00     1840.00
01914            -520.00     1840.00
01915            -520.00     1800.00
01916            -520.00     1760.00
01917            -520.00     1760.00
01918            -520.00     1720.00
01919            -520.00     1720.00
01920            -480.00     1680.00
01921            -520.00     1640.00
01922            -520.00     1640.00
01923            -440.00     1640.00
01924            -440.00     1600.00
01925            -440.00     1560.00
01926            -440.00     1560.00
01927            -440.00     1520.00
01928            -440.00     1520.00
01929            -440.00     1440.00
01930            -440.00     1440.00
01931            -440.00     1440.00
01932            -440.00     1400.00
01933            -440.00     1400.00
01934            -400.00     1360.00
01935            -400.00     1360.00
01936            -400.00     1320.00
01937            -400.00     1280.00
01938            -400.00     1280.00
01939            -360.00     1240.00
01940            -400.00     1240.00
01941            -360.00     1200.00
01942            -360.00     1200.00
01943            -360.00     1160.00
01944            -360.00     1120.00
01945            -360.00     1080.00
01946            -320.00     1120.00
01947            -360.00     1080.00
01948            -280.00     1040.00
01949            -280.00     1000.00
01950            -320.00      960.00
01951            -280.00      960.00
01952            -280.00      920.00
01953            -280.00      920.00
01954            -280.00      880.00
01955            -280.00      880.00
01956            -240.00      880.00
01957            -280.00      800.00
01958            -240.00      800.00
01959            -240.00      760.00
01960            -240.00      760.00
01961            -240.00      720.00
01962            -240.00      720.00
01963            -200.00      680.00
01964            -240.00      640.00
01965            -200.00      640.00
01966            -200.00      600.00
01967            -200.00      560.00
01968            -200.00      560.00
01969            -160.00      560.00
01970            -200.00      480.00
01971            -200.00      480.00
01972            -160.00      480.00
01973            -120.00      440.00
01974            -160.00      400.00
01975            -160.00      400.00
01976            -120.00      360.00
01977            -120.00      320.00
01978            -120.00      320.00
01979            -120.00      320.00
01980            -120.00      280.00
01981            -120.00      240.00
01982            -120.00      240.00
01983            -120.00      160.00
01984            -120.00      160.00
01985            -120.00      160.00
01986            -120.00       80.00
01987             -80.00       80.00
01988             -80.00       80.00
01989             -80.00       40.00
01990             -80.00        0.00
01991             -80.00        0.00
01992             -40.00      -40.00
01993             -80.00      -80.00
01994             -40.00      -80.00
01995             -40.00     -120.00
01996             -40.00     -120.00
01997             -40.00     -160.00
01998               0.00     -160.00
01999              40.00     -200.00
02000             -40.00     -200.00
02001              40.00     -240.00
02002              80.00     -240.00
02003              80.00     -320.00
02004              40.00     -360.00
02005             -40.00     -400.00
02006              40.00     -360.00
02007              80.00     -400.00
02008              40.00     -440.00
02009              40.00     -440.00
02010              80.00     -480.00
02011              80.00     -480.00
02012              80.00     -560.00
02013              80.00     -520.00
02014             120.00     -560.00
02015             120.00     -600.00
02016              80.00     -640.00
02017             120.00     -640.00
02018             160.00     -680.00
02019             120.00     -720.00
02020             120.00     -720.00
02021             160.00     -720.00
02022             200.00     -760.00
02023             160.00     -800.00
02024             200.00     -800.00
02025             200.00     -880.00
02026             200.00     -880.00
02027             200.00     -880.00
02028             240.00     -920.00
02029             200.00     -960.00
02030             200.00     -920.00
02031             240.00    -1000.00
02032             200.00    -1000.00
02033             200.00    -1040.00
02034             240.00    -1040.00
02035             240.00    -1120.00
02036             240.00    -1120.00
02037             240.00    -1160.00
02038             240.00    -1200.00
02039             280.00    -1200.00
02040             240.00    -1200.00
02041             240.00    -1240.00
02042             320.00    -1280.00
02043             240.00    -1280.00
02044             280.00    -1320.00
02045             280.00    -1320.00
02046             280.00    -1360.00
02047             280.00    -1360.00
02048             280.00    -1400.00
02049             320.00    -1400.00
02050             360.00    -1440.00
02051             360.00    -1440.00
02052             360.00    -1480.00
02053             360.00    -1520.00
02054             320.00    -1520.00
02055             360.00    -1560.00
02056             400.00    -1600.00
02057             360.00    -1600.00
02058             360.00    -1640.00
02059             400.00    -1640.00
02060             360.00    -1680.00
02061             400.00    -1680.00
02062             400.00    -1680.00
02063             400.00    -1760.00
02064             400.00    -1760.00
02065             400.00    -1800.00
02066             440.00    -1800.00
02067             400.00    -1840.00
02068             440.00    -1840.00
02069             440.00    -1880.00
02070             440.00    -1920.00
02071             440.00    -1920.00
02072             440.00    -1960.00
02073             480.00    -1960.00
02074             440.00    -1960.00
02075             520.00    -2000.00
02076             480.00    -2000.00
02077             520.00    -2040.00
02078             520.00    -2080.00
02079             520.00    -2120.00
02080             520.00    -2120.00
02081             520.00    -2120.00
02082             520.00    -2160.00
02083             520.00    -2160.00
02084             520.00    -2160.00
02085             560.00    -2200.00
02086             560.00    -2240.00
02087             560.00    -2280.00
02088             560.00    -2280.00
02089             560.00    -2320.00
02090             560.00    -2320.00
02091             560.00    -2320.00
02092             560.00    -2400.00
02093             600.00    -2400.00
02094             600.00    -2400.00
02095             560.00    -2440.00
02096             600.00    -2440.00
02097             560.00    -2440.00
02098             600.00    -2480.00
02099             600.00    -2480.00
02100             600.00    -2520.00
02101             640.00    -2560.00
02102             640.00    -2560.00
02103             640.00    -2600.00
02104             600.00    -2600.00
02105             640.00    -2640.00
02106             600.00    -2640.00
02107             680.00    -2640.00
02108             640.00    -2680.00
02109             680.00    -2720.00
02110             680.00    -2720.00
02111             680.00    -2720.00
02112             680.00    -2760.00
02113             680.00    -2760.00
02114             680.00    -2760.00
02115             680.00    -2800.00
02116             680.00    -2800.00
02117             720.00    -2840.00
02118             720.00    -2840.00
02119             720.00    -2880.00
02120             680.00    -2920.00
02121             720.00    -2920.00
02122             720.00    -2920.00
02123             720.00    -2960.00
02124             720.00    -2960.00
02125             760.00    -3000.00
02126             720.00    -3000.00
02127             720.00    -3040.00
02128             720.00    -3040.00
02129             760.00    -3040.00
02130             720.00    -3040.00
02131             760.00    -3080.00
02132             760.00    -3080.00
02133             760.00    -3080.00
02134             800.00    -3120.00
02135             760.00    -3120.00
02136             760.00    -3120.00
02137             800.00    -3160.00
02138             840.00    -3200.00
02139             800.00    -3200.00
02140             760.00    -3240.00
02141             840.00    -3240.00
02142             800.00    -3240.00
02143             840.00    -3240.00
02144             840.00    -3280.00
02145             840.00    -3280.00
02146             840.00    -3320.00
02147             840.00    -3320.00
02148             840.00    -3360.00
02149             840.00    -3360.00
02150             840.00    -3360.00
02151             840.00    -3360.00
02152             880.00    -3400.00
02153             880.00    -3400.00
02154             840.00    -3400.00
02155             880.00    -3400.00
02156             880.00    -3440.00
02157             880.00    -3440.00
02158             880.00    -3480.00
02159             880.00    -3440.00
02160             880.00    -3480.00
02161             920.00    -3480.00
02162             880.00    -3480.00
02163             880.00    -3520.00
02164             880.00    -3560.00
02165             880.00    -3520.00
02166             920.00    -3520.00
02167             920.00    -3560.00
02168             920.00    -3560.00
02169             920.00    -3560.00
02170             880.00    -3600.00
02171             920.00    -3640.00
02172             880.00    -3640.00
02173             920.00    -3640.00
02174             920.00    -3680.00
02175             920.00    -3680.00
02176             920.00    -3680.00
02177             920.00    -3680.00
02178             920.00    -3680.00
02179             920.00    -3680.00
02180             920.00    -3680.00
02181            1000.00    -3720.00
02182             920.00    -3720.00
02183             920.00    -3720.00
02184            1000.00    -3760.00
02185             920.00    -3760.00
02186             960.00    -3760.00
02187            1000.00    -3760.00
02188            1000.00    -3800.00
02189             960.00    -3760.00
02190            1000.00    -3840.00
02191            1000.00    -3840.00
02192             920.00    -3840.00
02193            1000.00    -3840.00
02194            1000.00    -3840.00
02195            1000.00    -3840.00
02196            1000.00    -3840.00
02197            1000.00    -3880.00
02198            1000.00    -3840.00
02199            1000.00    -3880.00
02200            1000.00    -3840.00
02201            1040.00    -3880.00
02202            1040.00    -3880.00
02203            1040.00    -3880.00
02204            1000.00    -3880.00
02205            1000.00    -3920.00
02206            1040.00    -3920.00
02207            1040.00    -3920.00
02208            1040.00    -3880.00
02209            1040.00    -3920.00
02210            1000.00    -3920.00
02211            1040.00    -3920.00
02212            1040.00    -3920.00
02213            1040.00    -3920.00
02214            1040.00    -3920.00
02215            1040.00    -3960.00
02216            1040.00    -3920.00
02217            1040.00    -3960.00
02218            1040.00    -3960.00
02219            1040.00    -3960.00
02220            1040.00    -3920.00
02221            1040.00    -4000.00
02222            1040.00    -4000.00
02223            1040.00    -4000.00
02224            1040.00    -4000.00
02225            1040.00    -4000.00
02226            1040.00    -4000.00
02227            1040.00    -4000.00
02228            1040.00    -4000.00
02229            1040.00    -4000.00
02230            1040.00    -4000.00
02231            1040.00    -4000.00
02232            1040.00    -4000.00
02233            1040.00    -4000.00
02234            1040.00    -4000.00
02235            1040.00    -4000.00
02236            1040.00    -4000.00
02237            1040.00    -4040.00
02238            1040.00    -4000.00
02239            1040.00    -4040.00
02240            1040.00    -4000.00
02241            1040.00    -4000.00
02242            1040.00    -4000.00
02243            1040.00    -4000.00
02244            1040.00    -4000.00
02245            1040.00    -4000.00
02246            1040.00    -4000.00
02247            1040.00    -4000.00
02248            1040.00    -4000.00
02249            1040.00    -4000.00
02250            1040.00    -4000.00
02251            1040.00    -4000.00
02252            1040.00    -4000.00
02253            1040.00    -4000.00
02254            1040.00    -4000.00
02255            1040.00    -4000.00
02256            1040.00    -4000.00
02257            1040.00    -4000.00
02258            1040.00    -4000.00
02259            1040.00    -4000.00
02260            1040.00    -4000.00
02261            1040.00    -4000.00
02262            1040.00    -4000.00
02263            1040.00    -4000.00
02264            1040.00    -4000.00
02265            1040.00    -3960.00
02266            1040.00    -4000.00
02267            1040.00    -3920.00
02268            1040.00    -3960.00
02269            1040.00    -4000.00
02270            1040.00    -3960.00
02271            1040.00    -3920.00
02272            1040.00    -3960.00
02273            1040.00    -3920.00
02274            1040.00    -3960.00
02275            1040.00    -3920.00
02276            1040.00    -3920.00
02277            1040.00    -3880.00
02278            1080.00    -3920.00
02279            1040.00    -3920.00
02280            1040.00    -3920.00
02281            1040.00    -3920.00
02282            1040.00    -3880.00
02283            1040.00    -3880.00
02284            1040.00    -3880.00
02285            1040.00    -3880.00
02286            1040.00    -3840.00
02287            1040.00    -3880.00
02288            1040.00    -3840.00
02289            1040.00    -3840.00
02290            1040.00    -3840.00
02291            1040.00    -3840.00
02292            1040.00    -3840.00
02293            1000.00    -3840.00
02294            1040.00    -3840.00
02295            1040.00    -3800.00
02296            1040.00    -3800.00
02297            1040.00    -3760.00
02298            1040.00    -3760.00
02299            1040.00    -3760.00
02300            1040.00    -3760.00
02301            1000.00    -3760.00
02302            1000.00    -3760.00
02303            1000.00    -3760.00
02304            1000.00    -3720.00
02305            1000.00    -3720.00
02306            1000.00    -3720.00
02307            1000.00    -3720.00
02308             920.00    -3720.00
02309            1000.00    -3680.00
02310             960.00    -3680.00
02311             960.00    -3680.00
02312            1000.00    -3680.00
02313             960.00    -3680.00
02314            1000.00    -3600.00
02315             960.00    -3600.00
02316             960.00    -3640.00
02317             960.00    -3600.00
02318            1000.00    -3560.00
02319             920.00    -3560.00
02320             920.00    -3560.00
02321             920.00    -3560.00
02322             920.00    -3520.00
02323             920.00    -3560.00
02324             920.00    -3480.00
02325             920.00    -3520.00
02326             920.00    -3520.00
02327             920.00    -3480.00
02328             920.00    -3480.00
02329             920.00    -3440.00
02330             920.00    -3440.00
02331             880.00    -3440.00
02332             920.00    -3440.00
02333             920.00    -3400.00
02334             920.00    -3400.00
02335             920.00    -3400.00
02336             880.00    -3360.00
02337             920.00    -3360.00
02338             880.00    -3360.00
02339             920.00    -3360.00
02340             880.00    -3360.00
02341             880.00    -3320.00
02342             920.00    -3280.00
02343             880.00    -3280.00
02344             880.00    -3240.00
02345             880.00    -3200.00
02346             880.00    -3240.00
02347             880.00    -3200.00
02348             840.00    -3200.00
02349             880.00    -3200.00
02350             840.00    -3160.00
02351             840.00    -3160.00
02352             840.00    -3120.00
02353             840.00    -3120.00
02354             840.00    -3120.00
02355             840.00    -3080.00
02356             840.00    -3080.00
02357             840.00    -3080.00
02358             840.00    -3040.00
02359             840.00    -3040.00
02360             840.00    -3040.00
02361             840.00    -3000.00
02362             840.00    -2960.00
02363             840.00    -2960.00
02364             840.00    -2920.00
02365             760.00    -2880.00
02366             840.00    -2920.00
02367             760.00    -2880.00
02368             760.00    -2880.00
02369             760.00    -2880.00
02370             760.00    -2880.00
02371             760.00    -2840.00
02372             800.00    -2800.00
02373             720.00    -2800.00
02374             720.00    -2760.00
02375             760.00    -2760.00
02376             720.00    -2760.00
02377             720.00    -2720.00
02378             720.00    -2720.00
02379             720.00    -2680.00
02380             720.00    -2680.00
02381             720.00    -2640.00
02382             720.00    -2640.00
02383             720.00    -2640.00
02384             720.00    -2600.00
02385             720.00    -2560.00
02386             720.00    -2560.00
02387             720.00    -2560.00
02388             680.00    -2520.00
02389             720.00    -2520.00
02390             680.00    -2480.00
02391             680.00    -2480.00
02392             680.00    -2440.00
02393             680.00    -2440.00
02394             680.00    -2400.00
02395             680.00    -2400.00
02396             680.00    -2400.00
02397             680.00    -2320.00
02398             680.00    -2320.00
02399             640.00    -2280.00
02400             680.00    -2280.00
02401             600.00    -2200.00
02402             640.00    -2240.00
02403             640.00    -2200.00
02404             600.00    -2200.00
02405             640.00    -2160.00
02406             600.00    -2160.00
02407             600.00    -2160.00
02408             600.00    -2120.00
02409             560.00    -2080.00
02410             600.00    -2080.00
02411             600.00    -2000.00
02412             560.00    -2000.00
02413             560.00    -2040.00
02414             600.00    -1960.00
02415             560.00    -1960.00
02416             560.00    -1960.00
02417             520.00    -1920.00
02418             560.00    -1920.00
02419             560.00    -1880.00
02420             520.00    -1880.00
02421             520.00    -1840.00
02422             520.00    -1840.00
02423             520.00    -1800.00
02424             520.00    -1760.00
02425             520.00    -1760.00
02426             520.00    -1720.00
02427             520.00    -1680.00
02428             520.00    -1680.00
02429             520.00    -1680.00
02430             440.00    -1640.00
02431             520.00    -1640.00
02432             440.00    -1600.00
02433             440.00    -1600.00
02434             440.00    -1520.00
02435             400.00    -1520.00
02436             440.00    -1520.00
02437             440.00    -1480.00
02438             400.00    -1480.00
02439             440.00    -1440.00
02440             400.00    -1440.00
02441             400.00    -1360.00
02442             400.00    -1360.00
02443             400.00    -1320.00
02444             400.00    -1320.00
02445             360.00    -1320.00
02446             360.00    -1280.00
02447             360.00    -1280.00
02448             360.00    -1200.00
02449             400.00    -1200.00
02450             360.00    -1200.00
02451             360.00    -1200.00
02452             360.00    -1160.00
02453             360.00    -1120.00
02454             360.00    -1120.00
02455             280.00    -1040.00
02456             280.00    -1040.00
02457             360.00    -1000.00
02458             280.00    -1000.00
02459             320.00     -920.00
02460             280.00     -960.00
02461             280.00     -920.00
02462             280.00     -880.00
02463             280.00     -880.00
02464             240.00     -840.00
02465             280.00     -840.00
02466             240.00     -800.00
02467             280.00     -800.00
02468             240.00     -760.00
02469             240.00     -720.00
02470             240.00     -680.00
02471             240.00     -680.00
02472             240.00     -640.00
02473             200.00     -640.00
02474             240.00     -640.00
02475             200.00     -600.00
02476             200.00     -560.00
02477             200.00     -520.00
02478             200.00     -520.00
02479             200.00     -520.00
02480             200.00     -480.00
02481             200.00     -480.00
02482             160.00     -400.00
02483             200.00     -400.00
02484             200.00     -360.00
02485             200.00     -360.00
02486             120.00     -320.00
02487             160.00     -320.00
02488             120.00     -280.00
02489             120.00     -240.00
02490             120.00     -200.00
02491             120.00     -200.00
02492             120.00     -160.00
02493              80.00     -160.00
02494              80.00     -120.00
02495              80.00     -120.00
02496              80.00      -40.00
02497              80.00      -80.00
02498              40.00        0.00
02499              80.00        0.00
02500              40.00        0.00
02501              40.00       80.00
02502              40.00       80.00
02503              40.00       80.00
02504              40.00      120.00
02505             -40.00      160.00
02506              40.00      160.00
02507             -40.00      160.00
02508             -40.00      200.00
02509              40.00      280.00
02510             -40.00      320.00
02511               0.00      320.00
02512             -80.00      280.00
02513            -120.00      280.00
02514             -80.00      360.00
02515             -40.00      400.00
02516             -40.00      400.00
02517             -40.00      440.00
02518             -80.00      480.00
02519             -80.00      480.00
02520             -80.00      480.00
02521             -80.00      560.00
02522             -80.00      600.00
02523             -80.00      600.00
02524            -120.00      600.00
02525            -120.00      640.00
02526             -80.00      680.00
02527            -120.00      680.00
02528            -120.00      720.00
02529            -120.00      760.00
02530            -120.00      760.00
02531            -160.00      760.00
02532            -120.00      800.00
02533            -160.00      880.00
02534            -160.00      880.00
02535            -200.00      880.00
02536            -200.00      920.00
02537            -160.00      920.00
02538            -200.00      920.00
02539            -200.00      960.00
02540            -200.00     1000.00
02541            -240.00     1000.00
02542            -200.00     1080.00
02543            -240.00     1080.00
02544            -240.00     1120.00
02545            -240.00     1160.00
02546            -240.00     1160.00
02547            -240.00     1200.00
02548            -240.00     1200.00
02549            -240.00     1240.00
02550            -240.00     1240.00
02551            -240.00     1280.00
02552            -280.00     1280.00
02553            -280.00     1320.00
02554            -280.00     1360.00
02555            -280.00     1360.00
02556            -280.00     1360.00
02557            -320.00     1440.00
02558            -280.00     1440.00
02559            -320.00     1480.00
02560            -360.00     1480.00
02561            -280.00     1520.00
02562            -360.00     1520.00
02563            -360.00     1520.00
02564            -360.00     1600.00
02565            -400.00     1600.00
02566            -400.00     1640.00
02567            -400.00     1680.00
02568            -400.00     1680.00
02569            -400.00     1680.00
02570            -400.00     1720.00
02571            -400.00     1720.00
02572            -400.00     1760.00
02573            -440.00     1760.00
02574            -440.00     1840.00
02575            -400.00     1840.00
02576            -440.00     1840.00
02577            -440.00     1880.00
02578            -440.00     1920.00
02579            -440.00     1920.00
02580            -440.00     1920.00
02581            -440.00     1960.00
02582            -480.00     2000.00
02583            -440.00     2000.00
02584            -520.00     2040.00
02585            -440.00     2040.00
02586            -520.00     2080.00
02587            -520.00     2080.00
02588            -520.00     2080.00
02589            -520.00     2160.00
02590            -520.00     2160.00
02591            -520.00     2160.00
02592            -520.00     2200.00
02593            -520.00     2240.00
02594            -560.00     2240.00
02595            -560.00     2240.00
02596            -520.00     2280.00
02597            -560.00     2320.00
02598            -560.00     2320.00
02599            -560.00     2360.00
02600            -560.00     2360.00
02601            -560.00     2400.00
02602            -560.00     2400.00
02603            -560.00     2400.00
02604            -560.00     2440.00
02605            -560.00     2480.00
02606            -600.00     2480.00
02607            -560.00     2520.00
02608            -600.00     2520.00
02609            -600.00     2520.00
02610            -600.00     2560.00
02611            -600.00     2560.00
02612            -600.00     2600.00
02613            -600.00     2600.00
02614            -600.00     2640.00
02615            -680.00     2640.00
02616            -680.00     2680.00
02617            -640.00     2680.00
02618            -680.00     2720.00
02619            -680.00     2760.00
02620            -680.00     2760.00
02621            -680.00     2800.00
02622            -680.00     2800.00
02623            -680.00     2800.00
02624            -680.00     2840.00
02625            -720.00     2840.00
02626            -720.00     2840.00
02627            -680.00     2840.00
02628            -720.00     2920.00
02629            -720.00     2920.00
02630            -720.00     2960.00
02631            -760.00     2960.00
02632            -720.00     2960.00
02633            -720.00     3000.00
02634            -760.00     3000.00
02635            -760.00     3000.00
02636            -760.00     3040.00
02637            -760.00     3040.00
02638            -760.00     3040.00
02639            -760.00     3080.00
02640            -760.00     3080.00
02641            -800.00     3160.00
02642            -760.00     3120.00
02643            -760.00     3120.00
02644            -760.00     3160.00
02645            -840.00     3160.00
02646            -800.00     3200.00
02647            -800.00     3200.00
02648            -800.00     3240.00
02649            -840.00     3240.00
02650            -840.00     3280.00
02651            -840.00     3240.00
02652            -800.00     3280.00
02653            -840.00     3280.00
02654            -840.00     3320.00
02655            -800.00     3320.00
02656            -840.00     3320.00
02657            -840.00     3360.00
02658            -840.00     3360.00
02659            -840.00     3360.00
02660            -880.00     3400.00
02661            -840.00     3400.00
02662            -880.00     3440.00
02663            -880.00     3440.00
02664            -880.00     3440.00
02665            -880.00     3440.00
02666            -880.00     3480.00
02667            -880.00     3480.00
02668            -840.00     3480.00
02669            -880.00     3480.00
02670            -880.00     3520.00
02671            -880.00     3520.00
02672            -880.00     3520.00
02673            -880.00     3520.00
02674            -880.00     3560.00
02675            -880.00     3600.00
02676            -920.00     3600.00
02677            -880.00     3560.00
02678            -880.00     3600.00
02679            -880.00     3600.00
02680            -920.00     3640.00
02681            -880.00     3640.00
02682            -880.00     3640.00
02683            -880.00     3640.00
02684            -880.00     3680.00
02685            -920.00     3680.00
02686            -920.00     3720.00
02687            -920.00     3680.00
02688            -920.00     3720.00
02689            -920.00     3720.00
02690            -920.00     3760.00
02691            -920.00     3760.00
02692            -960.00     3760.00
02693            -920.00     3760.00
02694            -960.00     3760.00
02695            -920.00     3760.00
02696            -960.00     3760.00
02697           -1000.00     3800.00
02698            -960.00     3800.00
02699           -1000.00     3800.00
02700           -1000.00     3800.00
02701            -920.00     3800.00
02702           -1000.00     3840.00
02703           -1000.00     3840.00
02704           -1000.00     3840.00
02705           -1000.00     3840.00
02706           -1000.00     3840.00
02707           -1000.00     3840.00
02708           -1000.00     3880.00
02709           -1000.00     3880.00
02710           -1000.00     3880.00
02711           -1000.00     3880.00
02712           -1000.00     3920.00
02713           -1000.00     3920.00
02714           -1040.00     3920.00
02715           -1000.00     3920.00
02716           -1000.00     3920.00
02717           -1040.00     3920.00
02718           -1000.00     3960.00
02719           -1040.00     3920.00
02720           -1040.00     3960.00
02721           -1040.00     3920.00
02722           -1000.00     3920.00
02723           -1040.00     3960.00
02724           -1040.00     3960.00
02725           -1000.00     3960.00
02726           -1040.00     3960.00
02727           -1000.00     3960.00
02728           -1040.00     3920.00
02729           -1000.00     3960.00
02730           -1000.00     4000.00
02731           -1040.00     4000.00
02732           -1040.00     4000.00
02733           -1000.00     3960.00
02734           -1000.00     4000.00
02735           -1040.00     4000.00
02736           -1000.00     3960.00
02737           -1000.00     4000.00
02738           -1040.00     4000.00
02739           -1040.00     3960.00
02740           -1040.00     4000.00
02741           -1040.00     4000.00
02742           -1040.00     4000.00
02743           -1000.00     4000.00
02744           -1040.00     4000.00
02745           -1040.00     4000.00
02746           -1000.00     4000.00
02747           -1040.00     4000.00
02748           -1040.00     4000.00
02749           -1040.00     4040.00
02750           -1000.00     4000.00
02751           -1040.00     4000.00
02752           -1040.00     4000.00
02753           -1040.00     4000.00
02754           -1040.00     4000.00
02755           -1040.00     4000.00
02756           -1040.00     4000.00
02757           -1040.00     4000.00
02758           -1040.00     4000.00
02759           -1040.00     4040.00
02760           -1040.00     4000.00
02761           -1040.00     4000.00
02762           -1040.00     4000.00
02763           -1040.00     4000.00
02764           -1080.00     4000.00
02765           -1040.00     4000.00
02766           -1040.00     4000.00
02767           -1080.00     4000.00
02768           -1080.00     4000.00
02769           -1080.00     4000.00
02770           -1080.00     4000.00
02771           -1040.00     3960.00
02772           -1040.00     3960.00
02773           -1040.00     4000.00
02774           -1040.00     3960.00
02775           -1040.00     4000.00
02776           -1040.00     3960.00
02777           -1040.00     3960.00
02778           -1040.00     3920.00
02779           -1040.00     3920.00
02780           -1080.00     4000.00
02781           -1040.00     3960.00
02782           -1040.00     3960.00
02783           -1000.00     3920.00
02784           -1040.00     3920.00
02785           -1040.00     3920.00
02786           -1040.00     3920.00
02787           -1040.00     3920.00
02788           -1000.00     3920.00
02789           -1040.00     3920.00
02790           -1040.00     3880.00
02791           -1000.00     3920.00
02792           -1040.00     3920.00
02793           -1040.00     3880.00
02794           -1000.00     3840.00
02795           -1000.00     3880.00
02796           -1040.00     3880.00
02797           -1000.00     3880.00
02798           -1040.00     3840.00
02799           -1000.00     3840.00
02800           -1040.00     3840.00
02801           -1000.00     3840.00
02802           -1000.00     3800.00
02803           -1000.00     3840.00
02804           -1000.00     3800.00
02805           -1000.00     3800.00
02806           -1000.00     3800.00
02807           -1000.00     3800.00
02808           -1000.00     3760.00
02809           -1000.00     3800.00
02810           -1000.00     3760.00
02811           -1000.00     3800.00
02812           -1000.00     3720.00
02813           -1000.00     3760.00
02814           -1000.00     3760.00
02815           -1000.00     3720.00
02816            -960.00     3720.00
02817            -920.00     3680.00
02818           -1000.00     3680.00
02819            -920.00     3680.00
02820            -960.00     3680.00
02821            -920.00     3640.00
02822           -1000.00     3640.00
02823           -1000.00     3640.00
02824            -960.00     3600.00
02825           -1000.00     3640.00
02826            -920.00     3600.00
02827            -920.00     3600.00
02828            -960.00     3520.00
02829            -920.00     3600.00
02830            -920.00     3520.00
02831            -960.00     3520.00
02832            -920.00     3520.00
02833           -1000.00     3520.00
02834            -920.00     3520.00
02835            -920.00     3520.00
02836            -920.00     3480.00
02837            -920.00     3480.00
02838            -920.00     3480.00
02839            -920.00     3440.00
02840            -920.00     3440.00
02841            -920.00     3440.00
02842            -920.00     3400.00
02843            -920.00     3400.00
02844            -880.00     3400.00
02845            -880.00     3360.00
02846            -920.00     3360.00
02847            -920.00     3360.00
02848            -920.00     3320.00
02849            -880.00     3320.00
02850            -880.00     3320.00
02851            -880.00     3280.00
02852            -880.00     3280.00
02853            -880.00     3280.00
02854            -880.00     3280.00
02855            -880.00     3240.00
02856            -880.00     3200.00
02857            -840.00     3200.00
02858            -880.00     3200.00
02859            -880.00     3200.00
02860            -880.00     3160.00
02861            -840.00     3160.00
02862            -880.00     3120.00
02863            -840.00     3120.00
02864            -880.00     3120.00
02865            -800.00     3080.00
02866            -840.00     3080.00
02867            -840.00     3040.00
02868            -840.00     3040.00
02869            -840.00     3000.00
02870            -800.00     3040.00
02871            -840.00     3000.00
02872            -800.00     3000.00
02873            -760.00     2960.00
02874            -760.00     2960.00
02875            -760.00     2920.00
02876            -760.00     2920.00
02877            -760.00     2880.00
02878            -760.00     2840.00
02879            -760.00     2840.00
02880            -760.00     2840.00
02881            -760.00     2800.00
02882            -760.00     2800.00
02883            -760.00     2800.00
02884            -760.00     2760.00
02885            -760.00     2720.00
02886            -760.00     2720.00
02887            -760.00     2720.00
02888            -760.00     2680.00
02889            -760.00     2640.00
02890            -720.00     2640.00
02891            -720.00     2640.00
02892            -720.00     2640.00
02893            -720.00     2560.00
02894            -720.00     2560.00
02895            -720.00     2560.00
02896            -720.00     2520.00
02897            -680.00     2520.00
02898            -720.00     2520.00
02899            -720.00     2480.00
02900            -720.00     2480.00
02901            -680.00     2440.00
02902            -680.00     2400.00
02903            -680.00     2400.00
02904            -680.00     2360.00
02905            -680.00     2360.00
02906            -680.00     2320.00
02907            -680.00     2320.00
02908            -600.00     2320.00
02909            -600.00     2280.00
02910            -600.00     2240.00
02911            -600.00     2240.00
02912            -600.00     2200.00
02913            -600.00     2200.00
02914            -560.00     2200.00
02915            -600.00     2160.00
02916            -600.00     2120.00
02917            -560.00     2160.00
02918            -560.00     2080.00
02919            -600.00     2080.00
02920            -560.00     2040.00
02921            -600.00     2040.00
02922            -560.00     2000.00
02923            -560.00     2000.00
02924            -560.00     2000.00
02925            -560.00     1920.00
02926            -560.00     1920.00
02927            -520.00     1920.00
02928            -520.00     1880.00
02929            -520.00     1880.00
02930            -520.00     1840.00
02931            -520.00     1840.00
02932            -520.00     1800.00
02933            -520.00     1760.00
02934            -480.00     1760.00
02935            -520.00     1720.00
02936            -440.00     1680.00
02937            -440.00     1680.00
02938            -440.00     1680.00
02939            -440.00     1640.00
02940            -440.00     1600.00
02941            -440.00     1640.00
02942            -440.00     1560.00
02943            -440.00     1520.00
02944            -440.00     1520.00
02945            -440.00     1520.00
02946            -440.00     1480.00
02947            -440.00     1440.00
02948            -400.00     1440.00
02949            -400.00     1440.00
02950            -400.00     1360.00
02951            -400.00     1360.00
02952            -400.00     1320.00
02953            -400.00     1320.00
02954            -400.00     1280.00
02955            -400.00     1280.00
02956            -400.00     1240.00
02957            -400.00     1200.00
02958            -360.00     1200.00
02959            -360.00     1200.00
02960            -400.00     1160.00
02961            -360.00     1120.00
02962            -400.00     1120.00
02963            -360.00     1080.00
02964            -360.00     1080.00
02965            -360.00     1040.00
02966            -280.00     1000.00
02967            -320.00      960.00
02968            -360.00      960.00
02969            -280.00      920.00
02970            -280.00      920.00
02971            -280.00      880.00
02972            -280.00      880.00
02973            -280.00      880.00
02974            -280.00      840.00
02975            -240.00      800.00
02976            -240.00      760.00
02977            -280.00      760.00
02978            -240.00      720.00
02979            -240.00      720.00
02980            -240.00      640.00
02981            -240.00      680.00
02982            -200.00      640.00
02983            -240.00      600.00
02984            -200.00      600.00
02985            -200.00      560.00
02986            -160.00      560.00
02987            -120.00      520.00
02988            -200.00      480.00
02989            -200.00      440.00
02990            -200.00      440.00
02991            -120.00      400.00
02992            -120.00      400.00
02993            -120.00      400.00
02994            -120.00      360.00
02995            -120.00      320.00
02996            -120.00      280.00
02997            -120.00      280.00
02998             -80.00      240.00
02999            -120.00      200.00
03000            -120.00      240.00
03001            -120.00      160.00
03002             -80.00      120.00
03003             -80.00      120.00
03004             -80.00      120.00
03005             -80.00       40.00
03006             -80.00       40.00
03007             -40.00       40.00
03008             -40.00        0.00
03009             -40.00      -40.00
03010             -40.00      -40.00
03011             -40.00      -80.00
03012             -40.00      -80.00
03013               0.00     -120.00
03014             -40.00     -160.00
03015             -40.00     -200.00
03016               0.00     -160.00
03017              40.00     -200.00
03018              40.00     -240.00
03019              40.00     -240.00
03020              40.00     -320.00
03021              40.00     -360.00
03022             -40.00     -400.00
03023               0.00     -360.00
03024              80.00     -360.00
03025              40.00     -480.00
03026              40.00     -480.00
03027              80.00     -440.00
03028              80.00     -480.00
03029              80.00     -560.00
03030              80.00     -560.00
03031              80.00     -560.00
03032              80.00     -600.00
03033              80.00     -640.00
03034              80.00     -680.00
03035             120.00     -680.00
03036             120.00     -720.00
03037             120.00     -680.00
03038             120.00     -720.00
03039             120.00     -800.00
03040             120.00     -800.00
03041             120.00     -800.00
03042             200.00     -840.00
03043             200.00     -880.00
03044             200.00     -880.00
03045             200.00     -880.00
03046             200.00     -960.00
03047             200.00     -960.00
03048             200.00    -1000.00
03049             240.00    -1000.00
03050             200.00    -1000.00
03051             200.00    -1040.00
03052             200.00    -1120.00
03053             240.00    -1120.00
03054             240.00    -1160.00
03055             240.00    -1160.00
03056             240.00    -1200.00
03057             280.00    -1200.00
03058             280.00    -1240.00
03059             280.00    -1240.00
03060             320.00    -1280.00
03061             320.00    -1320.00
03062             280.00    -1320.00
03063             360.00    -1360.00
03064             280.00    -1360.00
03065             360.00    -1400.00
03066             360.00    -1440.00
03067             360.00    -1440.00
03068             360.00    -1440.00
03069             360.00    -1480.00
03070             400.00    -1520.00
03071             360.00    -1560.00
03072             360.00    -1560.00
03073             400.00    -1600.00
03074             360.00    -1600.00
03075             400.00    -1640.00
03076             400.00    -1640.00
03077             400.00    -1680.00
03078             400.00    -1680.00
03079             400.00    -1720.00
03080             400.00    -1760.00
03081             440.00    -1760.00
03082             440.00    -1800.00
03083             440.00    -1800.00
03084             400.00    -1800.00
03085             440.00    -1880.00
03086             440.00    -1920.00
03087             440.00    -1920.00
03088             440.00    -1920.00
03089             440.00    -1960.00
03090             440.00    -1960.00
03091             480.00    -2000.00
03092             440.00    -2000.00
03093             520.00    -2000.00
03094             480.00    -2080.00
03095             440.00    -2080.00
03096             520.00    -2080.00
03097             520.00    -2120.00
03098             520.00    -2120.00
03099             520.00    -2160.00
03100             520.00    -2160.00
03101             560.00    -2160.00
03102             520.00    -2240.00
03103             520.00    -2200.00
03104             520.00    -2240.00
03105             520.00    -2280.00
03106             560.00    -2320.00
03107             560.00    -2320.00
03108             560.00    -2320.00
03109             560.00    -2400.00
03110             560.00    -2400.00
03111             600.00    -2400.00
03112             600.00    -2400.00
03113             600.00    -2440.00
03114             600.00    -2440.00
03115             640.00    -2480.00
03116             600.00    -2520.00
03117             600.00    -2520.00
03118             600.00    -2560.00
03119             600.00    -2560.00
03120             680.00    -2600.00
03121             640.00    -2560.00
03122             680.00    -2600.00
03123             680.00    -2640.00
03124             680.00    -2640.00
03125             680.00    -2640.00
03126             680.00    -2720.00
03127             680.00    -2720.00
03128             720.00    -2720.00
03129             680.00    -2760.00
03130             720.00    -2760.00
03131             680.00    -2760.00
03132             720.00    -2800.00
03133             720.00    -2800.00
03134             720.00    -2840.00
03135             720.00    -2840.00
03136             720.00    -2880.00
03137             720.00    -2920.00
03138             760.00    -2920.00
03139             720.00    -2920.00
03140             720.00    -2920.00
03141             720.00    -2960.00
03142             720.00    -2960.00
03143             760.00    -2960.00
03144             720.00    -3040.00
03145             760.00    -3040.00
03146             760.00    -3040.00
03147             720.00    -3040.00
03148             760.00    -3040.00
03149             760.00    -3080.00
03150             760.00    -3120.00
03151             760.00    -3120.00
03152             800.00    -3120.00
03153             760.00    -3160.00
03154             800.00    -3160.00
03155             760.00    -3200.00
03156             840.00    -3200.00
03157             760.00    -3200.00
03158             800.00    -3240.00
03159             840.00    -3240.00
03160             840.00    -3280.00
03161             840.00    -3240.00
03162             840.00    -3280.00
03163             840.00    -3280.00
03164             840.00    -3320.00
03165             840.00    -3320.00
03166             840.00    -3360.00
03167             840.00    -3360.00
03168             840.00    -3360.00
03169             840.00    -3360.00
03170             840.00    -3440.00
03171             840.00    -3400.00
03172             880.00    -3400.00
03173             840.00    -3440.00
03174             840.00    -3440.00
03175             880.00    -3440.00
03176             880.00    -3440.00
03177             880.00    -3480.00
03178             840.00    -3520.00
03179             880.00    -3480.00
03180             880.00    -3520.00
03181             880.00    -3520.00
03182             920.00    -3560.00
03183             880.00    -3560.00
03184             880.00    -3560.00
03185             880.00    -3560.00
03186             880.00    -3600.00
03187             920.00    -3600.00
03188             920.00    -3600.00
03189             960.00    -3600.00
03190             920.00    -3640.00
03191             920.00    -3600.00
03192             920.00    -3680.00
03193             920.00    -3680.00
03194             920.00    -3680.00
03195             920.00    -3720.00
03196             960.00    -3680.00
03197            1000.00    -3720.00
03198             960.00    -3680.00
03199            1000.00    -3680.00
03200            1000.00    -3720.00
03201            1000.00    -3760.00
03202             960.00    -3760.00
03203            1000.00    -3760.00
03204            1000.00    -3800.00
03205            1040.00    -3800.00
03206            1000.00    -3800.00
03207            1000.00    -3800.00
03208            1000.00    -3800.00
03209            1000.00    -3800.00
03210            1000.00    -3840.00
03211            1000.00    -3800.00
03212            1000.00    -3840.00
03213            1000.00    -3840.00
03214            1000.00    -3840.00
03215            1000.00    -3840.00
03216            1000.00    -3880.00
03217            1040.00    -3840.00
03218            1000.00    -3880.00
03219            1000.00    -3880.00
03220            1000.00    -3880.00
03221            1000.00    -3880.00
03222            1040.00    -3920.00
03223            1000.00    -3920.00
03224            1000.00    -3920.00
03225            1000.00    -3920.00
03226            1040.00    -3920.00
03227            1000.00    -3920.00
03228            1000.00    -3920.00
03229            1040.00    -3920.00
03230            1000.00    -3920.00
03231            1040.00    -3960.00
03232            1000.00    -3920.00
03233            1040.00    -3960.00
03234            1040.00    -3920.00
03235            1040.00    -3960.00
03236            1040.00    -3960.00
03237            1040.00    -4000.00
03238            1040.00    -4000.00
03239            1040.00    -3960.00
03240            1040.00    -4000.00
03241            1040.00    -3960.00
03242            1040.00    -4000.00
03243            1040.00    -4000.00
03244            1040.00    -3960.00
03245            1040.00    -4000.00
03246            1040.00    -4000.00
03247            1040.00    -4000.00
03248            1040.00    -4000.00
03249            1080.00    -4000.00
03250            1040.00    -4000.00
03251            1040.00    -4000.00
03252            1040.00    -4000.00
03253            1040.00    -4000.00
03254            1040.00    -4000.00
03255            1040.00    -4000.00
03256            1040.00    -4000.00
03257            1040.00    -4000.00
03258            1040.00    -4000.00
03259            1040.00    -4000.00
03260            1040.00    -4000.00
03261            1080.00    -4000.00
03262            1040.00    -4000.00
03263            1040.00    -4000.00
03264            1040.00    -4000.00
03265            1040.00    -4000.00
03266            1080.00    -4000.00
03267            1040.00    -4000.00
03268            1080.00    -4040.00
03269            1080.00    -4000.00
03270            1080.00    -4000.00
03271            1080.00    -4000.00
03272            1080.00    -4000.00
03273            1040.00    -4000.00
03274            1040.00    -4000.00
03275            1040.00    -4000.00
03276            1040.00    -4000.00
03277            1040.00    -4000.00
03278            1040.00    -4000.00
03279            1040.00    -4000.00
03280            1040.00    -4000.00
03281            1040.00    -3960.00
03282            1040.00    -3960.00
03283            1040.00    -4000.00
03284            1040.00    -3960.00
03285            1040.00    -3920.00
03286            1040.00    -3960.00
03287            1040.00    -3960.00
03288            1040.00    -3960.00
03289            1040.00    -3960.00
03290            1040.00    -3960.00
03291            1040.00    -3920.00
03292            1040.00    -3960.00
03293            1040.00    -3920.00
03294            1040.00    -3920.00
03295            1040.00    -3920.00
03296            1040.00    -3920.00
03297            1000.00    -3920.00
03298            1000.00    -3880.00
03299            1040.00    -3880.00
03300            1040.00    -3880.00
03301            1040.00    -3880.00
03302            1040.00    -3880.00
03303            1040.00    -3880.00
03304            1040.00    -3880.00
03305            1040.00    -3880.00
03306            1040.00    -3880.00
03307            1040.00    -3840.00
03308            1040.00    -3840.00
03309            1000.00    -3840.00
03310            1040.00    -3840.00
03311            1040.00    -3840.00
03312            1000.00    -3840.00
03313            1040.00    -3800.00
03314            1000.00    -3760.00
03315            1040.00    -3800.00
03316            1040.00    -3760.00
03317            1040.00    -3760.00
03318            1040.00    -3760.00
03319            1000.00    -3760.00
03320            1000.00    -3720.00
03321            1000.00    -3720.00
03322            1000.00    -3720.00
03323            1000.00    -3720.00
03324            1000.00    -3720.00
03325            1000.00    -3720.00
03326            1000.00    -3680.00
03327            1000.00    -3680.00
03328            1000.00    -3680.00
03329            1000.00    -3640.00
03330            1000.00    -3680.00
03331            1000.00    -3600.00
03332            1000.00    -3600.00
03333            1000.00    -3600.00
03334            1000.00    -3600.00
03335             960.00    -3600.00
03336            1000.00    -3560.00
03337             920.00    -3560.00
03338            1000.00    -3560.00
03339             920.00    -3560.00
03340             960.00    -3560.00
03341             920.00    -3480.00
03342             920.00    -3520.00
03343             960.00    -3480.00
03344             960.00    -3480.00
03345             920.00    -3440.00
03346             920.00    -3440.00
03347             880.00    -3440.00
03348             920.00    -3440.00
03349             880.00    -3440.00
03350             920.00    -3400.00
03351             920.00    -3440.00
03352             880.00    -3360.00
03353             880.00    -3360.00
03354             880.00    -3360.00
03355             920.00    -3360.00
03356             880.00    -3360.00
03357             880.00    -3320.00
03358             880.00    -3280.00
03359             880.00    -3280.00
03360             880.00    -3240.00
03361             840.00    -3280.00
03362             880.00    -3240.00
03363             840.00    -3240.00
03364             840.00    -3200.00
03365             880.00    -3240.00
03366             840.00    -3200.00
03367             880.00    -3200.00
03368             840.00    -3200.00
03369             840.00    -3200.00
03370             840.00    -3120.00
03371             840.00    -3080.00
03372             840.00    -3080.00
03373             880.00    -3080.00
03374             880.00    -3040.00
03375             840.00    -3040.00
03376             840.00    -3040.00
03377             840.00    -3000.00
03378             840.00    -3000.00
03379             840.00    -2960.00
03380             840.00    -2960.00
03381             840.00    -2960.00
03382             760.00    -2920.00
03383             800.00    -2920.00
03384             800.00    -2880.00
03385             840.00    -2880.00
03386             760.00    -2880.00
03387             760.00    -2840.00
03388             800.00    -2840.00
03389             760.00    -2800.00
03390             760.00    -2800.00
03391             760.00    -2800.00
03392             760.00    -2760.00
03393             760.00    -2720.00
03394             760.00    -2720.00
03395             760.00    -2720.00
03396             720.00    -2680.00
03397             760.00    -2640.00
03398             720.00    -2640.00
03399             720.00    -2640.00
03400             720.00    -2600.00
03401             720.00    -2600.00
03402             720.00    -2560.00
03403             720.00    -2560.00
03404             720.00    -2560.00
03405             720.00    -2560.00
03406             720.00    -2520.00
03407             680.00    -2480.00
03408             680.00    -2480.00
03409             680.00    -2440.00
03410             680.00    -2440.00
03411             680.00    -2400.00
03412             640.00    -2400.00
03413             680.00    -2400.00
03414             640.00    -2320.00
03415             680.00    -2320.00
03416             680.00    -2280.00
03417             640.00    -2320.00
03418             600.00    -2240.00
03419             680.00    -2240.00
03420             640.00    -2200.00
03421             600.00    -2200.00
03422             600.00    -2160.00
03423             600.00    -2160.00
03424             600.00    -2160.00
03425             600.00    -2120.00
03426             600.00    -2120.00
03427             600.00    -2080.00
03428             560.00    -2080.00
03429             560.00    -2000.00
03430             560.00    -2000.00
03431             560.00    -2000.00
03432             560.00    -1960.00
03433             520.00    -1960.00
03434             560.00    -1920.00
03435             520.00    -1920.00
03436             560.00    -1920.00
03437             520.00    -1840.00
03438             520.00    -1840.00
03439             520.00    -1840.00
03440             520.00    -1800.00
03441             520.00    -1760.00
03442             520.00    -1760.00
03443             520.00    -1720.00
03444             480.00    -1720.00
03445             520.00    -1680.00
03446             520.00    -1680.00
03447             520.00    -1640.00
03448             520.00    -1640.00
03449             520.00    -1600.00
03450             480.00    -1600.00
03451             440.00    -1560.00
03452             440.00    -1560.00
03453             440.00    -1520.00
03454             440.00    -1480.00
03455             440.00    -1480.00
03456             440.00    -1440.00
03457             440.00    -1440.00
03458             440.00    -1400.00
03459             400.00    -1360.00
03460             400.00    -1360.00
03461             400.00    -1320.00
03462             400.00    -1320.00
03463             400.00    -1280.00
03464             400.00    -1240.00
03465             400.00    -1280.00
03466             400.00    -1200.00
03467             360.00    -1200.00
03468             360.00    -1200.00
03469             360.00    -1160.00
03470             360.00    -1120.00
03471             360.00    -1120.00
03472             360.00    -1080.00
03473             360.00    -1000.00
03474             360.00    -1040.00
03475             320.00    -1000.00
03476             320.00     -960.00
03477             280.00     -920.00
03478             360.00     -960.00
03479             280.00     -880.00
03480             280.00     -880.00
03481             240.00     -840.00
03482             280.00     -840.00
03483             240.00     -800.00
03484             240.00     -800.00
03485             240.00     -720.00
03486             240.00     -720.00
03487             240.00     -720.00
03488             200.00     -680.00
03489             240.00     -680.00
03490             200.00     -640.00
03491             240.00     -600.00
03492             200.00     -600.00
03493             200.00     -560.00
03494             200.00     -560.00
03495             200.00     -520.00
03496             200.00     -480.00
03497             120.00     -480.00
03498             200.00     -480.00
03499             120.00     -440.00
03500             120.00     -400.00
03501             200.00     -400.00
03502             160.00     -360.00
03503             120.00     -320.00
03504             120.00     -320.00
03505              80.00     -280.00
03506             120.00     -240.00
03507             120.00     -240.00
03508             120.00     -200.00
03509              80.00     -200.00
03510              80.00     -160.00
03511              80.00     -160.00
03512              80.00      -80.00
03513              80.00      -80.00
03514              80.00      -40.00
03515              40.00      -40.00
03516              40.00        0.00
03517              40.00       40.00
03518              80.00       40.00
03519              80.00       80.00
03520              40.00       80.00
03521              40.00       80.00
03522              40.00      160.00
03523              40.00      160.00
03524              40.00      200.00
03525              40.00      240.00
03526              40.00      280.00
03527              40.00      280.00
03528              40.00      360.00
03529             -40.00      280.00
03530             -80.00      280.00
03531             -80.00      360.00
03532              40.00      360.00
03533             -80.00      400.00
03534             -40.00      440.00
03535             -80.00      480.00
03536             -40.00      480.00
03537            -120.00      480.00
03538            -120.00      560.00
03539             -80.00      560.00
03540             -80.00      600.00
03541            -120.00      640.00
03542            -120.00      640.00
03543            -120.00      640.00
03544            -120.00      640.00
03545            -120.00      720.00
03546            -120.00      760.00
03547            -120.00      720.00
03548            -200.00      800.00
03549            -120.00      800.00
03550            -120.00      800.00
03551            -160.00      880.00
03552            -200.00      880.00
03553            -240.00      920.00
03554            -200.00      920.00
03555            -200.00      960.00
03556            -240.00      960.00
03557            -200.00      960.00
03558            -240.00     1000.00
03559            -200.00     1080.00
03560            -240.00     1080.00
03561            -240.00     1080.00
03562            -240.00     1120.00
03563            -240.00     1160.00
03564            -240.00     1200.00
03565            -240.00     1200.00
03566            -240.00     1240.00
03567            -240.00     1240.00
03568            -240.00     1280.00
03569            -280.00     1280.00
03570            -280.00     1320.00
03571            -280.00     1360.00
03572            -280.00     1360.00
03573            -360.00     1400.00
03574            -280.00     1440.00
03575            -360.00     1440.00
03576            -360.00     1440.00
03577            -360.00     1520.00
03578            -320.00     1520.00
03579            -320.00     1560.00
03580            -360.00     1560.00
03581            -360.00     1600.00
03582            -360.00     1640.00
03583            -360.00     1640.00
03584            -360.00     1680.00
03585            -400.00     1680.00
03586            -400.00     1680.00
03587            -400.00     1720.00
03588            -400.00     1720.00
03589            -400.00     1760.00
03590            -400.00     1760.00
03591            -440.00     1800.00
03592            -440.00     1840.00
03593            -400.00     1840.00
03594            -440.00     1880.00
03595            -440.00     1880.00
03596            -440.00     1920.00
03597            -440.00     1920.00
03598            -440.00     1960.00
03599            -440.00     2000.00
03600            -440.00     2040.00
03601            -480.00     2000.00
03602            -520.00     2040.00
03603            -440.00     2080.00
03604            -480.00     2080.00
03605            -520.00     2080.00
03606            -520.00     2120.00
03607            -560.00     2160.00
03608            -520.00     2160.00
03609            -560.00     2200.00
03610            -520.00     2200.00
03611            -560.00     2240.00
03612            -520.00     2240.00
03613            -560.00     2280.00
03614            -560.00     2320.00
03615            -560.00     2320.00
03616            -560.00     2320.00
03617            -560.00     2360.00
03618            -560.00     2360.00
03619            -560.00     2400.00
03620            -560.00     2400.00
03621            -560.00     2400.00
03622            -560.00     2480.00
03623            -600.00     2480.00
03624            -600.00     2480.00
03625            -600.00     2520.00
03626            -600.00     2520.00
03627            -600.00     2560.00
03628            -640.00     2600.00
03629            -600.00     2560.00
03630            -680.00     2640.00
03631            -640.00     2640.00
03632            -680.00     2680.00
03633            -600.00     2640.00
03634            -680.00     2680.00
03635            -680.00     2720.00
03636            -680.00     2720.00
03637            -680.00     2760.00
03638            -680.00     2760.00
03639            -680.00     2800.00
03640            -680.00     2800.00
03641            -680.00     2800.00
03642            -720.00     2840.00
03643            -720.00     2840.00
03644            -680.00     2880.00
03645            -720.00     2920.00
03646            -720.00     2920.00
03647            -720.00     2880.00
03648            -720.00     2960.00
03649            -720.00     2960.00
03650            -720.00     3000.00
03651            -760.00     3000.00
03652            -720.00     3000.00
03653            -760.00     3040.00
03654            -760.00     3040.00
03655            -760.00     3040.00
03656            -720.00     3080.00
03657            -760.00     3080.00
03658            -760.00     3080.00
03659            -760.00     3120.00
03660            -760.00     3160.00
03661            -760.00     3160.00
03662            -760.00     3160.00
03663            -760.00     3200.00
03664            -760.00     3200.00
03665            -840.00     3200.00
03666            -760.00     3200.00
03667            -760.00     3240.00
03668            -840.00     3280.00
03669            -840.00     3280.00
03670            -840.00     3280.00
03671            -840.00     3280.00
03672            -840.00     3320.00
03673            -840.00     3320.00
03674            -840.00     3360.00
03675            -880.00     3360.00
03676            -840.00     3360.00
03677            -880.00     3360.00
03678            -880.00     3400.00
03679            -880.00     3440.00
03680            -880.00     3400.00
03681            -880.00     3440.00
03682            -880.00     3440.00
03683            -880.00     3440.00
03684            -880.00     3480.00
03685            -880.00     3480.00
03686            -920.00     3480.00
03687            -880.00     3520.00
03688            -880.00     3520.00
03689            -920.00     3520.00
03690            -880.00     3520.00
03691            -880.00     3560.00
03692            -880.00     3600.00
03693            -880.00     3560.00
03694            -920.00     3560.00
03695            -920.00     3600.00
03696            -920.00     3600.00
03697            -880.00     3640.00
03698            -920.00     3640.00
03699            -880.00     3640.00
03700            -880.00     3680.00
03701            -920.00     3680.00
03702            -880.00     3680.00
03703            -920.00     3680.00
03704            -920.00     3680.00
03705            -920.00     3680.00
03706            -920.00     3760.00
03707            -920.00     3760.00
03708            -920.00     3760.00
03709            -920.00     3760.00
03710            -920.00     3760.00
03711            -920.00     3760.00
03712            -920.00     3760.00
03713            -960.00     3800.00
03714            -920.00     3800.00
03715            -960.00     3800.00
03716            -920.00     3800.00
03717           -1000.00     3800.00
03718           -1000.00     3800.00
03719           -1000.00     3840.00
03720           -1000.00     3840.00
03721            -920.00     3840.00
03722           -1000.00     3840.00
03723           -1000.00     3840.00
03724           -1000.00     3840.00
03725           -1000.00     3840.00
03726           -1000.00     3880.00
03727           -1000.00     3920.00
03728           -1000.00     3880.00
03729            -960.00     3880.00
03730           -1000.00     3920.00
03731           -1000.00     3920.00
03732           -1000.00     3920.00
03733           -1000.00     3960.00
03734           -1000.00     3920.00
03735           -1000.00     3960.00
03736           -1040.00     3920.00
03737           -1040.00     3920.00
03738           -1040.00     3920.00
03739           -1040.00     3960.00
03740           -1040.00     3960.00
03741           -1000.00     3920.00
03742           -1040.00     3960.00
03743           -1040.00     3960.00
03744           -1040.00     3960.00
03745           -1040.00     3960.00
03746           -1040.00     4000.00
03747           -1040.00     3960.00
03748           -1040.00     4000.00
03749           -1040.00     4000.00
03750           -1040.00     4000.00
03751           -1040.00     3960.00
03752           -1040.00     4000.00
03753           -1040.00     4000.00
03754           -1040.00     4000.00
03755           -1040.00     3960.00
03756           -1040.00     4000.00
03757           -1040.00     4000.00
03758           -1040.00     4000.00
03759           -1040.00     4000.00
03760           -1040.00     4000.00
03761           -1040.00     4000.00
03762           -1040.00     4000.00
03763           -1040.00     4000.00
03764           -1040.00     4000.00
03765           -1040.00     4000.00
03766           -1040.00     4000.00
03767           -1040.00     4080.00
03768           -1040.00     4000.00
03769           -1080.00     4000.00
03770           -1040.00     4000.00
03771           -1040.00     4000.00
03772           -1040.00     4000.00
03773           -1040.00     4000.00
03774           -1040.00     4000.00
03775           -1040.00     4000.00
03776           -1040.00     4000.00
03777           -1040.00     4000.00
03778           -1040.00     4000.00
03779           -1040.00     4000.00
03780           -1040.00     4000.00
03781           -1040.00     4000.00
03782           -1040.00     4000.00
03783           -1040.00     4000.00
03784           -1040.00     4000.00
03785           -1040.00     4000.00
03786           -1040.00     3960.00
03787           -1040.00     4000.00
03788           -1040.00     3960.00
03789           -1040.00     3960.00
03790           -1040.00     4000.00
03791           -1040.00     3960.00
03792           -1040.00     3960.00
03793           -1040.00     4000.00
03794           -1000.00     3960.00
03795           -1040.00     3960.00
03796           -1040.00     3960.00
03797           -1040.00     3960.00
03798           -1040.00     3960.00
03799           -1040.00     3960.00
03800           -1040.00     3960.00
03801           -1040.00     3960.00
03802           -1040.00     3920.00
03803           -1040.00     3920.00
03804           -1040.00     3920.00
03805           -1040.00     3920.00
03806           -1040.00     3920.00
03807           -1040.00     3920.00
03808           -1040.00     3880.00
03809           -1040.00     3920.00
03810           -1040.00     3880.00
03811           -1040.00     3880.00
03812           -1040.00     3840.00
03813           -1040.00     3840.00
03814           -1040.00     3880.00
03815           -1000.00     3840.00
03816           -1040.00     3840.00
03817           -1040.00     3840.00
03818           -1000.00     3840.00
03819           -1040.00     3840.00
03820           -1000.00     3840.00
03821           -1000.00     3800.00
03822           -1040.00     3840.00
03823           -1000.00     3800.00
03824           -1000.00     3760.00
03825           -1000.00     3800.00
03826           -1000.00     3760.00
03827           -1040.00     3800.00
03828           -1000.00     3760.00
03829           -1000.00     3800.00
03830            -960.00     3760.00
03831            -920.00     3760.00
03832           -1000.00     3760.00
03833            -960.00     3680.00
03834            -960.00     3680.00
03835           -1000.00     3680.00
03836           -1000.00     3640.00
03837            -960.00     3680.00
03838            -920.00     3680.00
03839            -960.00     3680.00
03840            -920.00     3640.00
03841            -920.00     3640.00
03842            -920.00     3640.00
03843            -960.00     3600.00
03844            -920.00     3600.00
03845            -920.00     3600.00
03846            -920.00     3560.00
03847            -920.00     3560.00
03848            -920.00     3520.00
03849            -920.00     3520.00
03850            -920.00     3520.00
03851            -920.00     3520.00
03852            -920.00     3480.00
03853            -920.00     3480.00
03854            -920.00     3480.00
03855            -880.00     3440.00
03856            -880.00     3440.00
03857            -920.00     3440.00
03858            -920.00     3440.00
03859            -880.00     3440.00
03860            -920.00     3400.00
03861            -880.00     3360.00
03862            -880.00     3360.00
03863            -880.00     3360.00
03864            -920.00     3320.00
03865            -880.00     3320.00
03866            -880.00     3320.00
03867            -880.00     3280.00
03868            -880.00     3320.00
03869            -880.00     3280.00
03870            -880.00     3280.00
03871            -880.00     3280.00
03872            -880.00     3200.00
03873            -880.00     3240.00
03874            -880.00     3200.00
03875            -880.00     3200.00
03876            -880.00     3200.00
03877            -880.00     3160.00
03878            -880.00     3160.00
03879            -880.00     3160.00
03880            -880.00     3080.00
03881            -840.00     3120.00
03882            -880.00     3040.00
03883            -840.00     3080.00
03884            -840.00     3040.00
03885            -840.00     3000.00
03886            -840.00     3000.00
03887            -840.00     3040.00
03888            -840.00     3000.00
03889            -840.00     2960.00
03890            -800.00     2960.00
03891            -840.00     2960.00
03892            -840.00     2960.00
03893            -760.00     2880.00
03894            -760.00     2880.00
03895            -800.00     2920.00
03896            -760.00     2840.00
03897            -760.00     2840.00
03898            -760.00     2840.00
03899            -760.00     2800.00
03900            -760.00     2800.00
03901            -760.00     2760.00
03902            -760.00     2720.00
03903            -720.00     2720.00
03904            -760.00     2720.00
03905            -720.00     2680.00
03906            -720.00     2680.00
03907            -720.00     2640.00
03908            -680.00     2640.00
03909            -720.00     2640.00
03910            -720.00     2600.00
03911            -720.00     2560.00
03912            -720.00     2560.00
03913            -680.00     2520.00
03914            -680.00     2520.00
03915            -680.00     2480.00
03916            -680.00     2480.00
03917            -680.00     2480.00
03918            -680.00     2400.00
03919            -680.00     2440.00
03920            -680.00     2400.00
03921            -680.00     2400.00
03922            -600.00     2360.00
03923            -640.00     2360.00
03924            -680.00     2320.00
03925            -600.00     2320.00
03926            -600.00     2320.00
03927            -600.00     2240.00
03928            -600.00     2240.00
03929            -600.00     2240.00
03930            -600.00     2200.00
03931            -600.00     2160.00
03932            -600.00     2160.00
03933            -600.00     2160.00
03934            -600.00     2120.00
03935            -600.00     2080.00
03936            -600.00     2080.00
03937            -600.00     2080.00
03938            -600.00     2000.00
03939            -560.00     2000.00
03940            -560.00     2000.00
03941            -560.00     2000.00
03942            -560.00     1920.00
03943            -560.00     1920.00
03944            -560.00     1880.00
03945            -520.00     1880.00
03946            -560.00     1840.00
03947            -520.00     1840.00
03948            -560.00     1800.00
03949            -520.00     1800.00
03950            -560.00     1760.00
03951            -520.00     1760.00
03952            -520.00     1720.00
03953            -520.00     1720.00
03954            -520.00     1720.00
03955            -480.00     1680.00
03956            -520.00     1640.00
03957            -440.00     1600.00
03958            -440.00     1640.00
03959            -440.00     1560.00
03960            -440.00     1600.00
03961            -440.00     1520.00
03962            -440.00     1520.00
03963            -440.00     1440.00
03964            -440.00     1480.00
03965            -400.00     1440.00
03966            -440.00     1400.00
03967            -440.00     1400.00
03968            -400.00     1360.00
03969            -400.00     1360.00
03970            -400.00     1360.00
03971            -400.00     1280.00
03972            -360.00     1280.00
03973            -400.00     1240.00
03974            -400.00     1240.00
03975            -360.00     1200.00
03976            -360.00     1200.00
03977            -360.00     1200.00
03978            -320.00     1120.00
03979            -280.00     1120.00
03980            -320.00     1120.00
03981            -360.00     1080.00
03982            -320.00     1040.00
03983            -280.00     1040.00
03984            -320.00     1000.00
03985            -280.00      960.00
03986            -240.00      920.00
03987            -240.00      920.00
03988            -280.00      920.00
03989            -280.00      880.00
03990            -240.00      840.00
03991            -240.00      840.00
03992            -240.00      800.00
03993            -240.00      800.00
03994            -240.00      760.00
03995            -200.00      720.00
03996            -240.00      720.00
03997            -240.00      680.00
03998            -240.00      640.00
03999            -240.00      640.00
04000            -200.00      600.00
04001            -240.00      600.00
04002            -200.00      600.00
04003            -200.00      560.00
04004            -200.00      520.00
04005            -200.00      480.00
04006            -160.00      440.00
04007            -200.00      440.00
04008            -160.00      400.00
04009            -160.00      400.00
04010            -120.00      360.00
04011            -120.00      360.00
04012            -160.00      320.00
04013            -120.00      280.00
04014            -120.00      280.00
04015            -120.00      240.00
04016            -120.00      240.00
04017            -120.00      200.00
04018             -80.00      160.00
04019            -120.00      160.00
04020             -80.00      120.00
04021             -80.00       80.00
04022             -80.00       80.00
04023             -80.00       80.00
04024             -80.00        0.00
04025             -80.00        0.00
04026             -40.00      -40.00
04027             -40.00      -40.00
04028               0.00      -80.00
04029             -40.00     -120.00
04030             -40.00      -80.00
04031             -40.00     -160.00
04032             -40.00     -160.00
04033              40.00     -200.00
04034              40.00     -200.00
04035              40.00     -240.00
04036              40.00     -240.00
04037              80.00     -280.00
04038              40.00     -360.00
04039               0.00     -400.00
04040               0.00     -360.00
04041              80.00     -360.00
04042              80.00     -440.00
04043              40.00     -440.00
04044              80.00     -480.00
04045              80.00     -480.00
04046              80.00     -560.00
04047              80.00     -520.00
04048             120.00     -560.00
04049             120.00     -560.00
04050              80.00     -640.00
04051              80.00     -640.00
04052              80.00     -680.00
04053             120.00     -680.00
04054             160.00     -720.00
04055             200.00     -720.00
04056             120.00     -760.00
04057             120.00     -800.00
04058             200.00     -800.00
04059             200.00     -840.00
04060             120.00     -880.00
04061             200.00     -880.00
04062             200.00     -960.00
04063             200.00     -960.00
04064             200.00     -920.00
04065             200.00     -960.00
04066             200.00    -1000.00
04067             240.00    -1040.00
04068             240.00    -1040.00
04069             200.00    -1120.00
04070             240.00    -1080.00
04071             240.00    -1160.00
04072             240.00    -1200.00
04073             240.00    -1160.00
04074             280.00    -1200.00
04075             240.00    -1200.00
04076             240.00    -1240.00
04077             280.00    -1280.00
04078             280.00    -1320.00
04079             240.00    -1320.00
04080             280.00    -1360.00
04081             320.00    -1360.00
04082             320.00    -1400.00
04083             360.00    -1400.00
04084             320.00    -1440.00
04085             320.00    -1440.00
04086             360.00    -1480.00
04087             360.00    -1520.00
04088             360.00    -1520.00
04089             360.00    -1560.00
04090             400.00    -1560.00
04091             400.00    -1600.00
04092             400.00    -1640.00
04093             400.00    -1640.00
04094             400.00    -1680.00
04095             400.00    -1720.00
04096             400.00    -1680.00
04097             400.00    -1720.00
04098             400.00    -1760.00
04099             400.00    -1800.00
04100             440.00    -1800.00
04101             440.00    -1840.00
04102             440.00    -1840.00
04103             520.00    -1880.00
04104             440.00    -1840.00
04105             440.00    -1920.00
04106             480.00    -1920.00
04107             480.00    -1960.00
04108             520.00    -2000.00
04109             480.00    -2000.00
04110             520.00    -2000.00
04111             520.00    -2080.00
04112             480.00    -2040.00
04113             520.00    -2080.00
04114             520.00    -2080.00
04115             520.00    -2120.00
04116             520.00    -2160.00
04117             520.00    -2160.00
04118             520.00    -2160.00
04119             520.00    -2200.00
04120             560.00    -2240.00
04121             560.00    -2200.00
04122             560.00    -2240.00
04123             560.00    -2280.00
04124             560.00    -2320.00
04125             560.00    -2320.00
04126             560.00    -2360.00
04127             600.00    -2360.00
04128             560.00    -2400.00
04129             600.00    -2440.00
04130             600.00    -2440.00
04131             600.00    -2480.00
04132             560.00    -2480.00
04133             600.00    -2480.00
04134             600.00    -2480.00
04135             600.00    -2520.00
04136             640.00    -2560.00
04137             600.00    -2600.00
04138             640.00    -2600.00
04139             600.00    -2600.00
04140             680.00    -2640.00
04141             640.00    -2640.00
04142             680.00    -2720.00
04143             680.00    -2680.00
04144             680.00    -2720.00
04145             680.00    -2720.00
04146             680.00    -2760.00
04147             680.00    -2760.00
04148             680.00    -2760.00
04149             680.00    -2800.00
04150             720.00    -2840.00
04151             680.00    -2800.00
04152             680.00    -2880.00
04153             680.00    -2880.00
04154             720.00    -2880.00
04155             720.00    -2920.00
04156             720.00    -2920.00
04157             720.00    -2920.00
04158             720.00    -2960.00
04159             720.00    -2960.00
04160             720.00    -2960.00
04161             760.00    -3000.00
04162             760.00    -3040.00
04163             760.00    -3040.00
04164             760.00    -3080.00
04165             760.00    -3080.00
04166             800.00    -3080.00
04167             760.00    -3120.00
04168             800.00    -3120.00
04169             760.00    -3120.00
04170             800.00    -3160.00
04171             840.00    -3200.00
04172             760.00    -3200.00
04173             840.00    -3200.00
04174             800.00    -3240.00
04175             840.00    -3240.00
04176             840.00    -3240.00
04177             840.00    -3240.00
04178             840.00    -3280.00
04179             840.00    -3280.00
04180             840.00    -3320.00
04181             840.00    -3320.00
04182             840.00    -3360.00
04183             840.00    -3320.00
04184             840.00    -3360.00
04185             880.00    -3360.00
04186             840.00    -3360.00
04187             880.00    -3400.00
04188             880.00    -3440.00
04189             840.00    -3400.00
04190             840.00    -3440.00
04191             880.00    -3440.00
04192             880.00    -3480.00
04193             880.00    -3480.00
04194             840.00    -3480.00
04195             880.00    -3520.00
04196             880.00    -3520.00
04197             840.00    -3480.00
04198             880.00    -3560.00
04199             880.00    -3560.00
04200             920.00    -3560.00
04201             880.00    -3560.00
04202             880.00    -3560.00
04203             880.00    -3600.00
04204             880.00    -3600.00
04205             880.00    -3600.00
04206             920.00    -3600.00
04207             920.00    -3640.00
04208             880.00    -3680.00
04209             920.00    -3680.00
04210             920.00    -3680.00
04211             920.00    -3680.00
04212             920.00    -3680.00
04213             920.00    -3720.00
04214             920.00    -3680.00
04215             920.00    -3720.00
04216             920.00    -3720.00
04217             920.00    -3720.00
04218             920.00    -3720.00
04219             960.00    -3760.00
04220             960.00    -3760.00
04221            1000.00    -3760.00
04222             960.00    -3760.00
04223            1000.00    -3760.00
04224             960.00    -3760.00
04225            1000.00    -3840.00
04226             960.00    -3840.00
04227            1000.00    -3840.00
04228            1000.00    -3800.00
04229            1000.00    -3840.00
04230            1000.00    -3840.00
04231            1000.00    -3840.00
04232            1000.00    -3840.00
04233            1000.00    -3880.00
04234            1040.00    -3840.00
04235            1040.00    -3880.00
04236            1000.00    -3880.00
04237            1040.00    -3920.00
04238            1000.00    -3920.00
04239            1040.00    -3880.00
04240            1000.00    -3880.00
04241            1040.00    -3880.00
04242            1040.00    -3920.00
04243            1040.00    -3920.00
04244            1040.00    -3920.00
04245            1040.00    -3920.00
04246            1040.00    -3920.00
04247            1040.00    -3920.00
04248            1040.00    -3920.00
04249            1000.00    -3920.00
04250            1040.00    -3960.00
04251            1040.00    -3960.00
04252            1040.00    -3920.00
04253            1040.00    -3920.00
04254            1040.00    -3920.00
04255            1040.00    -3920.00
04256            1040.00    -3960.00
04257            1040.00    -4000.00
04258            1040.00    -4000.00
04259            1040.00    -4000.00
04260            1040.00    -4000.00
04261            1040.00    -4000.00
04262            1040.00    -4040.00
04263            1040.00    -4000.00
04264            1000.00    -4000.00
04265            1040.00    -4000.00
04266            1040.00    -4000.00
04267            1040.00    -4000.00
04268            1040.00    -4000.00
04269            1040.00    -4000.00
04270            1040.00    -4000.00
04271            1040.00    -4000.00
04272            1040.00    -4000.00
04273            1040.00    -4040.00
04274            1040.00    -4000.00
04275            1040.00    -4000.00
04276            1000.00    -4000.00
04277            1040.00    -4000.00
04278            1040.00    -4000.00
04279            1040.00    -4000.00
04280            1040.00    -4000.00
04281            1040.00    -4040.00
04282            1040.00    -4000.00
04283            1040.00    -4000.00
04284            1040.00    -4000.00
04285            1040.00    -4000.00
04286            1040.00    -4000.00
04287            1040.00    -4000.00
04288            1040.00    -4000.00
04289            1040.00    -4000.00
04290            1040.00    -4000.00
04291            1040.00    -4000.00
04292            1040.00    -4000.00
04293            1080.00    -4000.00
04294            1040.00    -4000.00
04295            1040.00    -4000.00
04296            1040.00    -4000.00
04297            1040.00    -4000.00
04298            1040.00    -3960.00
04299            1040.00    -4000.00
04300            1040.00    -4000.00
04301            1040.00    -4000.00
04302            1040.00    -3960.00
04303            1040.00    -3960.00
04304            1040.00    -3920.00
04305            1040.00    -3920.00
04306            1040.00    -3960.00
04307            1040.00    -3920.00
04308            1080.00    -3920.00
04309            1040.00    -3920.00
04310            1040.00    -3920.00
04311            1040.00    -3920.00
04312            1040.00    -3920.00
04313            1040.00    -3920.00
04314            1040.00    -3920.00
04315            1040.00    -3880.00
04316            1040.00    -3880.00
04317            1040.00    -3920.00
04318            1040.00    -3880.00
04319            1040.00    -3880.00
04320            1040.00    -3880.00
04321            1040.00    -3880.00
04322            1040.00    -3880.00
04323            1040.00    -3840.00
04324            1000.00    -3840.00
04325            1000.00    -3840.00
04326            1040.00    -3840.00
04327            1040.00    -3840.00
04328            1040.00    -3840.00
04329            1000.00    -3840.00
04330            1000.00    -3800.00
04331            1000.00    -3800.00
04332            1040.00    -3800.00
04333            1000.00    -3760.00
04334            1000.00    -3760.00
04335            1000.00    -3760.00
04336            1000.00    -3760.00
04337            1000.00    -3760.00
04338            1000.00    -3720.00
04339            1000.00    -3720.00
04340            1000.00    -3720.00
04341            1000.00    -3720.00
04342             960.00    -3720.00
04343             960.00    -3680.00
04344            1000.00    -3680.00
04345             960.00    -3680.00
04346            1000.00    -3680.00
04347             960.00    -3640.00
04348             960.00    -3680.00
04349            1000.00    -3640.00
04350            1000.00    -3600.00
04351            1000.00    -3600.00
04352            1000.00    -3600.00
04353            1000.00    -3560.00
04354             960.00    -3560.00
04355             960.00    -3600.00
04356             920.00    -3560.00
04357             920.00    -3560.00
04358             920.00    -3480.00
04359             920.00    -3480.00
04360             920.00    -3480.00
04361             960.00    -3480.00
04362             920.00    -3480.00
04363             960.00    -3440.00
04364             920.00    -3440.00
04365             960.00    -3440.00
04366             920.00    -3400.00
04367             920.00    -3400.00
04368             920.00    -3400.00
04369             920.00    -3400.00
04370             920.00    -3360.00
04371             880.00    -3360.00
04372             880.00    -3360.00
04373             880.00    -3360.00
04374             920.00    -3280.00
04375             880.00    -3280.00
04376             880.00    -3280.00
04377             880.00    -3280.00
04378             880.00    -3280.00
04379             880.00    -3240.00
04380             880.00    -3240.00
04381             880.00    -3200.00
04382             880.00    -3200.00
04383             880.00    -3200.00
04384             840.00    -3160.00
04385             840.00    -3160.00
04386             840.00    -3160.00
04387             840.00    -3120.00
04388             840.00    -3120.00
04389             840.00    -3120.00
04390             800.00    -3080.00
04391             840.00    -3080.00
04392             840.00    -3040.00
04393             840.00    -3040.00
04394             840.00    -3040.00
04395             800.00    -3000.00
04396             800.00    -2960.00
04397             840.00    -2960.00
04398             840.00    -2960.00
04399             800.00    -2960.00
04400             800.00    -2920.00
04401             760.00    -2880.00
04402             760.00    -2880.00
04403             840.00    -2880.00
04404             760.00    -2880.00
04405             760.00    -2840.00
04406             760.00    -2800.00
04407             760.00    -2800.00
04408             760.00    -2760.00
04409             760.00    -2760.00
04410             720.00    -2760.00
04411             760.00    -2720.00
04412             720.00    -2720.00
04413             760.00    -2720.00
04414             720.00    -2640.00
04415             720.00    -2640.00
04416             720.00    -2640.00
04417             720.00    -2600.00
04418             720.00    -2600.00
04419             720.00    -2560.00
04420             720.00    -2560.00
04421             720.00    -2560.00
04422             720.00    -2520.00
04423             680.00    -2520.00
04424             680.00    -2480.00
04425             680.00    -2480.00
04426             680.00    -2440.00
04427             680.00    -2440.00
04428             680.00    -2400.00
04429             680.00    -2400.00
04430             680.00    -2360.00
04431             680.00    -2360.00
04432             680.00    -2320.00
04433             680.00    -2320.00
04434             680.00    -2280.00
04435             680.00    -2240.00
04436             600.00    -2240.00
04437             640.00    -2200.00
04438             600.00    -2160.00
04439             600.00    -2200.00
04440             600.00    -2160.00
04441             600.00    -2160.00
04442             600.00    -2120.00
04443             600.00    -2080.00
04444             600.00    -2080.00
04445             600.00    -2080.00
04446             560.00    -2040.00
04447             560.00    -2000.00
04448             560.00    -2000.00
04449             560.00    -2000.00
04450             560.00    -1960.00
04451             560.00    -1920.00
04452             560.00    -1920.00
04453             520.00    -1920.00
04454             520.00    -1880.00
04455             520.00    -1840.00
04456             480.00    -1840.00
04457             520.00    -1840.00
04458             520.00    -1760.00
04459             520.00    -1800.00
04460             520.00    -1760.00
04461             480.00    -1720.00
04462             520.00    -1680.00
04463             480.00    -1640.00
04464             520.00    -1680.00
04465             440.00    -1600.00
04466             480.00    -1600.00
04467             440.00    -1600.00
04468             440.00    -1560.00
04469             440.00    -1520.00
04470             440.00    -1480.00
04471             440.00    -1480.00
04472             440.00    -1480.00
04473             400.00    -1440.00
04474             440.00    -1440.00
04475             400.00    -1400.00
04476             400.00    -1360.00
04477             400.00    -1360.00
04478             400.00    -1320.00
04479             400.00    -1320.00
04480             400.00    -1280.00
04481             400.00    -1280.00
04482             360.00    -1240.00
04483             400.00    -1200.00
04484             400.00    -1160.00
04485             360.00    -1160.00
04486             360.00    -1160.00
04487             360.00    -1120.00
04488             360.00    -1120.00
04489             360.00    -1080.00
04490             360.00    -1040.00
04491             360.00    -1000.00
04492             320.00    -1000.00
04493             360.00     -960.00
04494             320.00     -920.00
04495             360.00     -920.00
04496             240.00     -880.00
04497             320.00     -840.00
04498             280.00     -840.00
04499             280.00     -840.00
04500             280.00     -800.00
04501             280.00     -800.00
04502             240.00     -720.00
04503             280.00     -760.00
04504             240.00     -720.00
04505             240.00     -680.00
04506             240.00     -640.00
04507             240.00     -640.00
04508             240.00     -640.00
04509             200.00     -600.00
04510             240.00     -560.00
04511             200.00     -560.00
04512             200.00     -520.00
04513             200.00     -520.00
04514             200.00     -480.00
04515             200.00     -480.00
04516             200.00     -400.00
04517             120.00     -400.00
04518             160.00     -400.00
04519             120.00     -360.00
04520             120.00     -320.00
04521             120.00     -320.00
04522             120.00     -280.00
04523             120.00     -280.00
04524             120.00     -200.00
04525              80.00     -200.00
04526              80.00     -200.00
04527              80.00     -160.00
04528              80.00     -120.00
04529              80.00      -80.00
04530              80.00      -80.00
04531              40.00      -80.00
04532              80.00      -40.00
04533              80.00        0.00
04534              80.00        0.00
04535              40.00       40.00
04536              40.00       80.00
04537              40.00       80.00
04538              40.00       80.00
04539              40.00      120.00
04540               0.00      160.00
04541              40.00      160.00
04542               0.00      160.00
04543              40.00      240.00
04544              40.00      320.00
04545              40.00      360.00
04546             -40.00      280.00
04547             -80.00      280.00
04548            -120.00      360.00
04549             -40.00      400.00
04550             -40.00      400.00
04551             -40.00      440.00
04552             -40.00      480.00
04553             -40.00      480.00
04554            -120.00      480.00
04555             -80.00      560.00
04556             -80.00      600.00
04557             -80.00      600.00
04558            -120.00      600.00
04559            -120.00      640.00
04560            -120.00      640.00
04561            -120.00      640.00
04562            -120.00      720.00
04563            -120.00      760.00
04564            -120.00      760.00
04565            -120.00      760.00
04566            -120.00      800.00
04567            -120.00      840.00
04568            -120.00      840.00
04569            -200.00      880.00
04570            -160.00      880.00
04571            -200.00      920.00
04572            -200.00      960.00
04573            -200.00     1000.00
04574            -200.00     1000.00
04575            -200.00     1040.00
04576            -200.00     1080.00
04577            -240.00     1040.00
04578            -240.00     1120.00
04579            -240.00     1120.00
04580            -240.00     1160.00
04581            -240.00     1200.00
04582            -240.00     1200.00
04583            -280.00     1200.00
04584            -240.00     1240.00
04585            -280.00     1280.00
04586            -280.00     1280.00
04587            -280.00     1320.00
04588            -280.00     1360.00
04589            -360.00     1360.00
04590            -280.00     1400.00
04591            -360.00     1360.00
04592            -360.00     1440.00
04593            -360.00     1440.00
04594            -360.00     1480.00
04595            -320.00     1520.00
04596            -400.00     1520.00
04597            -360.00     1560.00
04598            -400.00     1600.00
04599            -360.00     1600.00
04600            -400.00     1600.00
04601            -400.00     1640.00
04602            -400.00     1680.00
04603            -440.00     1680.00
04604            -400.00     1720.00
04605            -400.00     1720.00
04606            -440.00     1760.00
04607            -440.00     1800.00
04608            -440.00     1800.00
04609            -400.00     1840.00
04610            -440.00     1840.00
04611            -440.00     1880.00
04612            -440.00     1920.00
04613            -440.00     1920.00
04614            -440.00     1920.00
04615            -440.00     1960.00
04616            -440.00     2000.00
04617            -480.00     2000.00
04618            -520.00     2040.00
04619            -520.00     2040.00
04620            -480.00     2080.00
04621            -520.00     2080.00
04622            -440.00     2080.00
04623            -480.00     2120.00
04624            -520.00     2160.00
04625            -520.00     2160.00
04626            -520.00     2160.00
04627            -560.00     2200.00
04628            -520.00     2240.00
04629            -560.00     2240.00
04630            -560.00     2280.00
04631            -520.00     2320.00
04632            -560.00     2280.00
04633            -560.00     2320.00
04634            -560.00     2360.00
04635            -560.00     2400.00
04636            -560.00     2400.00
04637            -560.00     2400.00
04638            -560.00     2440.00
04639            -600.00     2480.00
04640            -560.00     2480.00
04641            -560.00     2480.00
04642            -600.00     2520.00
04643            -600.00     2560.00
04644            -600.00     2560.00
04645            -600.00     2560.00
04646            -600.00     2600.00
04647            -600.00     2640.00
04648            -640.00     2640.00
04649            -600.00     2640.00
04650            -680.00     2640.00
04651            -680.00     2680.00
04652            -680.00     2680.00
04653            -680.00     2720.00
04654            -720.00     2720.00
04655            -680.00     2760.00
04656            -720.00     2800.00
04657            -720.00     2800.00
04658            -720.00     2840.00
04659            -680.00     2840.00
04660            -720.00     2840.00
04661            -720.00     2880.00
04662            -720.00     2880.00
04663            -720.00     2920.00
04664            -720.00     2920.00
04665            -720.00     2960.00
04666            -760.00     2960.00
04667            -720.00     2960.00
04668            -720.00     3000.00
04669            -760.00     2960.00
04670            -760.00     3000.00
04671            -760.00     3040.00
04672            -760.00     3040.00
04673            -760.00     3040.00
04674            -760.00     3120.00
04675            -760.00     3120.00
04676            -760.00     3120.00
04677            -760.00     3120.00
04678            -760.00     3160.00
04679            -760.00     3160.00
04680            -800.00     3200.00
04681            -760.00     3200.00
04682            -760.00     3200.00
04683            -800.00     3200.00
04684            -760.00     3240.00
04685            -840.00     3280.00
04686            -840.00     3280.00
04687            -840.00     3280.00
04688            -840.00     3320.00
04689            -840.00     3280.00
04690            -840.00     3320.00
04691            -840.00     3320.00
04692            -840.00     3360.00
04693            -840.00     3360.00
04694            -880.00     3360.00
04695            -840.00     3400.00
04696            -880.00     3440.00
04697            -840.00     3440.00
04698            -880.00     3440.00
04699            -840.00     3440.00
04700            -840.00     3480.00
04701            -880.00     3440.00
04702            -880.00     3480.00
04703            -880.00     3480.00
04704            -880.00     3520.00
04705            -880.00     3480.00
04706            -880.00     3520.00
04707            -880.00     3520.00
04708            -880.00     3560.00
04709            -880.00     3560.00
04710            -880.00     3600.00
04711            -880.00     3560.00
04712            -920.00     3600.00
04713            -880.00     3640.00
04714            -920.00     3640.00
04715            -920.00     3640.00
04716            -920.00     3640.00
04717            -920.00     3680.00
04718            -920.00     3680.00
04719            -920.00     3680.00
04720            -920.00     3680.00
04721            -920.00     3680.00
04722            -920.00     3680.00
04723            -920.00     3720.00
04724            -920.00     3680.00
04725            -920.00     3720.00
04726            -920.00     3760.00
04727            -960.00     3760.00
04728            -920.00     3760.00
04729           -1000.00     3760.00
04730            -920.00     3760.00
04731            -920.00     3800.00
04732           -1000.00     3800.00
04733            -960.00     3800.00
04734           -1000.00     3800.00
04735           -1000.00     3800.00
04736            -960.00     3800.00
04737            -960.00     3840.00
04738           -1000.00     3840.00
04739           -1000.00     3840.00
04740           -1000.00     3840.00
04741           -1000.00     3840.00
04742           -1000.00     3840.00
04743           -1000.00     3880.00
04744           -1040.00     3840.00
04745           -1000.00     3880.00
04746           -1000.00     3920.00
04747           -1000.00     3880.00
04748           -1000.00     3920.00
04749           -1000.00     3920.00
04750           -1000.00     3920.00
04751           -1040.00     3920.00
04752           -1000.00     3920.00
04753           -1000.00     3960.00
04754           -1040.00     3920.00
04755           -1000.00     3920.00
04756           -1040.00     3960.00
04757           -1000.00     3920.00
04758           -1000.00     3960.00
04759           -1040.00     3960.00
04760           -1000.00     4000.00
04761           -1040.00     3960.00
04762           -1000.00     3960.00
04763           -1000.00     3960.00
04764           -1000.00     3960.00
04765           -1040.00     4000.00
04766           -1000.00     4000.00
04767           -1040.00     4000.00
04768           -1040.00     3960.00
04769           -1040.00     4000.00
04770           -1040.00     4000.00
04771           -1040.00     4000.00
04772           -1040.00     4000.00
04773           -1040.00     4040.00
04774           -1000.00     4000.00
04775           -1040.00     4000.00
04776           -1040.00     4000.00
04777           -1040.00     4000.00
04778           -1040.00     4000.00
04779           -1040.00     4000.00
04780           -1080.00     4000.00
04781           -1080.00     4000.00
04782           -1040.00     4000.00
04783           -1080.00     4000.00
04784           -1040.00     3960.00
04785           -1080.00     4000.00
04786           -1040.00     4040.00
04787           -1040.00     4000.00
04788           -1040.00     4000.00
04789           -1040.00     4000.00
04790           -1040.00     4000.00
04791           -1040.00     4040.00
04792           -1040.00     4000.00
04793           -1040.00     4000.00
04794           -1040.00     4000.00
04795           -1080.00     4000.00
04796           -1040.00     4000.00
04797           -1080.00     4000.00
04798           -1040.00     4000.00
04799           -1040.00     4000.00
04800           -1040.00     4000.00
04801           -1080.00     4000.00
04802           -1040.00     4000.00
04803           -1040.00     3960.00
04804           -1040.00     4000.00
04805           -1040.00     4000.00
04806           -1040.00     4000.00
04807           -1040.00     3960.00
04808           -1040.00     3960.00
04809           -1040.00     3960.00
04810           -1040.00     3960.00
04811           -1040.00     3960.00
04812           -1040.00     3960.00
04813           -1040.00     3960.00
04814           -1040.00     3960.00
04815           -1040.00     3920.00
04816           -1040.00     3960.00
04817           -1040.00     3960.00
04818           -1040.00     3920.00
04819           -1040.00     3920.00
04820           -1040.00     3920.00
04821           -1000.00     3920.00
04822           -1040.00     3920.00
04823           -1000.00     3920.00
04824           -1040.00     3920.00
04825           -1040.00     3920.00
04826           -1000.00     3920.00
04827           -1000.00     3880.00
04828           -1000.00     3880.00
04829           -1040.00     3880.00
04830           -1000.00     3880.00
04831           -1040.00     3880.00
04832           -1000.00     3840.00
04833           -1000.00     3840.00
04834           -1000.00     3840.00
04835           -1000.00     3840.00
04836           -1000.00     3840.00
04837           -1000.00     3840.00
04838           -1000.00     3800.00
04839           -1000.00     3800.00
04840           -1000.00     3800.00
04841           -1000.00     3800.00
04842           -1000.00     3760.00
04843           -1040.00     3760.00
04844           -1000.00     3760.00
04845           -1000.00     3760.00
04846           -1000.00     3760.00
04847           -1000.00     3720.00
04848           -1000.00     3720.00
04849           -1000.00     3760.00
04850           -1000.00     3680.00
04851           -1000.00     3720.00
04852           -1000.00     3680.00
04853           -1000.00     3680.00
04854           -1000.00     3680.00
04855           -1000.00     3640.00
04856            -960.00     3680.00
04857           -1000.00     3640.00
04858            -960.00     3640.00
04859            -920.00     3600.00
04860            -960.00     3640.00
04861            -960.00     3600.00
04862            -920.00     3600.00
04863            -920.00     3600.00
04864            -920.00     3560.00
04865           -1000.00     3520.00
04866            -920.00     3560.00
04867            -920.00     3520.00
04868            -920.00     3520.00
04869            -920.00     3480.00
04870            -920.00     3480.00
04871            -920.00     3480.00
04872            -920.00     3440.00
04873            -920.00     3440.00
04874            -920.00     3440.00
04875            -880.00     3440.00
04876            -920.00     3440.00
04877            -920.00     3440.00
04878            -920.00     3360.00
04879            -920.00     3360.00
04880            -880.00     3360.00
04881            -920.00     3320.00
04882            -920.00     3360.00
04883            -920.00     3320.00
04884            -880.00     3280.00
04885            -880.00     3320.00
04886            -880.00     3280.00
04887            -880.00     3280.00
04888            -880.00     3280.00
04889            -880.00     3240.00
04890            -880.00     3240.00
04891            -880.00     3200.00
04892            -880.00     3200.00
04893            -880.00     3200.00
04894            -880.00     3160.00
04895            -840.00     3160.00
04896            -880.00     3160.00
04897            -840.00     3120.00
04898            -840.00     3120.00
04899            -840.00     3120.00
04900            -840.00     3040.00
04901            -840.00     3040.00
04902            -840.00     3040.00
04903            -840.00     3040.00
04904            -840.00     3000.00
04905            -760.00     3000.00
04906            -800.00     2960.00
04907            -760.00     2960.00
04908            -760.00     2920.00
04909            -800.00     2920.00
04910            -760.00     2880.00
04911            -800.00     2920.00
04912            -800.00     2880.00
04913            -760.00     2920.00
04914            -760.00     2840.00
04915            -760.00     2800.00
04916            -760.00     2800.00
04917            -800.00     2760.00
04918            -720.00     2760.00
04919            -760.00     2720.00
04920            -760.00     2720.00
04921            -760.00     2680.00
04922            -760.00     2680.00
04923            -760.00     2680.00
04924            -720.00     2640.00
04925            -720.00     2640.00
04926            -720.00     2600.00
04927            -720.00     2600.00
04928            -720.00     2560.00
04929            -720.00     2560.00
04930            -720.00     2560.00
04931            -720.00     2520.00
04932            -720.00     2520.00
04933            -720.00     2480.00
04934            -720.00     2480.00
04935            -640.00     2440.00
04936            -720.00     2440.00
04937            -680.00     2400.00
04938            -680.00     2400.00
04939            -640.00     2360.00
04940            -680.00     2360.00
04941            -640.00     2320.00
04942            -600.00     2320.00
04943            -600.00     2280.00
04944            -600.00     2240.00
04945            -600.00     2240.00
04946            -600.00     2240.00
04947            -600.00     2200.00
04948            -600.00     2200.00
04949            -600.00     2160.00
04950            -600.00     2160.00
04951            -600.00     2080.00
04952            -560.00     2120.00
04953            -600.00     2080.00
04954            -600.00     2040.00
04955            -560.00     2000.00
04956            -560.00     2000.00
04957            -560.00     2000.00
04958            -560.00     2000.00
04959            -560.00     1920.00
04960            -560.00     1960.00
04961            -560.00     1920.00
04962            -560.00     1880.00
04963            -560.00     1840.00
04964            -520.00     1840.00
04965            -520.00     1840.00
04966            -520.00     1800.00
04967            -520.00     1760.00
04968            -440.00     1760.00
04969            -520.00     1720.00
04970            -520.00     1720.00
04971            -440.00     1680.00
04972            -440.00     1680.00
04973            -520.00     1640.00
04974            -480.00     1600.00
04975            -440.00     1600.00
04976            -440.00     1560.00
04977            -440.00     1560.00
04978            -440.00     1520.00
04979            -440.00     1520.00
04980            -440.00     1520.00
04981            -440.00     1440.00
04982            -440.00     1440.00
04983            -440.00     1400.00
04984            -400.00     1400.00
04985            -400.00     1360.00
04986            -400.00     1360.00
04987            -400.00     1320.00
04988            -440.00     1280.00
04989            -400.00     1280.00
04990            -400.00     1280.00
04991            -400.00     1240.00
04992            -440.00     1200.00
04993            -400.00     1200.00
04994            -360.00     1160.00
04995            -400.00     1160.00
04996            -360.00     1120.00
04997            -360.00     1080.00
04998            -360.00     1080.00
04999            -360.00     1040.00
05000            -280.00     1000.00
