Unit:(mV)
                     CH1         CH2
Frequency              ?  98.318 kHz
00001             200.00    -1200.00
00002             200.00    -1200.00
00003             200.00    -1200.00
00004             200.00    -1280.00
00005             200.00    -1280.00
00006             240.00    -1320.00
00007             200.00    -1320.00
00008             240.00    -1360.00
00009             240.00    -1360.00
00010             240.00    -1400.00
00011             200.00    -1440.00
00012             240.00    -1440.00
00013             240.00    -1480.00
00014             240.00    -1480.00
00015             240.00    -1520.00
00016             240.00    -1560.00
00017             280.00    -1560.00
00018             240.00    -1600.00
00019             280.00    -1640.00
00020             280.00    -1640.00
00021             280.00    -1680.00
00022             280.00    -1680.00
00023             280.00    -1680.00
00024             280.00    -1720.00
00025             360.00    -1760.00
00026             280.00    -1800.00
00027             280.00    -1800.00
00028             360.00    -1840.00
00029             360.00    -1840.00
00030             360.00    -1880.00
00031             360.00    -1920.00
00032             360.00    -1920.00
00033             320.00    -1960.00
00034             360.00    -1960.00
00035             320.00    -2000.00
00036             360.00    -2000.00
00037             360.00    -2040.00
00038             360.00    -2080.00
00039             360.00    -2120.00
00040             360.00    -2120.00
00041             360.00    -2120.00
00042             360.00    -2160.00
00043             360.00    -2160.00
00044             400.00    -2160.00
00045             400.00    -2240.00
00046             400.00    -2240.00
00047             360.00    -2240.00
00048             400.00    -2280.00
00049             400.00    -2320.00
00050             400.00    -2360.00
00051             400.00    -2360.00
00052             400.00    -2400.00
00053             400.00    -2400.00
00054             400.00    -2440.00
00055             400.00    -2440.00
00056             440.00    -2440.00
00057             400.00    -2480.00
00058             440.00    -2480.00
00059             440.00    -2520.00
00060             440.00    -2560.00
00061             440.00    -2560.00
00062             440.00    -2560.00
00063             440.00    -2600.00
00064             520.00    -2600.00
00065             480.00    -2640.00
00066             520.00    -2640.00
00067             480.00    -2680.00
00068             520.00    -2720.00
00069             520.00    -2720.00
00070             520.00    -2720.00
00071             520.00    -2760.00
00072             520.00    -2760.00
00073             520.00    -2800.00
00074             520.00    -2840.00
00075             520.00    -2840.00
00076             520.00    -2880.00
00077             520.00    -2880.00
00078             520.00    -2920.00
00079             520.00    -2920.00
00080             520.00    -2920.00
00081             520.00    -2960.00
00082             520.00    -2960.00
00083             560.00    -2960.00
00084             520.00    -2960.00
00085             560.00    -3040.00
00086             520.00    -3040.00
00087             560.00    -3040.00
00088             560.00    -3080.00
00089             560.00    -3080.00
00090             560.00    -3120.00
00091             520.00    -3120.00
00092             560.00    -3120.00
00093             560.00    -3160.00
00094             560.00    -3200.00
00095             560.00    -3200.00
00096             560.00    -3240.00
00097             560.00    -3240.00
00098             560.00    -3240.00
00099             560.00    -3280.00
00100             560.00    -3280.00
00101             560.00    -3280.00
00102             560.00    -3320.00
00103             600.00    -3320.00
00104             600.00    -3360.00
00105             600.00    -3360.00
00106             600.00    -3360.00
00107             600.00    -3400.00
00108             600.00    -3440.00
00109             600.00    -3440.00
00110             600.00    -3400.00
00111             640.00    -3440.00
00112             600.00    -3440.00
00113             680.00    -3480.00
00114             640.00    -3520.00
00115             600.00    -3480.00
00116             680.00    -3520.00
00117             600.00    -3520.00
00118             640.00    -3560.00
00119             640.00    -3560.00
00120             680.00    -3560.00
00121             680.00    -3560.00
00122             680.00    -3600.00
00123             680.00    -3600.00
00124             680.00    -3640.00
00125             680.00    -3640.00
00126             680.00    -3680.00
00127             680.00    -3680.00
00128             680.00    -3680.00
00129             680.00    -3680.00
00130             720.00    -3680.00
00131             680.00    -3720.00
00132             680.00    -3720.00
00133             680.00    -3760.00
00134             680.00    -3760.00
00135             720.00    -3760.00
00136             720.00    -3760.00
00137             720.00    -3760.00
00138             720.00    -3800.00
00139             720.00    -3840.00
00140             720.00    -3840.00
00141             720.00    -3840.00
00142             720.00    -3840.00
00143             720.00    -3880.00
00144             720.00    -3840.00
00145             720.00    -3840.00
00146             720.00    -3880.00
00147             720.00    -3880.00
00148             720.00    -3880.00
00149             720.00    -3920.00
00150             720.00    -3920.00
00151             720.00    -3920.00
00152             720.00    -3920.00
00153             720.00    -3920.00
00154             720.00    -4000.00
00155             760.00    -3960.00
00156             760.00    -3960.00
00157             760.00    -4000.00
00158             720.00    -4000.00
00159             720.00    -4000.00
00160             760.00    -4000.00
00161             720.00    -4000.00
00162             760.00    -4040.00
00163             720.00    -4040.00
00164             720.00    -4040.00
00165             760.00    -4040.00
00166             720.00    -4040.00
00167             720.00    -4040.00
00168             760.00    -4040.00
00169             720.00    -4040.00
00170             720.00    -4080.00
00171             760.00    -4040.00
00172             760.00    -4080.00
00173             760.00    -4080.00
00174             720.00    -4080.00
00175             760.00    -4120.00
00176             720.00    -4080.00
00177             760.00    -4120.00
00178             760.00    -4080.00
00179             720.00    -4080.00
00180             760.00    -4120.00
00181             760.00    -4080.00
00182             720.00    -4160.00
00183             760.00    -4120.00
00184             760.00    -4160.00
00185             760.00    -4160.00
00186             760.00    -4160.00
00187             800.00    -4160.00
00188             760.00    -4160.00
00189             760.00    -4160.00
00190             760.00    -4160.00
00191             760.00    -4160.00
00192             760.00    -4200.00
00193             800.00    -4160.00
00194             760.00    -4160.00
00195             760.00    -4160.00
00196             760.00    -4200.00
00197             760.00    -4200.00
00198             760.00    -4200.00
00199             760.00    -4160.00
00200             760.00    -4200.00
00201             760.00    -4200.00
00202             800.00    -4160.00
00203             800.00    -4200.00
00204             760.00    -4160.00
00205             800.00    -4200.00
00206             760.00    -4200.00
00207             840.00    -4160.00
00208             800.00    -4200.00
00209             840.00    -4200.00
00210             840.00    -4200.00
00211             800.00    -4160.00
00212             800.00    -4160.00
00213             840.00    -4200.00
00214             760.00    -4200.00
00215             800.00    -4200.00
00216             840.00    -4160.00
00217             840.00    -4160.00
00218             840.00    -4200.00
00219             760.00    -4160.00
00220             800.00    -4160.00
00221             800.00    -4160.00
00222             760.00    -4160.00
00223             800.00    -4200.00
00224             800.00    -4160.00
00225             840.00    -4160.00
00226             760.00    -4160.00
00227             760.00    -4160.00
00228             760.00    -4160.00
00229             760.00    -4160.00
00230             760.00    -4160.00
00231             760.00    -4160.00
00232             800.00    -4160.00
00233             760.00    -4160.00
00234             840.00    -4120.00
00235             760.00    -4120.00
00236             800.00    -4120.00
00237             760.00    -4160.00
00238             760.00    -4080.00
00239             800.00    -4080.00
00240             760.00    -4120.00
00241             760.00    -4160.00
00242             760.00    -4080.00
00243             760.00    -4080.00
00244             760.00    -4080.00
00245             760.00    -4040.00
00246             760.00    -4080.00
00247             760.00    -4040.00
00248             760.00    -4040.00
00249             760.00    -4080.00
00250             760.00    -4040.00
00251             760.00    -4040.00
00252             760.00    -4040.00
00253             760.00    -4040.00
00254             760.00    -4000.00
00255             760.00    -4000.00
00256             760.00    -4000.00
00257             760.00    -4000.00
00258             760.00    -3960.00
00259             760.00    -4000.00
00260             760.00    -3960.00
00261             720.00    -3920.00
00262             760.00    -3920.00
00263             720.00    -3960.00
00264             720.00    -3920.00
00265             760.00    -3960.00
00266             760.00    -3880.00
00267             720.00    -3920.00
00268             760.00    -3880.00
00269             760.00    -3920.00
00270             760.00    -3880.00
00271             720.00    -3880.00
00272             760.00    -3880.00
00273             720.00    -3880.00
00274             720.00    -3840.00
00275             720.00    -3840.00
00276             760.00    -3800.00
00277             720.00    -3800.00
00278             720.00    -3840.00
00279             720.00    -3760.00
00280             720.00    -3760.00
00281             720.00    -3760.00
00282             720.00    -3720.00
00283             720.00    -3720.00
00284             760.00    -3720.00
00285             720.00    -3720.00
00286             720.00    -3720.00
00287             720.00    -3720.00
00288             720.00    -3680.00
00289             720.00    -3680.00
00290             720.00    -3680.00
00291             720.00    -3680.00
00292             720.00    -3640.00
00293             720.00    -3600.00
00294             720.00    -3600.00
00295             680.00    -3600.00
00296             680.00    -3560.00
00297             720.00    -3560.00
00298             720.00    -3560.00
00299             680.00    -3520.00
00300             720.00    -3520.00
00301             680.00    -3480.00
00302             680.00    -3520.00
00303             680.00    -3480.00
00304             680.00    -3480.00
00305             680.00    -3440.00
00306             680.00    -3440.00
00307             680.00    -3440.00
00308             680.00    -3440.00
00309             680.00    -3400.00
00310             680.00    -3400.00
00311             680.00    -3360.00
00312             600.00    -3360.00
00313             680.00    -3320.00
00314             640.00    -3320.00
00315             680.00    -3280.00
00316             680.00    -3280.00
00317             680.00    -3280.00
00318             640.00    -3240.00
00319             600.00    -3240.00
00320             680.00    -3240.00
00321             600.00    -3200.00
00322             640.00    -3200.00
00323             640.00    -3200.00
00324             600.00    -3120.00
00325             600.00    -3120.00
00326             640.00    -3120.00
00327             600.00    -3080.00
00328             600.00    -3120.00
00329             600.00    -3040.00
00330             600.00    -3080.00
00331             600.00    -3040.00
00332             600.00    -3040.00
00333             560.00    -2960.00
00334             560.00    -3000.00
00335             600.00    -2960.00
00336             600.00    -2960.00
00337             560.00    -2920.00
00338             600.00    -2880.00
00339             600.00    -2920.00
00340             560.00    -2880.00
00341             560.00    -2880.00
00342             600.00    -2840.00
00343             560.00    -2800.00
00344             600.00    -2800.00
00345             560.00    -2760.00
00346             560.00    -2720.00
00347             520.00    -2720.00
00348             560.00    -2720.00
00349             520.00    -2720.00
00350             560.00    -2680.00
00351             560.00    -2640.00
00352             520.00    -2640.00
00353             520.00    -2640.00
00354             560.00    -2600.00
00355             520.00    -2600.00
00356             520.00    -2560.00
00357             520.00    -2520.00
00358             520.00    -2560.00
00359             520.00    -2480.00
00360             520.00    -2480.00
00361             520.00    -2440.00
00362             480.00    -2400.00
00363             520.00    -2400.00
00364             520.00    -2400.00
00365             520.00    -2360.00
00366             480.00    -2360.00
00367             440.00    -2320.00
00368             480.00    -2280.00
00369             440.00    -2280.00
00370             480.00    -2240.00
00371             480.00    -2200.00
00372             440.00    -2200.00
00373             440.00    -2160.00
00374             440.00    -2160.00
00375             440.00    -2120.00
00376             440.00    -2080.00
00377             440.00    -2120.00
00378             400.00    -2080.00
00379             440.00    -2080.00
00380             400.00    -2000.00
00381             440.00    -2040.00
00382             400.00    -2000.00
00383             400.00    -1960.00
00384             400.00    -1960.00
00385             400.00    -1960.00
00386             400.00    -1920.00
00387             360.00    -1880.00
00388             400.00    -1840.00
00389             400.00    -1840.00
00390             400.00    -1840.00
00391             360.00    -1800.00
00392             360.00    -1760.00
00393             360.00    -1760.00
00394             360.00    -1760.00
00395             400.00    -1720.00
00396             360.00    -1680.00
00397             400.00    -1680.00
00398             360.00    -1640.00
00399             360.00    -1600.00
00400             360.00    -1600.00
00401             360.00    -1560.00
00402             360.00    -1520.00
00403             320.00    -1520.00
00404             360.00    -1480.00
00405             280.00    -1480.00
00406             360.00    -1440.00
00407             360.00    -1440.00
00408             320.00    -1360.00
00409             360.00    -1360.00
00410             320.00    -1360.00
00411             320.00    -1320.00
00412             320.00    -1320.00
00413             280.00    -1280.00
00414             280.00    -1280.00
00415             280.00    -1240.00
00416             280.00    -1200.00
00417             280.00    -1160.00
00418             280.00    -1160.00
00419             280.00    -1120.00
00420             280.00    -1120.00
00421             240.00    -1080.00
00422             240.00    -1040.00
00423             240.00    -1000.00
00424             240.00    -1000.00
00425             240.00     -960.00
00426             240.00     -920.00
00427             240.00     -880.00
00428             200.00     -880.00
00429             240.00     -880.00
00430             200.00     -840.00
00431             240.00     -880.00
00432             200.00     -800.00
00433             200.00     -760.00
00434             200.00     -720.00
00435             200.00     -720.00
00436             160.00     -720.00
00437             200.00     -680.00
00438             160.00     -640.00
00439             200.00     -640.00
00440             160.00     -600.00
00441             160.00     -560.00
00442             120.00     -560.00
00443             120.00     -520.00
00444             120.00     -480.00
00445             120.00     -520.00
00446             120.00     -480.00
00447              80.00     -400.00
00448             120.00     -400.00
00449             120.00     -400.00
00450              80.00     -360.00
00451              80.00     -320.00
00452              80.00     -280.00
00453             120.00     -280.00
00454              80.00     -240.00
00455              80.00     -200.00
00456              80.00     -160.00
00457              80.00     -160.00
00458              80.00     -160.00
00459              40.00     -160.00
00460              80.00      -80.00
00461              80.00      -80.00
00462              40.00      -40.00
00463              80.00        0.00
00464              80.00        0.00
00465              40.00        0.00
00466              80.00       40.00
00467              40.00       80.00
00468              40.00      120.00
00469              40.00      120.00
00470              40.00      160.00
00471              40.00      160.00
00472              40.00      240.00
00473              40.00      280.00
00474              40.00      280.00
00475              40.00      360.00
00476               0.00      320.00
00477             -80.00      280.00
00478             -40.00      400.00
00479              40.00      400.00
00480             -40.00      440.00
00481             -40.00      440.00
00482               0.00      480.00
00483             -40.00      480.00
00484             -80.00      480.00
00485             -40.00      560.00
00486             -40.00      600.00
00487             -80.00      600.00
00488             -80.00      640.00
00489            -120.00      640.00
00490             -80.00      680.00
00491             -80.00      680.00
00492            -120.00      720.00
00493            -120.00      760.00
00494             -80.00      800.00
00495            -120.00      800.00
00496            -120.00      840.00
00497            -120.00      880.00
00498            -120.00      880.00
00499            -120.00      920.00
00500            -120.00      920.00
00501            -200.00      960.00
00502            -120.00      960.00
00503            -120.00     1040.00
00504            -200.00     1040.00
00505            -160.00     1080.00
00506            -160.00     1120.00
00507            -160.00     1120.00
00508            -120.00     1120.00
00509            -160.00     1160.00
00510            -200.00     1200.00
00511            -200.00     1200.00
00512            -200.00     1240.00
00513            -200.00     1280.00
00514            -200.00     1280.00
00515            -160.00     1320.00
00516            -200.00     1360.00
00517            -240.00     1400.00
00518            -200.00     1400.00
00519            -240.00     1440.00
00520            -200.00     1440.00
00521            -240.00     1480.00
00522            -240.00     1480.00
00523            -240.00     1520.00
00524            -240.00     1520.00
00525            -240.00     1560.00
00526            -240.00     1600.00
00527            -240.00     1640.00
00528            -240.00     1640.00
00529            -240.00     1680.00
00530            -240.00     1680.00
00531            -280.00     1680.00
00532            -240.00     1720.00
00533            -280.00     1760.00
00534            -240.00     1760.00
00535            -280.00     1800.00
00536            -280.00     1800.00
00537            -280.00     1840.00
00538            -280.00     1840.00
00539            -280.00     1880.00
00540            -280.00     1880.00
00541            -280.00     1920.00
00542            -360.00     1960.00
00543            -360.00     2000.00
00544            -360.00     2040.00
00545            -320.00     2040.00
00546            -360.00     2080.00
00547            -280.00     2080.00
00548            -360.00     2080.00
00549            -400.00     2120.00
00550            -360.00     2160.00
00551            -400.00     2160.00
00552            -400.00     2160.00
00553            -360.00     2200.00
00554            -360.00     2240.00
00555            -400.00     2240.00
00556            -400.00     2280.00
00557            -400.00     2280.00
00558            -400.00     2320.00
00559            -400.00     2320.00
00560            -400.00     2400.00
00561            -400.00     2360.00
00562            -400.00     2400.00
00563            -440.00     2400.00
00564            -400.00     2480.00
00565            -440.00     2480.00
00566            -440.00     2480.00
00567            -440.00     2520.00
00568            -440.00     2560.00
00569            -440.00     2520.00
00570            -440.00     2560.00
00571            -440.00     2560.00
00572            -440.00     2640.00
00573            -440.00     2640.00
00574            -440.00     2640.00
00575            -480.00     2680.00
00576            -480.00     2680.00
00577            -440.00     2720.00
00578            -440.00     2720.00
00579            -440.00     2760.00
00580            -480.00     2800.00
00581            -520.00     2800.00
00582            -520.00     2800.00
00583            -480.00     2840.00
00584            -520.00     2880.00
00585            -520.00     2920.00
00586            -520.00     2880.00
00587            -520.00     2920.00
00588            -520.00     2920.00
00589            -560.00     2960.00
00590            -560.00     2960.00
00591            -560.00     3000.00
00592            -520.00     3000.00
00593            -520.00     3000.00
00594            -520.00     3040.00
00595            -560.00     3040.00
00596            -560.00     3080.00
00597            -520.00     3080.00
00598            -560.00     3120.00
00599            -560.00     3120.00
00600            -560.00     3160.00
00601            -560.00     3160.00
00602            -560.00     3200.00
00603            -560.00     3160.00
00604            -560.00     3200.00
00605            -560.00     3200.00
00606            -560.00     3200.00
00607            -560.00     3280.00
00608            -600.00     3280.00
00609            -600.00     3280.00
00610            -560.00     3320.00
00611            -600.00     3320.00
00612            -560.00     3320.00
00613            -600.00     3360.00
00614            -560.00     3360.00
00615            -600.00     3360.00
00616            -600.00     3360.00
00617            -600.00     3400.00
00618            -600.00     3440.00
00619            -600.00     3440.00
00620            -640.00     3440.00
00621            -600.00     3480.00
00622            -600.00     3480.00
00623            -600.00     3480.00
00624            -640.00     3520.00
00625            -600.00     3520.00
00626            -640.00     3560.00
00627            -680.00     3560.00
00628            -640.00     3560.00
00629            -640.00     3600.00
00630            -680.00     3600.00
00631            -640.00     3640.00
00632            -680.00     3640.00
00633            -680.00     3640.00
00634            -680.00     3640.00
00635            -680.00     3680.00
00636            -640.00     3720.00
00637            -680.00     3680.00
00638            -680.00     3720.00
00639            -680.00     3680.00
00640            -680.00     3720.00
00641            -680.00     3760.00
00642            -720.00     3760.00
00643            -680.00     3760.00
00644            -720.00     3800.00
00645            -720.00     3800.00
00646            -680.00     3800.00
00647            -680.00     3760.00
00648            -680.00     3840.00
00649            -680.00     3800.00
00650            -720.00     3840.00
00651            -720.00     3840.00
00652            -720.00     3840.00
00653            -720.00     3840.00
00654            -720.00     3920.00
00655            -720.00     3880.00
00656            -720.00     3920.00
00657            -720.00     3920.00
00658            -720.00     3920.00
00659            -680.00     3920.00
00660            -720.00     3920.00
00661            -720.00     3960.00
00662            -720.00     3920.00
00663            -720.00     3960.00
00664            -720.00     3960.00
00665            -720.00     3960.00
00666            -720.00     4000.00
00667            -760.00     4000.00
00668            -720.00     4000.00
00669            -720.00     4000.00
00670            -760.00     4000.00
00671            -720.00     4000.00
00672            -720.00     4000.00
00673            -760.00     4040.00
00674            -720.00     4000.00
00675            -760.00     4080.00
00676            -720.00     4080.00
00677            -720.00     4080.00
00678            -760.00     4080.00
00679            -720.00     4080.00
00680            -760.00     4120.00
00681            -760.00     4080.00
00682            -760.00     4080.00
00683            -760.00     4080.00
00684            -760.00     4080.00
00685            -760.00     4120.00
00686            -760.00     4120.00
00687            -760.00     4120.00
00688            -760.00     4120.00
00689            -760.00     4120.00
00690            -760.00     4160.00
00691            -760.00     4120.00
00692            -760.00     4160.00
00693            -760.00     4120.00
00694            -760.00     4120.00
00695            -760.00     4160.00
00696            -760.00     4200.00
00697            -760.00     4160.00
00698            -760.00     4200.00
00699            -760.00     4160.00
00700            -760.00     4200.00
00701            -840.00     4200.00
00702            -800.00     4200.00
00703            -760.00     4200.00
00704            -800.00     4160.00
00705            -760.00     4200.00
00706            -760.00     4200.00
00707            -800.00     4200.00
00708            -800.00     4200.00
00709            -760.00     4200.00
00710            -760.00     4200.00
00711            -760.00     4200.00
00712            -760.00     4200.00
00713            -840.00     4200.00
00714            -760.00     4200.00
00715            -800.00     4200.00
00716            -760.00     4200.00
00717            -760.00     4200.00
00718            -840.00     4160.00
00719            -760.00     4200.00
00720            -840.00     4200.00
00721            -760.00     4200.00
00722            -760.00     4160.00
00723            -760.00     4200.00
00724            -760.00     4160.00
00725            -760.00     4200.00
00726            -760.00     4200.00
00727            -760.00     4160.00
00728            -760.00     4200.00
00729            -760.00     4200.00
00730            -760.00     4200.00
00731            -760.00     4200.00
00732            -760.00     4200.00
00733            -760.00     4160.00
00734            -760.00     4160.00
00735            -760.00     4160.00
00736            -760.00     4200.00
00737            -760.00     4200.00
00738            -760.00     4160.00
00739            -760.00     4120.00
00740            -760.00     4120.00
00741            -760.00     4120.00
00742            -760.00     4160.00
00743            -760.00     4120.00
00744            -760.00     4120.00
00745            -760.00     4120.00
00746            -760.00     4120.00
00747            -800.00     4120.00
00748            -760.00     4120.00
00749            -760.00     4080.00
00750            -760.00     4120.00
00751            -760.00     4080.00
00752            -800.00     4080.00
00753            -760.00     4080.00
00754            -760.00     4080.00
00755            -760.00     4080.00
00756            -760.00     4080.00
00757            -760.00     4040.00
00758            -760.00     4040.00
00759            -760.00     4080.00
00760            -760.00     4040.00
00761            -760.00     4000.00
00762            -760.00     4000.00
00763            -760.00     4000.00
00764            -760.00     4000.00
00765            -760.00     4000.00
00766            -760.00     4000.00
00767            -760.00     3960.00
00768            -760.00     3960.00
00769            -720.00     4000.00
00770            -760.00     3960.00
00771            -760.00     3960.00
00772            -760.00     3920.00
00773            -760.00     3920.00
00774            -760.00     3920.00
00775            -760.00     3920.00
00776            -760.00     3880.00
00777            -760.00     3880.00
00778            -760.00     3920.00
00779            -720.00     3880.00
00780            -760.00     3840.00
00781            -720.00     3840.00
00782            -720.00     3840.00
00783            -760.00     3840.00
00784            -720.00     3840.00
00785            -760.00     3840.00
00786            -720.00     3800.00
00787            -720.00     3800.00
00788            -720.00     3800.00
00789            -720.00     3760.00
00790            -720.00     3800.00
00791            -720.00     3760.00
00792            -720.00     3760.00
00793            -680.00     3720.00
00794            -720.00     3720.00
00795            -720.00     3680.00
00796            -720.00     3680.00
00797            -680.00     3680.00
00798            -720.00     3640.00
00799            -720.00     3640.00
00800            -720.00     3640.00
00801            -680.00     3640.00
00802            -720.00     3640.00
00803            -680.00     3600.00
00804            -680.00     3600.00
00805            -680.00     3560.00
00806            -680.00     3520.00
00807            -680.00     3520.00
00808            -680.00     3520.00
00809            -680.00     3520.00
00810            -680.00     3520.00
00811            -680.00     3480.00
00812            -680.00     3480.00
00813            -680.00     3480.00
00814            -680.00     3440.00
00815            -640.00     3440.00
00816            -680.00     3440.00
00817            -680.00     3400.00
00818            -680.00     3360.00
00819            -680.00     3360.00
00820            -640.00     3360.00
00821            -680.00     3320.00
00822            -680.00     3320.00
00823            -680.00     3280.00
00824            -680.00     3280.00
00825            -600.00     3280.00
00826            -600.00     3280.00
00827            -600.00     3240.00
00828            -600.00     3240.00
00829            -640.00     3200.00
00830            -600.00     3160.00
00831            -640.00     3200.00
00832            -600.00     3160.00
00833            -600.00     3160.00
00834            -600.00     3120.00
00835            -600.00     3120.00
00836            -600.00     3120.00
00837            -600.00     3040.00
00838            -600.00     3040.00
00839            -600.00     3040.00
00840            -600.00     3000.00
00841            -600.00     3000.00
00842            -600.00     3000.00
00843            -600.00     2960.00
00844            -560.00     2960.00
00845            -600.00     2920.00
00846            -560.00     2960.00
00847            -560.00     2880.00
00848            -560.00     2880.00
00849            -560.00     2880.00
00850            -560.00     2840.00
00851            -560.00     2840.00
00852            -560.00     2800.00
00853            -560.00     2800.00
00854            -560.00     2800.00
00855            -560.00     2720.00
00856            -520.00     2720.00
00857            -520.00     2680.00
00858            -560.00     2680.00
00859            -520.00     2680.00
00860            -520.00     2640.00
00861            -520.00     2640.00
00862            -520.00     2640.00
00863            -560.00     2560.00
00864            -520.00     2560.00
00865            -520.00     2560.00
00866            -520.00     2520.00
00867            -520.00     2520.00
00868            -440.00     2520.00
00869            -520.00     2480.00
00870            -480.00     2440.00
00871            -480.00     2400.00
00872            -440.00     2400.00
00873            -480.00     2400.00
00874            -440.00     2360.00
00875            -480.00     2360.00
00876            -440.00     2320.00
00877            -440.00     2280.00
00878            -480.00     2280.00
00879            -440.00     2240.00
00880            -440.00     2240.00
00881            -440.00     2200.00
00882            -440.00     2200.00
00883            -440.00     2160.00
00884            -440.00     2160.00
00885            -440.00     2160.00
00886            -440.00     2080.00
00887            -440.00     2080.00
00888            -440.00     2040.00
00889            -440.00     2040.00
00890            -440.00     2000.00
00891            -400.00     2000.00
00892            -440.00     2000.00
00893            -400.00     1920.00
00894            -400.00     1920.00
00895            -400.00     1920.00
00896            -400.00     1880.00
00897            -400.00     1840.00
00898            -400.00     1840.00
00899            -400.00     1840.00
00900            -360.00     1760.00
00901            -360.00     1760.00
00902            -400.00     1720.00
00903            -360.00     1720.00
00904            -360.00     1680.00
00905            -360.00     1680.00
00906            -360.00     1640.00
00907            -360.00     1600.00
00908            -360.00     1640.00
00909            -360.00     1560.00
00910            -360.00     1560.00
00911            -280.00     1520.00
00912            -320.00     1480.00
00913            -360.00     1480.00
00914            -360.00     1440.00
00915            -280.00     1400.00
00916            -280.00     1400.00
00917            -280.00     1360.00
00918            -280.00     1360.00
00919            -240.00     1320.00
00920            -280.00     1280.00
00921            -280.00     1280.00
00922            -240.00     1280.00
00923            -240.00     1240.00
00924            -280.00     1240.00
00925            -240.00     1200.00
00926            -240.00     1200.00
00927            -240.00     1160.00
00928            -240.00     1120.00
00929            -240.00     1080.00
00930            -240.00     1080.00
00931            -240.00     1040.00
00932            -240.00     1040.00
00933            -200.00      960.00
00934            -240.00      960.00
00935            -240.00      920.00
00936            -200.00      920.00
00937            -200.00      880.00
00938            -200.00      880.00
00939            -200.00      840.00
00940            -200.00      840.00
00941            -200.00      800.00
00942            -200.00      800.00
00943            -120.00      720.00
00944            -160.00      720.00
00945            -120.00      680.00
00946            -160.00      640.00
00947            -200.00      640.00
00948            -160.00      640.00
00949            -120.00      600.00
00950            -160.00      560.00
00951            -120.00      560.00
00952            -160.00      560.00
00953            -120.00      480.00
00954            -120.00      440.00
00955            -120.00      440.00
00956            -120.00      400.00
00957            -120.00      360.00
00958            -120.00      360.00
00959            -120.00      320.00
00960            -120.00      320.00
00961             -80.00      280.00
00962             -80.00      240.00
00963            -120.00      240.00
00964            -120.00      200.00
00965             -80.00      160.00
00966             -80.00      120.00
00967             -80.00      120.00
00968             -80.00      120.00
00969             -80.00       80.00
00970             -40.00       40.00
00971             -80.00        0.00
00972             -40.00        0.00
00973             -40.00      -40.00
00974             -40.00      -40.00
00975             -40.00      -80.00
00976               0.00      -80.00
00977              40.00     -120.00
00978               0.00     -160.00
00979              40.00     -160.00
00980              40.00     -200.00
00981             -40.00     -200.00
00982              40.00     -240.00
00983              40.00     -240.00
00984              80.00     -280.00
00985              40.00     -360.00
00986             -40.00     -480.00
00987             -40.00     -360.00
00988              80.00     -400.00
00989              80.00     -480.00
00990              40.00     -440.00
00991              80.00     -480.00
00992              80.00     -520.00
00993              40.00     -560.00
00994              40.00     -560.00
00995             120.00     -560.00
00996              80.00     -640.00
00997              80.00     -640.00
00998              80.00     -720.00
00999              80.00     -680.00
01000              80.00     -760.00
01001              80.00     -720.00
01002              80.00     -760.00
01003             120.00     -800.00
01004              80.00     -800.00
01005             120.00     -840.00
01006             120.00     -840.00
01007             120.00     -880.00
01008             120.00     -920.00
01009             120.00     -960.00
01010             120.00     -960.00
01011             120.00    -1000.00
01012             160.00    -1000.00
01013             200.00    -1040.00
01014             160.00    -1080.00
01015             120.00    -1080.00
01016             200.00    -1160.00
01017             120.00    -1120.00
01018             200.00    -1160.00
01019             200.00    -1200.00
01020             200.00    -1200.00
01021             200.00    -1280.00
01022             200.00    -1280.00
01023             200.00    -1280.00
01024             200.00    -1320.00
01025             200.00    -1360.00
01026             200.00    -1360.00
01027             200.00    -1440.00
01028             200.00    -1400.00
01029             200.00    -1440.00
01030             240.00    -1480.00
01031             240.00    -1480.00
01032             240.00    -1520.00
01033             240.00    -1560.00
01034             240.00    -1560.00
01035             280.00    -1600.00
01036             240.00    -1600.00
01037             280.00    -1640.00
01038             280.00    -1680.00
01039             240.00    -1680.00
01040             280.00    -1720.00
01041             320.00    -1760.00
01042             280.00    -1760.00
01043             280.00    -1800.00
01044             280.00    -1800.00
01045             360.00    -1840.00
01046             320.00    -1880.00
01047             320.00    -1880.00
01048             360.00    -1920.00
01049             360.00    -1960.00
01050             360.00    -1920.00
01051             360.00    -1960.00
01052             360.00    -2000.00
01053             360.00    -2000.00
01054             360.00    -2040.00
01055             360.00    -2080.00
01056             360.00    -2080.00
01057             400.00    -2120.00
01058             400.00    -2160.00
01059             360.00    -2160.00
01060             400.00    -2160.00
01061             400.00    -2200.00
01062             400.00    -2200.00
01063             400.00    -2240.00
01064             440.00    -2280.00
01065             400.00    -2320.00
01066             400.00    -2320.00
01067             400.00    -2320.00
01068             400.00    -2360.00
01069             400.00    -2400.00
01070             440.00    -2400.00
01071             440.00    -2400.00
01072             440.00    -2440.00
01073             440.00    -2440.00
01074             440.00    -2480.00
01075             440.00    -2480.00
01076             440.00    -2480.00
01077             440.00    -2520.00
01078             440.00    -2560.00
01079             440.00    -2600.00
01080             440.00    -2600.00
01081             480.00    -2640.00
01082             440.00    -2640.00
01083             520.00    -2680.00
01084             440.00    -2680.00
01085             520.00    -2720.00
01086             440.00    -2720.00
01087             480.00    -2760.00
01088             520.00    -2760.00
01089             480.00    -2800.00
01090             520.00    -2800.00
01091             520.00    -2840.00
01092             480.00    -2840.00
01093             520.00    -2880.00
01094             520.00    -2880.00
01095             520.00    -2880.00
01096             520.00    -2920.00
01097             520.00    -2920.00
01098             520.00    -2960.00
01099             520.00    -2960.00
01100             520.00    -3000.00
01101             520.00    -2960.00
01102             520.00    -3040.00
01103             520.00    -3040.00
01104             560.00    -3040.00
01105             560.00    -3080.00
01106             560.00    -3120.00
01107             560.00    -3120.00
01108             560.00    -3120.00
01109             560.00    -3160.00
01110             560.00    -3160.00
01111             600.00    -3200.00
01112             560.00    -3200.00
01113             560.00    -3240.00
01114             600.00    -3240.00
01115             600.00    -3280.00
01116             600.00    -3280.00
01117             600.00    -3280.00
01118             600.00    -3280.00
01119             600.00    -3320.00
01120             560.00    -3320.00
01121             600.00    -3360.00
01122             600.00    -3360.00
01123             640.00    -3400.00
01124             600.00    -3400.00
01125             680.00    -3400.00
01126             600.00    -3440.00
01127             640.00    -3440.00
01128             640.00    -3440.00
01129             600.00    -3480.00
01130             680.00    -3440.00
01131             640.00    -3480.00
01132             640.00    -3520.00
01133             680.00    -3520.00
01134             680.00    -3520.00
01135             680.00    -3520.00
01136             680.00    -3560.00
01137             680.00    -3600.00
01138             720.00    -3560.00
01139             640.00    -3600.00
01140             640.00    -3600.00
01141             680.00    -3640.00
01142             680.00    -3680.00
01143             680.00    -3680.00
01144             680.00    -3680.00
01145             680.00    -3680.00
01146             680.00    -3720.00
01147             680.00    -3720.00
01148             680.00    -3720.00
01149             680.00    -3720.00
01150             680.00    -3760.00
01151             680.00    -3760.00
01152             680.00    -3760.00
01153             680.00    -3760.00
01154             720.00    -3800.00
01155             680.00    -3840.00
01156             680.00    -3800.00
01157             680.00    -3840.00
01158             680.00    -3840.00
01159             680.00    -3880.00
01160             720.00    -3880.00
01161             720.00    -3880.00
01162             680.00    -3880.00
01163             720.00    -3880.00
01164             720.00    -3920.00
01165             720.00    -3880.00
01166             720.00    -3920.00
01167             720.00    -3920.00
01168             720.00    -3920.00
01169             720.00    -3920.00
01170             720.00    -3920.00
01171             760.00    -3920.00
01172             720.00    -3960.00
01173             720.00    -4000.00
01174             720.00    -4000.00
01175             720.00    -4000.00
01176             720.00    -4000.00
01177             720.00    -4000.00
01178             720.00    -4040.00
01179             720.00    -4000.00
01180             760.00    -4000.00
01181             760.00    -4000.00
01182             760.00    -4040.00
01183             760.00    -4040.00
01184             760.00    -4040.00
01185             760.00    -4040.00
01186             760.00    -4080.00
01187             720.00    -4040.00
01188             720.00    -4040.00
01189             760.00    -4080.00
01190             760.00    -4080.00
01191             760.00    -4080.00
01192             760.00    -4080.00
01193             760.00    -4080.00
01194             760.00    -4080.00
01195             760.00    -4120.00
01196             800.00    -4120.00
01197             760.00    -4160.00
01198             840.00    -4120.00
01199             760.00    -4160.00
01200             800.00    -4120.00
01201             760.00    -4160.00
01202             800.00    -4160.00
01203             760.00    -4160.00
01204             800.00    -4160.00
01205             800.00    -4160.00
01206             760.00    -4160.00
01207             760.00    -4160.00
01208             760.00    -4200.00
01209             760.00    -4160.00
01210             720.00    -4160.00
01211             760.00    -4160.00
01212             840.00    -4160.00
01213             760.00    -4160.00
01214             760.00    -4160.00
01215             760.00    -4160.00
01216             760.00    -4200.00
01217             760.00    -4160.00
01218             760.00    -4160.00
01219             760.00    -4200.00
01220             720.00    -4160.00
01221             760.00    -4200.00
01222             760.00    -4160.00
01223             760.00    -4200.00
01224             760.00    -4160.00
01225             840.00    -4200.00
01226             760.00    -4200.00
01227             760.00    -4200.00
01228             760.00    -4200.00
01229             840.00    -4200.00
01230             760.00    -4200.00
01231             760.00    -4160.00
01232             760.00    -4200.00
01233             760.00    -4200.00
01234             760.00    -4160.00
01235             760.00    -4160.00
01236             840.00    -4200.00
01237             840.00    -4160.00
01238             760.00    -4160.00
01239             760.00    -4160.00
01240             760.00    -4160.00
01241             840.00    -4160.00
01242             760.00    -4160.00
01243             800.00    -4160.00
01244             760.00    -4160.00
01245             800.00    -4160.00
01246             760.00    -4160.00
01247             760.00    -4160.00
01248             800.00    -4120.00
01249             760.00    -4160.00
01250             840.00    -4080.00
01251             760.00    -4160.00
01252             760.00    -4120.00
01253             840.00    -4120.00
01254             760.00    -4120.00
01255             840.00    -4080.00
01256             800.00    -4120.00
01257             760.00    -4080.00
01258             760.00    -4080.00
01259             760.00    -4080.00
01260             800.00    -4120.00
01261             760.00    -4080.00
01262             760.00    -4080.00
01263             800.00    -4040.00
01264             760.00    -4040.00
01265             760.00    -4080.00
01266             760.00    -4000.00
01267             760.00    -4040.00
01268             800.00    -4080.00
01269             760.00    -4040.00
01270             800.00    -4000.00
01271             760.00    -4000.00
01272             760.00    -4000.00
01273             760.00    -4000.00
01274             760.00    -4000.00
01275             760.00    -4000.00
01276             760.00    -4000.00
01277             760.00    -4000.00
01278             720.00    -3960.00
01279             760.00    -3920.00
01280             760.00    -3960.00
01281             720.00    -3920.00
01282             720.00    -3920.00
01283             720.00    -3880.00
01284             760.00    -3920.00
01285             720.00    -3920.00
01286             760.00    -3880.00
01287             720.00    -3880.00
01288             720.00    -3880.00
01289             760.00    -3840.00
01290             720.00    -3840.00
01291             720.00    -3840.00
01292             720.00    -3840.00
01293             720.00    -3840.00
01294             720.00    -3800.00
01295             720.00    -3800.00
01296             720.00    -3760.00
01297             720.00    -3760.00
01298             720.00    -3760.00
01299             760.00    -3760.00
01300             720.00    -3760.00
01301             720.00    -3720.00
01302             720.00    -3720.00
01303             720.00    -3720.00
01304             720.00    -3680.00
01305             720.00    -3680.00
01306             720.00    -3680.00
01307             680.00    -3680.00
01308             720.00    -3680.00
01309             720.00    -3640.00
01310             720.00    -3640.00
01311             720.00    -3600.00
01312             720.00    -3560.00
01313             720.00    -3560.00
01314             720.00    -3560.00
01315             680.00    -3560.00
01316             720.00    -3480.00
01317             680.00    -3520.00
01318             720.00    -3480.00
01319             680.00    -3480.00
01320             680.00    -3480.00
01321             680.00    -3440.00
01322             720.00    -3480.00
01323             680.00    -3440.00
01324             680.00    -3400.00
01325             680.00    -3400.00
01326             680.00    -3400.00
01327             640.00    -3360.00
01328             680.00    -3360.00
01329             680.00    -3360.00
01330             680.00    -3320.00
01331             680.00    -3320.00
01332             680.00    -3280.00
01333             680.00    -3280.00
01334             680.00    -3280.00
01335             680.00    -3240.00
01336             680.00    -3240.00
01337             600.00    -3240.00
01338             640.00    -3200.00
01339             640.00    -3200.00
01340             600.00    -3160.00
01341             600.00    -3160.00
01342             600.00    -3120.00
01343             600.00    -3160.00
01344             600.00    -3120.00
01345             600.00    -3080.00
01346             560.00    -3080.00
01347             600.00    -3040.00
01348             600.00    -3040.00
01349             600.00    -3040.00
01350             560.00    -3000.00
01351             600.00    -2960.00
01352             560.00    -2960.00
01353             600.00    -2920.00
01354             560.00    -2920.00
01355             560.00    -2920.00
01356             600.00    -2880.00
01357             560.00    -2880.00
01358             560.00    -2880.00
01359             520.00    -2840.00
01360             560.00    -2800.00
01361             560.00    -2760.00
01362             520.00    -2760.00
01363             560.00    -2760.00
01364             520.00    -2720.00
01365             560.00    -2720.00
01366             560.00    -2720.00
01367             560.00    -2680.00
01368             560.00    -2640.00
01369             560.00    -2640.00
01370             520.00    -2600.00
01371             520.00    -2600.00
01372             520.00    -2600.00
01373             520.00    -2560.00
01374             520.00    -2520.00
01375             520.00    -2520.00
01376             520.00    -2480.00
01377             520.00    -2480.00
01378             520.00    -2440.00
01379             520.00    -2440.00
01380             520.00    -2400.00
01381             520.00    -2400.00
01382             520.00    -2400.00
01383             520.00    -2320.00
01384             480.00    -2320.00
01385             480.00    -2320.00
01386             440.00    -2280.00
01387             520.00    -2280.00
01388             480.00    -2200.00
01389             440.00    -2200.00
01390             440.00    -2200.00
01391             440.00    -2160.00
01392             440.00    -2160.00
01393             440.00    -2120.00
01394             440.00    -2120.00
01395             440.00    -2080.00
01396             440.00    -2080.00
01397             440.00    -2000.00
01398             440.00    -2000.00
01399             440.00    -2000.00
01400             400.00    -1960.00
01401             400.00    -1960.00
01402             400.00    -1960.00
01403             400.00    -1920.00
01404             400.00    -1920.00
01405             400.00    -1880.00
01406             400.00    -1840.00
01407             360.00    -1840.00
01408             400.00    -1800.00
01409             400.00    -1760.00
01410             360.00    -1760.00
01411             400.00    -1760.00
01412             360.00    -1720.00
01413             360.00    -1680.00
01414             360.00    -1640.00
01415             360.00    -1640.00
01416             360.00    -1600.00
01417             360.00    -1600.00
01418             360.00    -1560.00
01419             360.00    -1520.00
01420             360.00    -1520.00
01421             320.00    -1480.00
01422             280.00    -1480.00
01423             320.00    -1440.00
01424             280.00    -1400.00
01425             280.00    -1360.00
01426             360.00    -1360.00
01427             320.00    -1360.00
01428             320.00    -1320.00
01429             280.00    -1280.00
01430             280.00    -1280.00
01431             360.00    -1240.00
01432             280.00    -1200.00
01433             280.00    -1200.00
01434             240.00    -1160.00
01435             240.00    -1160.00
01436             240.00    -1160.00
01437             240.00    -1120.00
01438             240.00    -1080.00
01439             240.00    -1040.00
01440             240.00    -1040.00
01441             240.00    -1000.00
01442             240.00     -920.00
01443             240.00     -920.00
01444             240.00     -920.00
01445             240.00     -880.00
01446             240.00     -880.00
01447             240.00     -840.00
01448             240.00     -840.00
01449             200.00     -800.00
01450             240.00     -800.00
01451             200.00     -760.00
01452             200.00     -720.00
01453             200.00     -680.00
01454             200.00     -680.00
01455             200.00     -640.00
01456             200.00     -640.00
01457             200.00     -560.00
01458             120.00     -600.00
01459             120.00     -560.00
01460             120.00     -560.00
01461             160.00     -520.00
01462             120.00     -480.00
01463             120.00     -440.00
01464             120.00     -440.00
01465             120.00     -400.00
01466             120.00     -360.00
01467              80.00     -320.00
01468              80.00     -320.00
01469              80.00     -320.00
01470              80.00     -280.00
01471              80.00     -240.00
01472              80.00     -200.00
01473              80.00     -200.00
01474              80.00     -160.00
01475              80.00     -160.00
01476              80.00     -120.00
01477              80.00      -80.00
01478              80.00      -80.00
01479              40.00      -40.00
01480              40.00        0.00
01481              40.00        0.00
01482              40.00       40.00
01483              40.00       80.00
01484              40.00       80.00
01485              40.00       80.00
01486              40.00      120.00
01487               0.00      160.00
01488             -40.00      160.00
01489              40.00      240.00
01490              40.00      240.00
01491              40.00      280.00
01492               0.00      360.00
01493             -40.00      320.00
01494             -40.00      280.00
01495             -80.00      400.00
01496             -40.00      400.00
01497               0.00      440.00
01498             -40.00      480.00
01499             -40.00      480.00
01500             -40.00      480.00
01501             -80.00      480.00
01502             -80.00      560.00
01503             -40.00      560.00
01504             -80.00      600.00
01505             -80.00      600.00
01506             -80.00      640.00
01507            -120.00      720.00
01508             -80.00      720.00
01509             -40.00      720.00
01510             -80.00      760.00
01511            -120.00      800.00
01512            -120.00      800.00
01513            -120.00      840.00
01514             -80.00      880.00
01515            -120.00      880.00
01516            -120.00      880.00
01517            -120.00      920.00
01518            -120.00      960.00
01519            -120.00      960.00
01520            -120.00     1040.00
01521            -160.00     1040.00
01522            -120.00     1080.00
01523            -120.00     1080.00
01524            -120.00     1120.00
01525            -200.00     1160.00
01526            -120.00     1160.00
01527            -120.00     1200.00
01528            -200.00     1200.00
01529            -200.00     1240.00
01530            -160.00     1280.00
01531            -240.00     1240.00
01532            -200.00     1280.00
01533            -240.00     1320.00
01534            -200.00     1360.00
01535            -240.00     1360.00
01536            -240.00     1400.00
01537            -200.00     1400.00
01538            -240.00     1440.00
01539            -240.00     1480.00
01540            -240.00     1520.00
01541            -240.00     1560.00
01542            -240.00     1560.00
01543            -240.00     1600.00
01544            -280.00     1640.00
01545            -240.00     1640.00
01546            -240.00     1680.00
01547            -280.00     1680.00
01548            -240.00     1680.00
01549            -280.00     1720.00
01550            -280.00     1760.00
01551            -280.00     1760.00
01552            -360.00     1840.00
01553            -280.00     1840.00
01554            -320.00     1840.00
01555            -360.00     1880.00
01556            -360.00     1880.00
01557            -320.00     1880.00
01558            -360.00     1960.00
01559            -360.00     1920.00
01560            -320.00     2000.00
01561            -360.00     2000.00
01562            -360.00     2040.00
01563            -360.00     2040.00
01564            -360.00     2080.00
01565            -360.00     2080.00
01566            -360.00     2120.00
01567            -400.00     2160.00
01568            -360.00     2200.00
01569            -400.00     2200.00
01570            -360.00     2200.00
01571            -400.00     2240.00
01572            -360.00     2240.00
01573            -400.00     2280.00
01574            -400.00     2320.00
01575            -400.00     2360.00
01576            -400.00     2360.00
01577            -400.00     2360.00
01578            -400.00     2400.00
01579            -440.00     2400.00
01580            -400.00     2440.00
01581            -400.00     2480.00
01582            -400.00     2480.00
01583            -400.00     2480.00
01584            -440.00     2560.00
01585            -440.00     2520.00
01586            -440.00     2560.00
01587            -400.00     2560.00
01588            -440.00     2600.00
01589            -440.00     2640.00
01590            -440.00     2640.00
01591            -440.00     2640.00
01592            -440.00     2680.00
01593            -440.00     2680.00
01594            -440.00     2720.00
01595            -440.00     2720.00
01596            -440.00     2720.00
01597            -480.00     2800.00
01598            -480.00     2800.00
01599            -480.00     2840.00
01600            -520.00     2840.00
01601            -520.00     2880.00
01602            -520.00     2880.00
01603            -520.00     2920.00
01604            -520.00     2920.00
01605            -520.00     2920.00
01606            -520.00     2960.00
01607            -520.00     2960.00
01608            -520.00     3000.00
01609            -520.00     3000.00
01610            -560.00     3000.00
01611            -520.00     3040.00
01612            -560.00     3040.00
01613            -560.00     3120.00
01614            -560.00     3120.00
01615            -560.00     3120.00
01616            -560.00     3120.00
01617            -560.00     3160.00
01618            -560.00     3160.00
01619            -560.00     3160.00
01620            -560.00     3200.00
01621            -560.00     3240.00
01622            -560.00     3200.00
01623            -560.00     3240.00
01624            -600.00     3280.00
01625            -600.00     3280.00
01626            -560.00     3320.00
01627            -600.00     3280.00
01628            -600.00     3320.00
01629            -600.00     3360.00
01630            -600.00     3360.00
01631            -600.00     3360.00
01632            -600.00     3400.00
01633            -600.00     3360.00
01634            -600.00     3440.00
01635            -600.00     3440.00
01636            -600.00     3480.00
01637            -600.00     3480.00
01638            -600.00     3520.00
01639            -600.00     3480.00
01640            -600.00     3520.00
01641            -600.00     3520.00
01642            -600.00     3520.00
01643            -640.00     3520.00
01644            -600.00     3600.00
01645            -640.00     3560.00
01646            -640.00     3600.00
01647            -600.00     3600.00
01648            -600.00     3640.00
01649            -680.00     3640.00
01650            -680.00     3640.00
01651            -640.00     3640.00
01652            -680.00     3680.00
01653            -680.00     3680.00
01654            -680.00     3680.00
01655            -680.00     3680.00
01656            -680.00     3760.00
01657            -680.00     3760.00
01658            -680.00     3760.00
01659            -680.00     3760.00
01660            -680.00     3760.00
01661            -720.00     3800.00
01662            -680.00     3760.00
01663            -720.00     3800.00
01664            -680.00     3760.00
01665            -720.00     3800.00
01666            -680.00     3840.00
01667            -720.00     3840.00
01668            -720.00     3840.00
01669            -720.00     3840.00
01670            -720.00     3840.00
01671            -720.00     3880.00
01672            -720.00     3840.00
01673            -720.00     3920.00
01674            -720.00     3920.00
01675            -720.00     3920.00
01676            -720.00     3920.00
01677            -760.00     3920.00
01678            -720.00     3960.00
01679            -760.00     3920.00
01680            -720.00     3960.00
01681            -760.00     4000.00
01682            -720.00     3960.00
01683            -720.00     4000.00
01684            -760.00     4000.00
01685            -760.00     4000.00
01686            -760.00     4000.00
01687            -760.00     4000.00
01688            -760.00     4000.00
01689            -760.00     4040.00
01690            -760.00     4040.00
01691            -720.00     4000.00
01692            -760.00     4080.00
01693            -760.00     4080.00
01694            -760.00     4080.00
01695            -760.00     4080.00
01696            -760.00     4080.00
01697            -760.00     4080.00
01698            -760.00     4080.00
01699            -760.00     4080.00
01700            -760.00     4120.00
01701            -760.00     4080.00
01702            -760.00     4120.00
01703            -760.00     4120.00
01704            -760.00     4120.00
01705            -760.00     4120.00
01706            -760.00     4120.00
01707            -760.00     4120.00
01708            -760.00     4160.00
01709            -760.00     4200.00
01710            -760.00     4160.00
01711            -760.00     4200.00
01712            -760.00     4160.00
01713            -760.00     4160.00
01714            -760.00     4160.00
01715            -760.00     4160.00
01716            -760.00     4200.00
01717            -760.00     4160.00
01718            -760.00     4200.00
01719            -760.00     4160.00
01720            -760.00     4200.00
01721            -760.00     4200.00
01722            -760.00     4200.00
01723            -760.00     4200.00
01724            -760.00     4160.00
01725            -760.00     4200.00
01726            -760.00     4200.00
01727            -760.00     4200.00
01728            -760.00     4200.00
01729            -760.00     4160.00
01730            -800.00     4200.00
01731            -760.00     4200.00
01732            -760.00     4160.00
01733            -760.00     4200.00
01734            -760.00     4200.00
01735            -800.00     4160.00
01736            -760.00     4200.00
01737            -760.00     4200.00
01738            -800.00     4200.00
01739            -760.00     4200.00
01740            -760.00     4160.00
01741            -800.00     4200.00
01742            -760.00     4200.00
01743            -760.00     4200.00
01744            -840.00     4200.00
01745            -840.00     4200.00
01746            -760.00     4200.00
01747            -760.00     4160.00
01748            -840.00     4200.00
01749            -760.00     4160.00
01750            -760.00     4160.00
01751            -760.00     4200.00
01752            -760.00     4200.00
01753            -760.00     4160.00
01754            -760.00     4160.00
01755            -800.00     4160.00
01756            -760.00     4120.00
01757            -840.00     4160.00
01758            -760.00     4160.00
01759            -760.00     4120.00
01760            -760.00     4120.00
01761            -760.00     4120.00
01762            -760.00     4120.00
01763            -760.00     4120.00
01764            -760.00     4120.00
01765            -800.00     4120.00
01766            -760.00     4080.00
01767            -760.00     4120.00
01768            -760.00     4120.00
01769            -760.00     4120.00
01770            -760.00     4080.00
01771            -760.00     4080.00
01772            -760.00     4080.00
01773            -760.00     4080.00
01774            -720.00     4040.00
01775            -760.00     4080.00
01776            -760.00     4040.00
01777            -760.00     4040.00
01778            -760.00     4000.00
01779            -760.00     4000.00
01780            -760.00     4000.00
01781            -760.00     4000.00
01782            -760.00     4000.00
01783            -760.00     4000.00
01784            -760.00     3960.00
01785            -760.00     3960.00
01786            -720.00     4000.00
01787            -760.00     3960.00
01788            -760.00     3960.00
01789            -720.00     3960.00
01790            -720.00     3920.00
01791            -760.00     3920.00
01792            -760.00     3920.00
01793            -760.00     3920.00
01794            -760.00     3880.00
01795            -760.00     3920.00
01796            -760.00     3880.00
01797            -760.00     3840.00
01798            -760.00     3840.00
01799            -720.00     3840.00
01800            -720.00     3840.00
01801            -760.00     3800.00
01802            -720.00     3800.00
01803            -760.00     3800.00
01804            -720.00     3760.00
01805            -760.00     3800.00
01806            -760.00     3800.00
01807            -720.00     3760.00
01808            -720.00     3760.00
01809            -720.00     3760.00
01810            -720.00     3720.00
01811            -720.00     3720.00
01812            -720.00     3680.00
01813            -720.00     3680.00
01814            -720.00     3680.00
01815            -720.00     3680.00
01816            -720.00     3640.00
01817            -720.00     3640.00
01818            -720.00     3640.00
01819            -720.00     3640.00
01820            -680.00     3600.00
01821            -680.00     3600.00
01822            -720.00     3600.00
01823            -680.00     3560.00
01824            -680.00     3520.00
01825            -680.00     3520.00
01826            -680.00     3520.00
01827            -680.00     3480.00
01828            -680.00     3520.00
01829            -680.00     3480.00
01830            -680.00     3480.00
01831            -680.00     3440.00
01832            -680.00     3440.00
01833            -680.00     3440.00
01834            -680.00     3440.00
01835            -680.00     3400.00
01836            -640.00     3360.00
01837            -680.00     3360.00
01838            -600.00     3320.00
01839            -640.00     3320.00
01840            -640.00     3320.00
01841            -600.00     3280.00
01842            -680.00     3280.00
01843            -600.00     3280.00
01844            -600.00     3240.00
01845            -600.00     3240.00
01846            -600.00     3200.00
01847            -680.00     3200.00
01848            -600.00     3200.00
01849            -600.00     3160.00
01850            -600.00     3160.00
01851            -600.00     3120.00
01852            -600.00     3120.00
01853            -560.00     3120.00
01854            -600.00     3120.00
01855            -600.00     3040.00
01856            -600.00     3040.00
01857            -600.00     3040.00
01858            -600.00     3000.00
01859            -560.00     3000.00
01860            -600.00     3000.00
01861            -560.00     2960.00
01862            -560.00     2960.00
01863            -560.00     2920.00
01864            -600.00     2920.00
01865            -560.00     2880.00
01866            -560.00     2840.00
01867            -560.00     2840.00
01868            -560.00     2840.00
01869            -560.00     2800.00
01870            -560.00     2800.00
01871            -560.00     2800.00
01872            -560.00     2760.00
01873            -560.00     2720.00
01874            -560.00     2720.00
01875            -560.00     2680.00
01876            -520.00     2640.00
01877            -560.00     2640.00
01878            -520.00     2640.00
01879            -520.00     2600.00
01880            -560.00     2560.00
01881            -560.00     2560.00
01882            -560.00     2560.00
01883            -520.00     2520.00
01884            -520.00     2520.00
01885            -480.00     2480.00
01886            -480.00     2480.00
01887            -520.00     2440.00
01888            -480.00     2400.00
01889            -440.00     2400.00
01890            -520.00     2400.00
01891            -520.00     2360.00
01892            -440.00     2360.00
01893            -440.00     2320.00
01894            -440.00     2320.00
01895            -440.00     2240.00
01896            -440.00     2240.00
01897            -440.00     2240.00
01898            -440.00     2200.00
01899            -440.00     2200.00
01900            -440.00     2160.00
01901            -440.00     2160.00
01902            -400.00     2120.00
01903            -440.00     2080.00
01904            -440.00     2080.00
01905            -440.00     2080.00
01906            -400.00     2040.00
01907            -400.00     2040.00
01908            -400.00     1960.00
01909            -440.00     2000.00
01910            -400.00     1960.00
01911            -400.00     1920.00
01912            -400.00     1920.00
01913            -400.00     1880.00
01914            -400.00     1840.00
01915            -400.00     1840.00
01916            -360.00     1840.00
01917            -400.00     1760.00
01918            -360.00     1760.00
01919            -360.00     1720.00
01920            -400.00     1720.00
01921            -360.00     1720.00
01922            -400.00     1680.00
01923            -360.00     1680.00
01924            -360.00     1600.00
01925            -360.00     1640.00
01926            -280.00     1600.00
01927            -320.00     1560.00
01928            -360.00     1520.00
01929            -360.00     1520.00
01930            -360.00     1480.00
01931            -280.00     1440.00
01932            -280.00     1440.00
01933            -280.00     1440.00
01934            -280.00     1360.00
01935            -280.00     1360.00
01936            -360.00     1360.00
01937            -240.00     1320.00
01938            -280.00     1280.00
01939            -280.00     1240.00
01940            -280.00     1280.00
01941            -240.00     1240.00
01942            -240.00     1200.00
01943            -240.00     1200.00
01944            -240.00     1160.00
01945            -240.00     1160.00
01946            -240.00     1120.00
01947            -280.00     1080.00
01948            -240.00     1040.00
01949            -240.00     1000.00
01950            -200.00      960.00
01951            -200.00      960.00
01952            -200.00      960.00
01953            -200.00      920.00
01954            -200.00      880.00
01955            -240.00      840.00
01956            -200.00      840.00
01957            -200.00      840.00
01958            -200.00      800.00
01959            -200.00      800.00
01960            -160.00      760.00
01961            -120.00      720.00
01962            -120.00      640.00
01963            -160.00      680.00
01964            -120.00      640.00
01965            -120.00      600.00
01966            -160.00      600.00
01967            -120.00      560.00
01968            -160.00      560.00
01969            -120.00      520.00
01970            -120.00      520.00
01971            -120.00      440.00
01972            -120.00      440.00
01973            -120.00      400.00
01974            -120.00      400.00
01975            -120.00      400.00
01976            -120.00      360.00
01977             -80.00      320.00
01978             -80.00      280.00
01979             -80.00      280.00
01980             -80.00      240.00
01981             -80.00      240.00
01982             -80.00      240.00
01983             -40.00      160.00
01984             -80.00      160.00
01985             -80.00       80.00
01986             -80.00       80.00
01987             -40.00       40.00
01988             -40.00        0.00
01989             -40.00        0.00
01990             -80.00      -40.00
01991             -80.00      -40.00
01992             -40.00      -80.00
01993             -40.00      -80.00
01994             -40.00     -120.00
01995             -40.00     -160.00
01996             -40.00     -160.00
01997             -40.00     -200.00
01998               0.00     -200.00
01999               0.00     -240.00
02000              40.00     -240.00
02001              40.00     -320.00
02002              80.00     -360.00
02003             -80.00     -400.00
02004             -40.00     -400.00
02005              40.00     -360.00
02006              80.00     -440.00
02007              40.00     -440.00
02008              80.00     -480.00
02009              80.00     -480.00
02010              80.00     -560.00
02011              40.00     -560.00
02012              80.00     -560.00
02013              80.00     -600.00
02014              80.00     -640.00
02015              80.00     -680.00
02016              80.00     -680.00
02017              80.00     -720.00
02018              80.00     -720.00
02019             120.00     -760.00
02020              80.00     -800.00
02021              80.00     -800.00
02022             120.00     -800.00
02023             120.00     -840.00
02024             120.00     -920.00
02025             120.00     -880.00
02026             120.00     -920.00
02027             120.00     -960.00
02028             120.00    -1000.00
02029             120.00    -1040.00
02030             120.00    -1040.00
02031             200.00    -1080.00
02032             200.00    -1120.00
02033             160.00    -1120.00
02034             200.00    -1120.00
02035             200.00    -1160.00
02036             200.00    -1200.00
02037             200.00    -1200.00
02038             240.00    -1280.00
02039             200.00    -1280.00
02040             200.00    -1280.00
02041             240.00    -1320.00
02042             200.00    -1360.00
02043             240.00    -1360.00
02044             240.00    -1400.00
02045             240.00    -1440.00
02046             200.00    -1440.00
02047             240.00    -1480.00
02048             240.00    -1480.00
02049             240.00    -1520.00
02050             240.00    -1520.00
02051             240.00    -1600.00
02052             240.00    -1600.00
02053             280.00    -1640.00
02054             240.00    -1640.00
02055             280.00    -1680.00
02056             280.00    -1680.00
02057             280.00    -1720.00
02058             280.00    -1760.00
02059             280.00    -1760.00
02060             280.00    -1760.00
02061             280.00    -1800.00
02062             360.00    -1840.00
02063             320.00    -1840.00
02064             360.00    -1880.00
02065             280.00    -1920.00
02066             360.00    -1920.00
02067             360.00    -1920.00
02068             360.00    -2000.00
02069             360.00    -1960.00
02070             360.00    -2040.00
02071             360.00    -2000.00
02072             360.00    -2080.00
02073             360.00    -2120.00
02074             360.00    -2080.00
02075             360.00    -2120.00
02076             360.00    -2120.00
02077             360.00    -2160.00
02078             400.00    -2200.00
02079             360.00    -2200.00
02080             400.00    -2240.00
02081             360.00    -2280.00
02082             400.00    -2280.00
02083             400.00    -2320.00
02084             400.00    -2320.00
02085             400.00    -2320.00
02086             400.00    -2400.00
02087             400.00    -2400.00
02088             400.00    -2440.00
02089             400.00    -2480.00
02090             400.00    -2440.00
02091             400.00    -2480.00
02092             440.00    -2480.00
02093             440.00    -2560.00
02094             440.00    -2560.00
02095             440.00    -2560.00
02096             480.00    -2600.00
02097             520.00    -2640.00
02098             440.00    -2600.00
02099             480.00    -2640.00
02100             440.00    -2640.00
02101             520.00    -2640.00
02102             520.00    -2680.00
02103             520.00    -2720.00
02104             520.00    -2760.00
02105             520.00    -2760.00
02106             520.00    -2760.00
02107             520.00    -2800.00
02108             520.00    -2800.00
02109             520.00    -2800.00
02110             520.00    -2880.00
02111             520.00    -2880.00
02112             520.00    -2920.00
02113             520.00    -2920.00
02114             560.00    -2920.00
02115             520.00    -2920.00
02116             520.00    -2960.00
02117             520.00    -2960.00
02118             560.00    -3000.00
02119             560.00    -3040.00
02120             560.00    -3040.00
02121             560.00    -3040.00
02122             560.00    -3080.00
02123             560.00    -3120.00
02124             560.00    -3120.00
02125             560.00    -3120.00
02126             560.00    -3120.00
02127             560.00    -3120.00
02128             560.00    -3200.00
02129             560.00    -3200.00
02130             560.00    -3200.00
02131             560.00    -3240.00
02132             560.00    -3240.00
02133             560.00    -3280.00
02134             600.00    -3240.00
02135             600.00    -3320.00
02136             560.00    -3320.00
02137             600.00    -3320.00
02138             600.00    -3360.00
02139             600.00    -3360.00
02140             600.00    -3360.00
02141             640.00    -3400.00
02142             600.00    -3400.00
02143             600.00    -3440.00
02144             640.00    -3400.00
02145             600.00    -3440.00
02146             640.00    -3480.00
02147             600.00    -3480.00
02148             600.00    -3520.00
02149             680.00    -3480.00
02150             640.00    -3520.00
02151             680.00    -3560.00
02152             680.00    -3560.00
02153             600.00    -3560.00
02154             680.00    -3600.00
02155             680.00    -3560.00
02156             680.00    -3600.00
02157             680.00    -3600.00
02158             680.00    -3680.00
02159             680.00    -3680.00
02160             680.00    -3680.00
02161             680.00    -3680.00
02162             680.00    -3680.00
02163             720.00    -3680.00
02164             680.00    -3720.00
02165             720.00    -3720.00
02166             720.00    -3720.00
02167             680.00    -3760.00
02168             720.00    -3760.00
02169             720.00    -3760.00
02170             720.00    -3760.00
02171             720.00    -3760.00
02172             720.00    -3800.00
02173             720.00    -3840.00
02174             720.00    -3840.00
02175             720.00    -3840.00
02176             720.00    -3840.00
02177             720.00    -3840.00
02178             680.00    -3880.00
02179             720.00    -3880.00
02180             720.00    -3880.00
02181             720.00    -3880.00
02182             720.00    -3880.00
02183             720.00    -3920.00
02184             720.00    -3920.00
02185             720.00    -3920.00
02186             720.00    -3960.00
02187             760.00    -3920.00
02188             720.00    -3960.00
02189             760.00    -3960.00
02190             720.00    -3960.00
02191             720.00    -4000.00
02192             720.00    -4000.00
02193             760.00    -3960.00
02194             720.00    -4000.00
02195             720.00    -4000.00
02196             720.00    -4040.00
02197             720.00    -4000.00
02198             760.00    -4040.00
02199             720.00    -4040.00
02200             720.00    -4040.00
02201             720.00    -4040.00
02202             720.00    -4040.00
02203             720.00    -4040.00
02204             760.00    -4080.00
02205             720.00    -4040.00
02206             760.00    -4080.00
02207             720.00    -4080.00
02208             760.00    -4080.00
02209             720.00    -4080.00
02210             760.00    -4080.00
02211             760.00    -4120.00
02212             760.00    -4160.00
02213             760.00    -4120.00
02214             760.00    -4120.00
02215             760.00    -4160.00
02216             760.00    -4160.00
02217             760.00    -4120.00
02218             720.00    -4160.00
02219             760.00    -4160.00
02220             760.00    -4160.00
02221             760.00    -4160.00
02222             760.00    -4160.00
02223             800.00    -4160.00
02224             760.00    -4160.00
02225             840.00    -4160.00
02226             760.00    -4160.00
02227             800.00    -4160.00
02228             760.00    -4160.00
02229             760.00    -4160.00
02230             760.00    -4160.00
02231             800.00    -4160.00
02232             800.00    -4160.00
02233             760.00    -4200.00
02234             840.00    -4160.00
02235             800.00    -4200.00
02236             800.00    -4200.00
02237             840.00    -4200.00
02238             760.00    -4200.00
02239             840.00    -4160.00
02240             760.00    -4160.00
02241             760.00    -4200.00
02242             840.00    -4160.00
02243             840.00    -4200.00
02244             760.00    -4160.00
02245             760.00    -4160.00
02246             760.00    -4160.00
02247             760.00    -4200.00
02248             800.00    -4160.00
02249             760.00    -4200.00
02250             840.00    -4200.00
02251             760.00    -4160.00
02252             760.00    -4160.00
02253             760.00    -4200.00
02254             760.00    -4160.00
02255             760.00    -4200.00
02256             760.00    -4160.00
02257             760.00    -4160.00
02258             760.00    -4200.00
02259             760.00    -4160.00
02260             760.00    -4160.00
02261             760.00    -4160.00
02262             760.00    -4160.00
02263             760.00    -4160.00
02264             760.00    -4120.00
02265             760.00    -4160.00
02266             760.00    -4120.00
02267             760.00    -4160.00
02268             760.00    -4120.00
02269             760.00    -4160.00
02270             760.00    -4160.00
02271             760.00    -4120.00
02272             760.00    -4120.00
02273             760.00    -4080.00
02274             760.00    -4080.00
02275             760.00    -4080.00
02276             760.00    -4080.00
02277             800.00    -4080.00
02278             760.00    -4080.00
02279             760.00    -4080.00
02280             760.00    -4080.00
02281             800.00    -4080.00
02282             840.00    -4080.00
02283             800.00    -4040.00
02284             760.00    -4000.00
02285             840.00    -4040.00
02286             760.00    -4040.00
02287             760.00    -4000.00
02288             760.00    -4000.00
02289             760.00    -4000.00
02290             760.00    -4000.00
02291             760.00    -4000.00
02292             760.00    -3960.00
02293             760.00    -4000.00
02294             760.00    -3960.00
02295             760.00    -3920.00
02296             720.00    -3920.00
02297             760.00    -3920.00
02298             760.00    -3920.00
02299             760.00    -3920.00
02300             760.00    -3920.00
02301             760.00    -3920.00
02302             760.00    -3880.00
02303             760.00    -3880.00
02304             760.00    -3880.00
02305             760.00    -3880.00
02306             760.00    -3840.00
02307             720.00    -3840.00
02308             760.00    -3840.00
02309             760.00    -3800.00
02310             760.00    -3840.00
02311             720.00    -3840.00
02312             720.00    -3840.00
02313             720.00    -3760.00
02314             720.00    -3760.00
02315             720.00    -3760.00
02316             720.00    -3760.00
02317             720.00    -3720.00
02318             720.00    -3760.00
02319             720.00    -3720.00
02320             720.00    -3720.00
02321             720.00    -3680.00
02322             720.00    -3680.00
02323             680.00    -3680.00
02324             720.00    -3680.00
02325             720.00    -3640.00
02326             680.00    -3680.00
02327             680.00    -3600.00
02328             720.00    -3600.00
02329             720.00    -3600.00
02330             720.00    -3560.00
02331             680.00    -3560.00
02332             680.00    -3560.00
02333             720.00    -3560.00
02334             680.00    -3480.00
02335             680.00    -3520.00
02336             680.00    -3480.00
02337             680.00    -3480.00
02338             680.00    -3440.00
02339             680.00    -3440.00
02340             680.00    -3440.00
02341             680.00    -3400.00
02342             680.00    -3400.00
02343             680.00    -3400.00
02344             680.00    -3400.00
02345             680.00    -3360.00
02346             680.00    -3360.00
02347             680.00    -3360.00
02348             680.00    -3280.00
02349             680.00    -3320.00
02350             600.00    -3280.00
02351             680.00    -3280.00
02352             680.00    -3240.00
02353             680.00    -3240.00
02354             680.00    -3240.00
02355             640.00    -3200.00
02356             640.00    -3200.00
02357             640.00    -3160.00
02358             600.00    -3160.00
02359             680.00    -3120.00
02360             680.00    -3080.00
02361             600.00    -3080.00
02362             600.00    -3080.00
02363             600.00    -3080.00
02364             600.00    -3040.00
02365             680.00    -3040.00
02366             600.00    -3040.00
02367             600.00    -3000.00
02368             600.00    -2960.00
02369             600.00    -2960.00
02370             600.00    -2920.00
02371             560.00    -2920.00
02372             600.00    -2880.00
02373             560.00    -2920.00
02374             560.00    -2880.00
02375             560.00    -2880.00
02376             560.00    -2840.00
02377             560.00    -2800.00
02378             560.00    -2800.00
02379             560.00    -2760.00
02380             560.00    -2760.00
02381             560.00    -2720.00
02382             560.00    -2720.00
02383             520.00    -2720.00
02384             560.00    -2640.00
02385             520.00    -2680.00
02386             520.00    -2640.00
02387             520.00    -2640.00
02388             520.00    -2640.00
02389             520.00    -2560.00
02390             520.00    -2560.00
02391             520.00    -2560.00
02392             520.00    -2520.00
02393             520.00    -2520.00
02394             520.00    -2480.00
02395             520.00    -2480.00
02396             520.00    -2440.00
02397             480.00    -2400.00
02398             520.00    -2400.00
02399             440.00    -2400.00
02400             520.00    -2360.00
02401             440.00    -2360.00
02402             440.00    -2320.00
02403             440.00    -2280.00
02404             440.00    -2280.00
02405             440.00    -2200.00
02406             440.00    -2240.00
02407             440.00    -2200.00
02408             440.00    -2160.00
02409             440.00    -2160.00
02410             440.00    -2120.00
02411             440.00    -2120.00
02412             440.00    -2080.00
02413             440.00    -2080.00
02414             440.00    -2000.00
02415             400.00    -2000.00
02416             440.00    -2000.00
02417             400.00    -1960.00
02418             400.00    -1960.00
02419             400.00    -1920.00
02420             400.00    -1920.00
02421             440.00    -1840.00
02422             400.00    -1840.00
02423             400.00    -1840.00
02424             400.00    -1800.00
02425             400.00    -1800.00
02426             400.00    -1800.00
02427             400.00    -1760.00
02428             360.00    -1720.00
02429             360.00    -1720.00
02430             360.00    -1680.00
02431             360.00    -1680.00
02432             360.00    -1600.00
02433             400.00    -1600.00
02434             360.00    -1600.00
02435             360.00    -1600.00
02436             360.00    -1520.00
02437             360.00    -1520.00
02438             360.00    -1480.00
02439             320.00    -1440.00
02440             360.00    -1440.00
02441             360.00    -1400.00
02442             360.00    -1360.00
02443             360.00    -1360.00
02444             280.00    -1360.00
02445             280.00    -1320.00
02446             280.00    -1320.00
02447             240.00    -1280.00
02448             280.00    -1280.00
02449             280.00    -1200.00
02450             240.00    -1200.00
02451             240.00    -1200.00
02452             240.00    -1160.00
02453             240.00    -1120.00
02454             280.00    -1120.00
02455             200.00    -1040.00
02456             240.00    -1040.00
02457             240.00    -1040.00
02458             240.00    -1000.00
02459             240.00     -960.00
02460             240.00     -920.00
02461             200.00     -960.00
02462             200.00     -880.00
02463             200.00     -880.00
02464             200.00     -840.00
02465             200.00     -840.00
02466             200.00     -800.00
02467             200.00     -800.00
02468             200.00     -760.00
02469             200.00     -720.00
02470             200.00     -720.00
02471             160.00     -640.00
02472             200.00     -680.00
02473             160.00     -600.00
02474             160.00     -560.00
02475             160.00     -560.00
02476             160.00     -560.00
02477             120.00     -520.00
02478             120.00     -520.00
02479             120.00     -480.00
02480              80.00     -480.00
02481             120.00     -400.00
02482              80.00     -400.00
02483             120.00     -360.00
02484              80.00     -360.00
02485             120.00     -320.00
02486              80.00     -320.00
02487             120.00     -280.00
02488              80.00     -240.00
02489              80.00     -200.00
02490              80.00     -200.00
02491              80.00     -160.00
02492              80.00     -160.00
02493              80.00     -120.00
02494              80.00      -80.00
02495              80.00      -40.00
02496              80.00      -80.00
02497              40.00      -40.00
02498              40.00        0.00
02499              40.00       40.00
02500              40.00       80.00
02501              40.00       80.00
02502              40.00      120.00
02503              40.00      120.00
02504              40.00      160.00
02505              40.00      200.00
02506              40.00      240.00
02507              40.00      240.00
02508              40.00      320.00
02509              40.00      360.00
02510               0.00      320.00
02511             -80.00      280.00
02512             -80.00      360.00
02513             -40.00      400.00
02514              40.00      440.00
02515               0.00      440.00
02516             -80.00      480.00
02517             -80.00      480.00
02518             -80.00      520.00
02519             -80.00      560.00
02520             -40.00      600.00
02521             -80.00      640.00
02522             -80.00      600.00
02523            -120.00      640.00
02524             -80.00      640.00
02525            -120.00      680.00
02526             -80.00      720.00
02527             -80.00      760.00
02528            -120.00      800.00
02529            -120.00      800.00
02530            -120.00      840.00
02531            -120.00      880.00
02532            -120.00      880.00
02533            -120.00      920.00
02534            -120.00      920.00
02535            -120.00      960.00
02536            -120.00      960.00
02537            -120.00     1040.00
02538            -160.00     1040.00
02539            -160.00     1040.00
02540            -200.00     1080.00
02541            -120.00     1120.00
02542            -120.00     1120.00
02543            -200.00     1160.00
02544            -160.00     1200.00
02545            -200.00     1240.00
02546            -200.00     1280.00
02547            -200.00     1280.00
02548            -200.00     1280.00
02549            -200.00     1280.00
02550            -240.00     1320.00
02551            -200.00     1360.00
02552            -200.00     1400.00
02553            -200.00     1440.00
02554            -200.00     1440.00
02555            -240.00     1440.00
02556            -240.00     1520.00
02557            -240.00     1560.00
02558            -240.00     1560.00
02559            -240.00     1600.00
02560            -240.00     1640.00
02561            -240.00     1600.00
02562            -240.00     1640.00
02563            -240.00     1680.00
02564            -240.00     1680.00
02565            -280.00     1720.00
02566            -280.00     1720.00
02567            -280.00     1760.00
02568            -280.00     1760.00
02569            -280.00     1800.00
02570            -280.00     1840.00
02571            -280.00     1840.00
02572            -280.00     1840.00
02573            -320.00     1880.00
02574            -280.00     1920.00
02575            -360.00     1920.00
02576            -320.00     2000.00
02577            -320.00     2000.00
02578            -360.00     2000.00
02579            -360.00     2000.00
02580            -360.00     2040.00
02581            -360.00     2080.00
02582            -400.00     2080.00
02583            -400.00     2120.00
02584            -360.00     2160.00
02585            -400.00     2160.00
02586            -400.00     2160.00
02587            -400.00     2200.00
02588            -400.00     2240.00
02589            -400.00     2240.00
02590            -400.00     2240.00
02591            -440.00     2280.00
02592            -400.00     2320.00
02593            -400.00     2360.00
02594            -440.00     2360.00
02595            -400.00     2400.00
02596            -440.00     2400.00
02597            -440.00     2400.00
02598            -440.00     2480.00
02599            -440.00     2480.00
02600            -440.00     2520.00
02601            -440.00     2520.00
02602            -440.00     2520.00
02603            -440.00     2560.00
02604            -440.00     2560.00
02605            -440.00     2600.00
02606            -440.00     2640.00
02607            -440.00     2640.00
02608            -440.00     2640.00
02609            -440.00     2680.00
02610            -440.00     2720.00
02611            -440.00     2720.00
02612            -480.00     2720.00
02613            -440.00     2720.00
02614            -440.00     2800.00
02615            -440.00     2800.00
02616            -520.00     2800.00
02617            -520.00     2840.00
02618            -520.00     2840.00
02619            -440.00     2880.00
02620            -520.00     2920.00
02621            -520.00     2920.00
02622            -520.00     2920.00
02623            -520.00     2960.00
02624            -520.00     3000.00
02625            -520.00     3000.00
02626            -520.00     3000.00
02627            -560.00     3000.00
02628            -520.00     3000.00
02629            -560.00     3080.00
02630            -560.00     3120.00
02631            -560.00     3120.00
02632            -560.00     3120.00
02633            -560.00     3120.00
02634            -560.00     3160.00
02635            -560.00     3160.00
02636            -560.00     3200.00
02637            -560.00     3200.00
02638            -560.00     3200.00
02639            -560.00     3200.00
02640            -560.00     3240.00
02641            -600.00     3280.00
02642            -600.00     3280.00
02643            -600.00     3280.00
02644            -600.00     3280.00
02645            -600.00     3320.00
02646            -600.00     3320.00
02647            -600.00     3360.00
02648            -640.00     3360.00
02649            -600.00     3400.00
02650            -600.00     3440.00
02651            -600.00     3440.00
02652            -680.00     3440.00
02653            -600.00     3440.00
02654            -600.00     3480.00
02655            -600.00     3440.00
02656            -640.00     3480.00
02657            -680.00     3520.00
02658            -600.00     3520.00
02659            -680.00     3520.00
02660            -600.00     3520.00
02661            -680.00     3520.00
02662            -680.00     3600.00
02663            -680.00     3560.00
02664            -680.00     3600.00
02665            -640.00     3600.00
02666            -680.00     3640.00
02667            -680.00     3640.00
02668            -680.00     3680.00
02669            -680.00     3680.00
02670            -640.00     3680.00
02671            -680.00     3680.00
02672            -640.00     3720.00
02673            -680.00     3720.00
02674            -600.00     3720.00
02675            -680.00     3760.00
02676            -680.00     3760.00
02677            -680.00     3800.00
02678            -680.00     3800.00
02679            -680.00     3760.00
02680            -680.00     3800.00
02681            -720.00     3800.00
02682            -680.00     3840.00
02683            -680.00     3800.00
02684            -680.00     3840.00
02685            -720.00     3840.00
02686            -680.00     3880.00
02687            -680.00     3840.00
02688            -720.00     3920.00
02689            -720.00     3920.00
02690            -720.00     3920.00
02691            -720.00     3920.00
02692            -680.00     3920.00
02693            -720.00     3920.00
02694            -720.00     3920.00
02695            -720.00     3960.00
02696            -720.00     3960.00
02697            -720.00     3920.00
02698            -720.00     3960.00
02699            -720.00     3960.00
02700            -720.00     4000.00
02701            -720.00     4000.00
02702            -720.00     4000.00
02703            -720.00     4000.00
02704            -720.00     4000.00
02705            -720.00     4000.00
02706            -760.00     4000.00
02707            -760.00     4040.00
02708            -720.00     4040.00
02709            -760.00     4080.00
02710            -760.00     4080.00
02711            -760.00     4080.00
02712            -760.00     4080.00
02713            -760.00     4080.00
02714            -760.00     4080.00
02715            -760.00     4080.00
02716            -760.00     4120.00
02717            -760.00     4120.00
02718            -760.00     4120.00
02719            -760.00     4080.00
02720            -760.00     4120.00
02721            -760.00     4120.00
02722            -760.00     4120.00
02723            -760.00     4160.00
02724            -760.00     4120.00
02725            -760.00     4120.00
02726            -760.00     4120.00
02727            -760.00     4160.00
02728            -760.00     4200.00
02729            -760.00     4160.00
02730            -760.00     4160.00
02731            -760.00     4200.00
02732            -760.00     4200.00
02733            -760.00     4160.00
02734            -760.00     4200.00
02735            -760.00     4200.00
02736            -760.00     4200.00
02737            -760.00     4160.00
02738            -760.00     4200.00
02739            -760.00     4200.00
02740            -760.00     4240.00
02741            -760.00     4160.00
02742            -760.00     4200.00
02743            -760.00     4200.00
02744            -760.00     4200.00
02745            -760.00     4200.00
02746            -760.00     4200.00
02747            -760.00     4160.00
02748            -760.00     4200.00
02749            -760.00     4160.00
02750            -800.00     4200.00
02751            -760.00     4240.00
02752            -760.00     4160.00
02753            -760.00     4200.00
02754            -760.00     4240.00
02755            -800.00     4200.00
02756            -760.00     4200.00
02757            -760.00     4160.00
02758            -760.00     4200.00
02759            -760.00     4200.00
02760            -760.00     4200.00
02761            -760.00     4200.00
02762            -760.00     4200.00
02763            -760.00     4160.00
02764            -760.00     4200.00
02765            -760.00     4200.00
02766            -760.00     4200.00
02767            -760.00     4160.00
02768            -800.00     4200.00
02769            -760.00     4160.00
02770            -760.00     4160.00
02771            -760.00     4200.00
02772            -760.00     4160.00
02773            -760.00     4200.00
02774            -760.00     4160.00
02775            -800.00     4120.00
02776            -760.00     4160.00
02777            -760.00     4120.00
02778            -800.00     4200.00
02779            -840.00     4120.00
02780            -760.00     4120.00
02781            -760.00     4120.00
02782            -800.00     4120.00
02783            -760.00     4120.00
02784            -760.00     4120.00
02785            -800.00     4080.00
02786            -760.00     4080.00
02787            -760.00     4080.00
02788            -760.00     4080.00
02789            -760.00     4080.00
02790            -760.00     4080.00
02791            -760.00     4080.00
02792            -800.00     4080.00
02793            -760.00     4040.00
02794            -760.00     4040.00
02795            -760.00     4040.00
02796            -760.00     4000.00
02797            -760.00     4000.00
02798            -760.00     4000.00
02799            -760.00     4000.00
02800            -760.00     3960.00
02801            -760.00     4000.00
02802            -720.00     3960.00
02803            -760.00     3960.00
02804            -760.00     3960.00
02805            -760.00     3960.00
02806            -760.00     3960.00
02807            -760.00     3920.00
02808            -760.00     3920.00
02809            -760.00     3920.00
02810            -720.00     3920.00
02811            -720.00     3920.00
02812            -760.00     3920.00
02813            -720.00     3880.00
02814            -760.00     3880.00
02815            -760.00     3840.00
02816            -760.00     3840.00
02817            -720.00     3840.00
02818            -720.00     3840.00
02819            -720.00     3840.00
02820            -720.00     3800.00
02821            -720.00     3840.00
02822            -720.00     3800.00
02823            -720.00     3760.00
02824            -720.00     3760.00
02825            -720.00     3760.00
02826            -720.00     3760.00
02827            -720.00     3720.00
02828            -720.00     3720.00
02829            -720.00     3760.00
02830            -680.00     3680.00
02831            -720.00     3680.00
02832            -680.00     3680.00
02833            -720.00     3680.00
02834            -680.00     3680.00
02835            -720.00     3640.00
02836            -720.00     3640.00
02837            -720.00     3640.00
02838            -720.00     3600.00
02839            -680.00     3600.00
02840            -680.00     3560.00
02841            -720.00     3520.00
02842            -720.00     3560.00
02843            -720.00     3520.00
02844            -680.00     3520.00
02845            -680.00     3480.00
02846            -680.00     3480.00
02847            -680.00     3480.00
02848            -680.00     3440.00
02849            -680.00     3440.00
02850            -680.00     3440.00
02851            -680.00     3440.00
02852            -680.00     3400.00
02853            -680.00     3360.00
02854            -680.00     3360.00
02855            -640.00     3360.00
02856            -600.00     3320.00
02857            -680.00     3320.00
02858            -680.00     3280.00
02859            -640.00     3280.00
02860            -640.00     3280.00
02861            -640.00     3280.00
02862            -640.00     3240.00
02863            -600.00     3200.00
02864            -600.00     3240.00
02865            -600.00     3200.00
02866            -600.00     3200.00
02867            -600.00     3160.00
02868            -600.00     3160.00
02869            -600.00     3120.00
02870            -600.00     3080.00
02871            -600.00     3080.00
02872            -600.00     3080.00
02873            -560.00     3000.00
02874            -600.00     3040.00
02875            -600.00     3000.00
02876            -560.00     2960.00
02877            -560.00     2960.00
02878            -600.00     2960.00
02879            -600.00     2960.00
02880            -560.00     2920.00
02881            -560.00     2880.00
02882            -560.00     2920.00
02883            -560.00     2840.00
02884            -560.00     2840.00
02885            -560.00     2800.00
02886            -560.00     2840.00
02887            -560.00     2800.00
02888            -560.00     2760.00
02889            -560.00     2760.00
02890            -520.00     2720.00
02891            -560.00     2720.00
02892            -520.00     2720.00
02893            -560.00     2680.00
02894            -520.00     2640.00
02895            -520.00     2640.00
02896            -520.00     2640.00
02897            -520.00     2600.00
02898            -520.00     2560.00
02899            -520.00     2560.00
02900            -520.00     2520.00
02901            -520.00     2520.00
02902            -520.00     2480.00
02903            -520.00     2480.00
02904            -440.00     2480.00
02905            -520.00     2400.00
02906            -520.00     2440.00
02907            -480.00     2400.00
02908            -480.00     2360.00
02909            -440.00     2320.00
02910            -520.00     2320.00
02911            -440.00     2320.00
02912            -440.00     2280.00
02913            -440.00     2240.00
02914            -440.00     2240.00
02915            -440.00     2200.00
02916            -440.00     2160.00
02917            -440.00     2160.00
02918            -440.00     2160.00
02919            -440.00     2160.00
02920            -440.00     2120.00
02921            -440.00     2080.00
02922            -400.00     2080.00
02923            -440.00     2040.00
02924            -440.00     2040.00
02925            -400.00     2000.00
02926            -440.00     2000.00
02927            -440.00     2000.00
02928            -400.00     1920.00
02929            -440.00     1880.00
02930            -400.00     1880.00
02931            -400.00     1880.00
02932            -360.00     1840.00
02933            -360.00     1800.00
02934            -360.00     1760.00
02935            -360.00     1760.00
02936            -400.00     1720.00
02937            -360.00     1720.00
02938            -360.00     1680.00
02939            -360.00     1680.00
02940            -360.00     1640.00
02941            -360.00     1640.00
02942            -280.00     1600.00
02943            -320.00     1600.00
02944            -280.00     1560.00
02945            -320.00     1520.00
02946            -320.00     1520.00
02947            -280.00     1520.00
02948            -280.00     1440.00
02949            -280.00     1440.00
02950            -280.00     1400.00
02951            -280.00     1400.00
02952            -280.00     1360.00
02953            -280.00     1360.00
02954            -280.00     1280.00
02955            -240.00     1280.00
02956            -280.00     1280.00
02957            -280.00     1240.00
02958            -240.00     1200.00
02959            -240.00     1200.00
02960            -240.00     1200.00
02961            -240.00     1160.00
02962            -240.00     1120.00
02963            -240.00     1120.00
02964            -240.00     1080.00
02965            -240.00     1040.00
02966            -240.00     1000.00
02967            -200.00      960.00
02968            -240.00      960.00
02969            -240.00      960.00
02970            -240.00      920.00
02971            -200.00      880.00
02972            -240.00      880.00
02973            -200.00      800.00
02974            -200.00      800.00
02975            -200.00      800.00
02976            -200.00      760.00
02977            -200.00      760.00
02978            -200.00      720.00
02979            -160.00      720.00
02980            -200.00      680.00
02981            -160.00      640.00
02982            -200.00      600.00
02983            -200.00      600.00
02984            -160.00      560.00
02985            -120.00      560.00
02986            -120.00      560.00
02987            -120.00      520.00
02988            -120.00      480.00
02989            -160.00      440.00
02990            -120.00      400.00
02991            -120.00      400.00
02992            -120.00      360.00
02993             -80.00      320.00
02994            -120.00      320.00
02995            -120.00      280.00
02996             -80.00      240.00
02997             -80.00      240.00
02998             -80.00      160.00
02999             -80.00      160.00
03000             -80.00      160.00
03001            -120.00      120.00
03002             -40.00      120.00
03003             -40.00       80.00
03004             -40.00       80.00
03005             -80.00       40.00
03006             -40.00        0.00
03007             -40.00        0.00
03008             -40.00      -40.00
03009             -40.00      -40.00
03010              40.00      -80.00
03011              40.00      -80.00
03012               0.00     -120.00
03013              40.00     -160.00
03014               0.00     -200.00
03015              40.00     -240.00
03016              40.00     -240.00
03017              40.00     -240.00
03018              80.00     -280.00
03019              40.00     -320.00
03020             -40.00     -400.00
03021               0.00     -400.00
03022              40.00     -400.00
03023              80.00     -480.00
03024              40.00     -480.00
03025              80.00     -480.00
03026              80.00     -480.00
03027              80.00     -560.00
03028              40.00     -560.00
03029              80.00     -560.00
03030              80.00     -640.00
03031              80.00     -640.00
03032              80.00     -680.00
03033              80.00     -680.00
03034              80.00     -720.00
03035              40.00     -720.00
03036              80.00     -760.00
03037              80.00     -800.00
03038              80.00     -800.00
03039              80.00     -840.00
03040             120.00     -880.00
03041             120.00     -880.00
03042             120.00     -880.00
03043             120.00     -920.00
03044             120.00     -960.00
03045             120.00    -1000.00
03046             120.00    -1000.00
03047             120.00    -1080.00
03048             160.00    -1080.00
03049             120.00    -1120.00
03050             200.00    -1120.00
03051             120.00    -1120.00
03052             200.00    -1160.00
03053             160.00    -1200.00
03054             200.00    -1200.00
03055             200.00    -1240.00
03056             200.00    -1280.00
03057             200.00    -1280.00
03058             200.00    -1320.00
03059             200.00    -1360.00
03060             200.00    -1360.00
03061             240.00    -1400.00
03062             240.00    -1440.00
03063             240.00    -1440.00
03064             240.00    -1480.00
03065             280.00    -1480.00
03066             240.00    -1480.00
03067             240.00    -1520.00
03068             240.00    -1560.00
03069             280.00    -1600.00
03070             240.00    -1600.00
03071             280.00    -1640.00
03072             280.00    -1680.00
03073             280.00    -1680.00
03074             280.00    -1680.00
03075             280.00    -1680.00
03076             280.00    -1760.00
03077             280.00    -1760.00
03078             320.00    -1800.00
03079             360.00    -1840.00
03080             320.00    -1840.00
03081             360.00    -1880.00
03082             320.00    -1880.00
03083             360.00    -1920.00
03084             360.00    -1960.00
03085             360.00    -1960.00
03086             360.00    -1960.00
03087             360.00    -2000.00
03088             360.00    -2080.00
03089             400.00    -2040.00
03090             360.00    -2080.00
03091             400.00    -2080.00
03092             360.00    -2120.00
03093             400.00    -2160.00
03094             400.00    -2160.00
03095             400.00    -2160.00
03096             400.00    -2240.00
03097             360.00    -2200.00
03098             400.00    -2280.00
03099             360.00    -2280.00
03100             400.00    -2280.00
03101             400.00    -2320.00
03102             400.00    -2320.00
03103             400.00    -2360.00
03104             400.00    -2360.00
03105             400.00    -2440.00
03106             400.00    -2440.00
03107             440.00    -2480.00
03108             400.00    -2480.00
03109             440.00    -2520.00
03110             400.00    -2480.00
03111             440.00    -2560.00
03112             440.00    -2560.00
03113             440.00    -2560.00
03114             440.00    -2600.00
03115             400.00    -2640.00
03116             440.00    -2640.00
03117             400.00    -2640.00
03118             440.00    -2640.00
03119             440.00    -2680.00
03120             440.00    -2720.00
03121             440.00    -2720.00
03122             520.00    -2760.00
03123             520.00    -2760.00
03124             520.00    -2800.00
03125             520.00    -2800.00
03126             520.00    -2840.00
03127             520.00    -2880.00
03128             520.00    -2880.00
03129             520.00    -2880.00
03130             520.00    -2920.00
03131             520.00    -2920.00
03132             520.00    -2960.00
03133             520.00    -2960.00
03134             560.00    -3000.00
03135             520.00    -3040.00
03136             560.00    -3040.00
03137             520.00    -3040.00
03138             560.00    -3080.00
03139             560.00    -3080.00
03140             560.00    -3080.00
03141             560.00    -3120.00
03142             560.00    -3120.00
03143             560.00    -3120.00
03144             560.00    -3120.00
03145             600.00    -3160.00
03146             560.00    -3200.00
03147             560.00    -3200.00
03148             600.00    -3240.00
03149             600.00    -3240.00
03150             600.00    -3280.00
03151             560.00    -3280.00
03152             600.00    -3320.00
03153             600.00    -3320.00
03154             600.00    -3320.00
03155             600.00    -3360.00
03156             600.00    -3360.00
03157             600.00    -3360.00
03158             680.00    -3400.00
03159             600.00    -3400.00
03160             640.00    -3440.00
03161             600.00    -3440.00
03162             680.00    -3440.00
03163             600.00    -3440.00
03164             600.00    -3480.00
03165             600.00    -3520.00
03166             640.00    -3480.00
03167             600.00    -3520.00
03168             600.00    -3520.00
03169             600.00    -3560.00
03170             680.00    -3560.00
03171             640.00    -3560.00
03172             640.00    -3600.00
03173             640.00    -3600.00
03174             680.00    -3640.00
03175             680.00    -3640.00
03176             680.00    -3600.00
03177             680.00    -3640.00
03178             680.00    -3680.00
03179             680.00    -3680.00
03180             680.00    -3680.00
03181             680.00    -3720.00
03182             680.00    -3720.00
03183             680.00    -3720.00
03184             720.00    -3720.00
03185             680.00    -3760.00
03186             680.00    -3760.00
03187             680.00    -3760.00
03188             680.00    -3800.00
03189             720.00    -3760.00
03190             680.00    -3800.00
03191             680.00    -3800.00
03192             680.00    -3840.00
03193             680.00    -3840.00
03194             720.00    -3840.00
03195             720.00    -3840.00
03196             720.00    -3880.00
03197             720.00    -3840.00
03198             720.00    -3880.00
03199             720.00    -3880.00
03200             720.00    -3880.00
03201             720.00    -3920.00
03202             720.00    -3920.00
03203             720.00    -3920.00
03204             760.00    -3960.00
03205             720.00    -3920.00
03206             720.00    -3920.00
03207             720.00    -3960.00
03208             720.00    -3960.00
03209             720.00    -4000.00
03210             760.00    -4000.00
03211             720.00    -4000.00
03212             760.00    -4000.00
03213             760.00    -4040.00
03214             720.00    -4000.00
03215             720.00    -4000.00
03216             760.00    -4040.00
03217             720.00    -4040.00
03218             760.00    -4040.00
03219             720.00    -4040.00
03220             760.00    -4080.00
03221             760.00    -4080.00
03222             760.00    -4040.00
03223             760.00    -4040.00
03224             760.00    -4080.00
03225             760.00    -4080.00
03226             720.00    -4080.00
03227             720.00    -4080.00
03228             760.00    -4080.00
03229             720.00    -4080.00
03230             760.00    -4120.00
03231             760.00    -4120.00
03232             760.00    -4160.00
03233             800.00    -4120.00
03234             760.00    -4160.00
03235             760.00    -4160.00
03236             760.00    -4160.00
03237             720.00    -4160.00
03238             760.00    -4160.00
03239             760.00    -4160.00
03240             800.00    -4160.00
03241             760.00    -4160.00
03242             760.00    -4160.00
03243             760.00    -4160.00
03244             800.00    -4160.00
03245             760.00    -4160.00
03246             840.00    -4160.00
03247             760.00    -4160.00
03248             760.00    -4200.00
03249             840.00    -4200.00
03250             760.00    -4160.00
03251             800.00    -4160.00
03252             760.00    -4160.00
03253             760.00    -4160.00
03254             760.00    -4160.00
03255             840.00    -4200.00
03256             760.00    -4200.00
03257             840.00    -4200.00
03258             840.00    -4200.00
03259             760.00    -4200.00
03260             760.00    -4200.00
03261             800.00    -4160.00
03262             760.00    -4200.00
03263             760.00    -4200.00
03264             760.00    -4160.00
03265             760.00    -4200.00
03266             840.00    -4200.00
03267             800.00    -4160.00
03268             760.00    -4200.00
03269             760.00    -4160.00
03270             800.00    -4160.00
03271             760.00    -4200.00
03272             800.00    -4160.00
03273             760.00    -4160.00
03274             760.00    -4160.00
03275             760.00    -4160.00
03276             840.00    -4160.00
03277             800.00    -4160.00
03278             840.00    -4160.00
03279             800.00    -4160.00
03280             800.00    -4160.00
03281             760.00    -4160.00
03282             760.00    -4160.00
03283             800.00    -4160.00
03284             840.00    -4160.00
03285             800.00    -4120.00
03286             760.00    -4120.00
03287             800.00    -4160.00
03288             760.00    -4120.00
03289             760.00    -4120.00
03290             800.00    -4080.00
03291             760.00    -4120.00
03292             840.00    -4080.00
03293             760.00    -4080.00
03294             760.00    -4080.00
03295             760.00    -4080.00
03296             800.00    -4080.00
03297             760.00    -4040.00
03298             760.00    -4040.00
03299             760.00    -4040.00
03300             760.00    -4040.00
03301             760.00    -4040.00
03302             760.00    -4000.00
03303             760.00    -4040.00
03304             720.00    -4000.00
03305             760.00    -4040.00
03306             760.00    -4000.00
03307             760.00    -4000.00
03308             720.00    -4000.00
03309             760.00    -4000.00
03310             760.00    -4000.00
03311             720.00    -3960.00
03312             760.00    -4000.00
03313             720.00    -3920.00
03314             720.00    -3920.00
03315             760.00    -3920.00
03316             720.00    -3920.00
03317             760.00    -3920.00
03318             760.00    -3920.00
03319             720.00    -3920.00
03320             720.00    -3920.00
03321             760.00    -3880.00
03322             760.00    -3880.00
03323             760.00    -3880.00
03324             720.00    -3840.00
03325             760.00    -3840.00
03326             760.00    -3840.00
03327             720.00    -3840.00
03328             720.00    -3840.00
03329             760.00    -3800.00
03330             720.00    -3800.00
03331             720.00    -3800.00
03332             760.00    -3760.00
03333             720.00    -3760.00
03334             720.00    -3760.00
03335             720.00    -3720.00
03336             720.00    -3720.00
03337             720.00    -3720.00
03338             720.00    -3680.00
03339             720.00    -3680.00
03340             720.00    -3680.00
03341             720.00    -3680.00
03342             720.00    -3680.00
03343             720.00    -3600.00
03344             720.00    -3640.00
03345             720.00    -3600.00
03346             720.00    -3600.00
03347             720.00    -3560.00
03348             720.00    -3560.00
03349             720.00    -3560.00
03350             720.00    -3520.00
03351             680.00    -3520.00
03352             720.00    -3480.00
03353             680.00    -3480.00
03354             720.00    -3480.00
03355             680.00    -3440.00
03356             680.00    -3440.00
03357             680.00    -3440.00
03358             680.00    -3440.00
03359             680.00    -3400.00
03360             680.00    -3360.00
03361             680.00    -3360.00
03362             680.00    -3400.00
03363             640.00    -3360.00
03364             680.00    -3360.00
03365             640.00    -3320.00
03366             680.00    -3280.00
03367             640.00    -3320.00
03368             680.00    -3280.00
03369             640.00    -3280.00
03370             640.00    -3240.00
03371             600.00    -3200.00
03372             640.00    -3200.00
03373             680.00    -3200.00
03374             600.00    -3160.00
03375             640.00    -3160.00
03376             600.00    -3120.00
03377             600.00    -3120.00
03378             600.00    -3120.00
03379             600.00    -3080.00
03380             600.00    -3080.00
03381             640.00    -3040.00
03382             600.00    -3040.00
03383             600.00    -3040.00
03384             560.00    -3000.00
03385             600.00    -2960.00
03386             600.00    -2960.00
03387             600.00    -2960.00
03388             600.00    -2920.00
03389             600.00    -2920.00
03390             560.00    -2880.00
03391             600.00    -2880.00
03392             560.00    -2880.00
03393             560.00    -2800.00
03394             560.00    -2840.00
03395             560.00    -2800.00
03396             560.00    -2800.00
03397             560.00    -2760.00
03398             560.00    -2760.00
03399             520.00    -2720.00
03400             560.00    -2720.00
03401             560.00    -2640.00
03402             560.00    -2640.00
03403             560.00    -2640.00
03404             520.00    -2600.00
03405             560.00    -2600.00
03406             520.00    -2560.00
03407             520.00    -2560.00
03408             520.00    -2560.00
03409             520.00    -2520.00
03410             560.00    -2520.00
03411             520.00    -2480.00
03412             520.00    -2440.00
03413             520.00    -2440.00
03414             520.00    -2400.00
03415             520.00    -2400.00
03416             520.00    -2400.00
03417             440.00    -2360.00
03418             520.00    -2320.00
03419             480.00    -2320.00
03420             520.00    -2280.00
03421             520.00    -2280.00
03422             480.00    -2200.00
03423             480.00    -2200.00
03424             440.00    -2240.00
03425             440.00    -2160.00
03426             520.00    -2160.00
03427             440.00    -2120.00
03428             440.00    -2120.00
03429             400.00    -2080.00
03430             440.00    -2080.00
03431             440.00    -2000.00
03432             400.00    -2000.00
03433             440.00    -2000.00
03434             400.00    -2000.00
03435             400.00    -1960.00
03436             400.00    -1920.00
03437             400.00    -1920.00
03438             400.00    -1920.00
03439             360.00    -1840.00
03440             400.00    -1840.00
03441             360.00    -1800.00
03442             400.00    -1800.00
03443             360.00    -1800.00
03444             360.00    -1760.00
03445             360.00    -1760.00
03446             360.00    -1680.00
03447             360.00    -1680.00
03448             360.00    -1640.00
03449             360.00    -1640.00
03450             360.00    -1640.00
03451             360.00    -1600.00
03452             320.00    -1600.00
03453             360.00    -1520.00
03454             360.00    -1520.00
03455             360.00    -1480.00
03456             320.00    -1440.00
03457             280.00    -1440.00
03458             320.00    -1440.00
03459             320.00    -1400.00
03460             280.00    -1360.00
03461             280.00    -1360.00
03462             320.00    -1320.00
03463             280.00    -1320.00
03464             280.00    -1280.00
03465             280.00    -1280.00
03466             280.00    -1240.00
03467             280.00    -1200.00
03468             240.00    -1200.00
03469             280.00    -1120.00
03470             280.00    -1120.00
03471             280.00    -1120.00
03472             240.00    -1080.00
03473             240.00    -1080.00
03474             240.00    -1000.00
03475             240.00    -1000.00
03476             240.00     -960.00
03477             240.00     -960.00
03478             240.00     -920.00
03479             240.00     -920.00
03480             240.00     -880.00
03481             240.00     -840.00
03482             200.00     -840.00
03483             200.00     -800.00
03484             200.00     -800.00
03485             200.00     -760.00
03486             200.00     -720.00
03487             200.00     -720.00
03488             120.00     -680.00
03489             160.00     -680.00
03490             200.00     -640.00
03491             120.00     -600.00
03492             160.00     -560.00
03493             160.00     -560.00
03494             120.00     -520.00
03495             120.00     -520.00
03496             120.00     -480.00
03497             120.00     -440.00
03498              80.00     -440.00
03499              80.00     -400.00
03500              80.00     -400.00
03501              80.00     -360.00
03502              80.00     -320.00
03503              80.00     -320.00
03504              80.00     -280.00
03505              80.00     -240.00
03506              80.00     -240.00
03507              80.00     -200.00
03508              80.00     -160.00
03509              40.00     -160.00
03510              80.00     -120.00
03511              80.00     -120.00
03512              40.00      -80.00
03513              80.00      -40.00
03514              40.00      -40.00
03515              40.00        0.00
03516              40.00        0.00
03517              40.00       40.00
03518              40.00       80.00
03519              40.00      120.00
03520              40.00      120.00
03521              40.00      160.00
03522              40.00      160.00
03523               0.00      200.00
03524               0.00      240.00
03525              40.00      280.00
03526              40.00      360.00
03527              40.00      320.00
03528             -80.00      280.00
03529             -40.00      320.00
03530             -40.00      400.00
03531             -40.00      440.00
03532               0.00      440.00
03533             -40.00      480.00
03534             -40.00      480.00
03535             -40.00      480.00
03536             -80.00      560.00
03537             -40.00      600.00
03538             -40.00      600.00
03539             -80.00      600.00
03540             -80.00      640.00
03541             -80.00      720.00
03542             -80.00      720.00
03543             -80.00      720.00
03544             -80.00      760.00
03545             -80.00      800.00
03546            -120.00      800.00
03547             -80.00      800.00
03548            -120.00      880.00
03549             -80.00      880.00
03550            -120.00      920.00
03551            -120.00      920.00
03552            -120.00      960.00
03553            -120.00     1000.00
03554            -120.00      960.00
03555            -120.00     1040.00
03556            -120.00     1040.00
03557            -200.00     1080.00
03558            -120.00     1120.00
03559            -200.00     1120.00
03560            -200.00     1200.00
03561            -200.00     1200.00
03562            -200.00     1200.00
03563            -200.00     1240.00
03564            -200.00     1280.00
03565            -200.00     1280.00
03566            -200.00     1280.00
03567            -200.00     1320.00
03568            -240.00     1360.00
03569            -240.00     1360.00
03570            -240.00     1400.00
03571            -240.00     1440.00
03572            -240.00     1440.00
03573            -240.00     1520.00
03574            -240.00     1520.00
03575            -280.00     1560.00
03576            -240.00     1560.00
03577            -240.00     1600.00
03578            -240.00     1600.00
03579            -240.00     1640.00
03580            -280.00     1680.00
03581            -280.00     1680.00
03582            -280.00     1680.00
03583            -280.00     1720.00
03584            -280.00     1760.00
03585            -240.00     1760.00
03586            -280.00     1760.00
03587            -280.00     1840.00
03588            -320.00     1840.00
03589            -280.00     1840.00
03590            -280.00     1880.00
03591            -280.00     1920.00
03592            -320.00     1920.00
03593            -280.00     1960.00
03594            -320.00     2000.00
03595            -320.00     2000.00
03596            -360.00     2000.00
03597            -360.00     2040.00
03598            -320.00     2080.00
03599            -360.00     2080.00
03600            -360.00     2120.00
03601            -360.00     2160.00
03602            -360.00     2160.00
03603            -360.00     2200.00
03604            -360.00     2200.00
03605            -400.00     2240.00
03606            -400.00     2280.00
03607            -360.00     2240.00
03608            -360.00     2320.00
03609            -400.00     2320.00
03610            -400.00     2360.00
03611            -400.00     2360.00
03612            -400.00     2400.00
03613            -440.00     2400.00
03614            -400.00     2400.00
03615            -440.00     2440.00
03616            -400.00     2480.00
03617            -440.00     2480.00
03618            -440.00     2520.00
03619            -440.00     2520.00
03620            -440.00     2560.00
03621            -440.00     2560.00
03622            -440.00     2600.00
03623            -440.00     2600.00
03624            -480.00     2640.00
03625            -440.00     2640.00
03626            -440.00     2680.00
03627            -440.00     2680.00
03628            -480.00     2720.00
03629            -520.00     2720.00
03630            -480.00     2760.00
03631            -520.00     2760.00
03632            -520.00     2800.00
03633            -520.00     2840.00
03634            -520.00     2840.00
03635            -520.00     2880.00
03636            -480.00     2880.00
03637            -520.00     2920.00
03638            -560.00     2880.00
03639            -520.00     2960.00
03640            -560.00     2960.00
03641            -560.00     3000.00
03642            -520.00     3000.00
03643            -560.00     2960.00
03644            -560.00     3000.00
03645            -560.00     3000.00
03646            -520.00     3040.00
03647            -560.00     3040.00
03648            -560.00     3120.00
03649            -560.00     3120.00
03650            -560.00     3120.00
03651            -560.00     3120.00
03652            -560.00     3160.00
03653            -560.00     3160.00
03654            -560.00     3200.00
03655            -560.00     3200.00
03656            -560.00     3200.00
03657            -560.00     3280.00
03658            -560.00     3280.00
03659            -560.00     3280.00
03660            -600.00     3280.00
03661            -560.00     3320.00
03662            -560.00     3320.00
03663            -560.00     3320.00
03664            -600.00     3360.00
03665            -600.00     3360.00
03666            -560.00     3360.00
03667            -600.00     3400.00
03668            -600.00     3440.00
03669            -600.00     3440.00
03670            -600.00     3440.00
03671            -600.00     3480.00
03672            -600.00     3480.00
03673            -640.00     3440.00
03674            -600.00     3520.00
03675            -600.00     3480.00
03676            -600.00     3520.00
03677            -600.00     3560.00
03678            -600.00     3520.00
03679            -600.00     3520.00
03680            -640.00     3600.00
03681            -680.00     3600.00
03682            -600.00     3640.00
03683            -640.00     3640.00
03684            -600.00     3640.00
03685            -680.00     3640.00
03686            -680.00     3680.00
03687            -680.00     3680.00
03688            -680.00     3680.00
03689            -680.00     3680.00
03690            -680.00     3720.00
03691            -680.00     3720.00
03692            -680.00     3760.00
03693            -720.00     3760.00
03694            -680.00     3760.00
03695            -680.00     3760.00
03696            -680.00     3800.00
03697            -720.00     3760.00
03698            -680.00     3840.00
03699            -680.00     3800.00
03700            -680.00     3840.00
03701            -680.00     3840.00
03702            -720.00     3840.00
03703            -720.00     3840.00
03704            -720.00     3840.00
03705            -720.00     3840.00
03706            -720.00     3880.00
03707            -680.00     3920.00
03708            -720.00     3920.00
03709            -720.00     3920.00
03710            -760.00     3920.00
03711            -720.00     3920.00
03712            -720.00     3960.00
03713            -720.00     3920.00
03714            -760.00     3960.00
03715            -760.00     3960.00
03716            -720.00     4000.00
03717            -720.00     4000.00
03718            -720.00     4000.00
03719            -760.00     4000.00
03720            -720.00     4000.00
03721            -720.00     4000.00
03722            -720.00     4000.00
03723            -760.00     4040.00
03724            -760.00     4000.00
03725            -720.00     4000.00
03726            -720.00     4040.00
03727            -760.00     4040.00
03728            -720.00     4080.00
03729            -720.00     4040.00
03730            -720.00     4080.00
03731            -760.00     4080.00
03732            -720.00     4080.00
03733            -760.00     4120.00
03734            -720.00     4120.00
03735            -760.00     4120.00
03736            -760.00     4080.00
03737            -760.00     4120.00
03738            -760.00     4120.00
03739            -720.00     4160.00
03740            -760.00     4120.00
03741            -760.00     4120.00
03742            -760.00     4120.00
03743            -760.00     4200.00
03744            -760.00     4120.00
03745            -760.00     4160.00
03746            -760.00     4120.00
03747            -760.00     4120.00
03748            -760.00     4120.00
03749            -760.00     4200.00
03750            -760.00     4160.00
03751            -760.00     4200.00
03752            -760.00     4200.00
03753            -840.00     4200.00
03754            -760.00     4160.00
03755            -800.00     4160.00
03756            -760.00     4200.00
03757            -760.00     4200.00
03758            -760.00     4200.00
03759            -760.00     4160.00
03760            -760.00     4200.00
03761            -760.00     4200.00
03762            -760.00     4200.00
03763            -760.00     4200.00
03764            -760.00     4200.00
03765            -800.00     4160.00
03766            -760.00     4200.00
03767            -800.00     4200.00
03768            -800.00     4160.00
03769            -800.00     4200.00
03770            -760.00     4200.00
03771            -800.00     4160.00
03772            -760.00     4160.00
03773            -760.00     4200.00
03774            -800.00     4200.00
03775            -760.00     4160.00
03776            -760.00     4160.00
03777            -760.00     4200.00
03778            -760.00     4160.00
03779            -760.00     4200.00
03780            -760.00     4160.00
03781            -760.00     4200.00
03782            -760.00     4160.00
03783            -760.00     4120.00
03784            -760.00     4200.00
03785            -760.00     4160.00
03786            -760.00     4160.00
03787            -760.00     4160.00
03788            -760.00     4160.00
03789            -760.00     4160.00
03790            -760.00     4160.00
03791            -760.00     4160.00
03792            -760.00     4160.00
03793            -800.00     4120.00
03794            -760.00     4160.00
03795            -760.00     4200.00
03796            -760.00     4120.00
03797            -760.00     4120.00
03798            -760.00     4120.00
03799            -760.00     4160.00
03800            -760.00     4080.00
03801            -760.00     4120.00
03802            -760.00     4080.00
03803            -760.00     4080.00
03804            -760.00     4080.00
03805            -760.00     4080.00
03806            -760.00     4080.00
03807            -800.00     4080.00
03808            -760.00     4040.00
03809            -760.00     4080.00
03810            -760.00     4040.00
03811            -760.00     4000.00
03812            -760.00     4040.00
03813            -760.00     4040.00
03814            -760.00     4000.00
03815            -760.00     4000.00
03816            -760.00     4000.00
03817            -760.00     3960.00
03818            -760.00     3960.00
03819            -760.00     4000.00
03820            -760.00     3960.00
03821            -760.00     3960.00
03822            -760.00     3920.00
03823            -760.00     3920.00
03824            -760.00     3920.00
03825            -760.00     3920.00
03826            -760.00     3920.00
03827            -760.00     3920.00
03828            -760.00     3920.00
03829            -760.00     3920.00
03830            -760.00     3880.00
03831            -720.00     3920.00
03832            -720.00     3840.00
03833            -760.00     3840.00
03834            -720.00     3840.00
03835            -760.00     3840.00
03836            -720.00     3840.00
03837            -760.00     3840.00
03838            -760.00     3800.00
03839            -720.00     3800.00
03840            -760.00     3760.00
03841            -720.00     3760.00
03842            -720.00     3760.00
03843            -720.00     3760.00
03844            -720.00     3760.00
03845            -720.00     3720.00
03846            -720.00     3680.00
03847            -720.00     3720.00
03848            -720.00     3680.00
03849            -720.00     3680.00
03850            -720.00     3640.00
03851            -680.00     3640.00
03852            -720.00     3680.00
03853            -680.00     3640.00
03854            -720.00     3600.00
03855            -720.00     3600.00
03856            -680.00     3600.00
03857            -680.00     3560.00
03858            -680.00     3520.00
03859            -680.00     3520.00
03860            -680.00     3520.00
03861            -680.00     3520.00
03862            -680.00     3480.00
03863            -680.00     3480.00
03864            -640.00     3480.00
03865            -640.00     3440.00
03866            -640.00     3440.00
03867            -640.00     3440.00
03868            -680.00     3440.00
03869            -600.00     3440.00
03870            -640.00     3360.00
03871            -640.00     3360.00
03872            -600.00     3320.00
03873            -680.00     3360.00
03874            -600.00     3320.00
03875            -640.00     3280.00
03876            -600.00     3280.00
03877            -680.00     3280.00
03878            -600.00     3240.00
03879            -600.00     3200.00
03880            -600.00     3200.00
03881            -640.00     3200.00
03882            -600.00     3200.00
03883            -600.00     3160.00
03884            -600.00     3160.00
03885            -600.00     3160.00
03886            -600.00     3120.00
03887            -600.00     3120.00
03888            -600.00     3120.00
03889            -600.00     3120.00
03890            -600.00     3040.00
03891            -600.00     3040.00
03892            -600.00     3000.00
03893            -600.00     3000.00
03894            -560.00     3000.00
03895            -600.00     2960.00
03896            -560.00     2960.00
03897            -560.00     2960.00
03898            -600.00     2920.00
03899            -560.00     2880.00
03900            -560.00     2840.00
03901            -560.00     2840.00
03902            -560.00     2840.00
03903            -560.00     2840.00
03904            -560.00     2800.00
03905            -560.00     2800.00
03906            -560.00     2760.00
03907            -560.00     2720.00
03908            -560.00     2720.00
03909            -520.00     2680.00
03910            -560.00     2680.00
03911            -560.00     2640.00
03912            -520.00     2640.00
03913            -520.00     2640.00
03914            -520.00     2600.00
03915            -560.00     2560.00
03916            -480.00     2560.00
03917            -520.00     2520.00
03918            -520.00     2520.00
03919            -520.00     2520.00
03920            -440.00     2480.00
03921            -440.00     2440.00
03922            -440.00     2480.00
03923            -440.00     2400.00
03924            -440.00     2400.00
03925            -440.00     2360.00
03926            -440.00     2360.00
03927            -480.00     2320.00
03928            -440.00     2320.00
03929            -440.00     2280.00
03930            -440.00     2240.00
03931            -440.00     2240.00
03932            -440.00     2240.00
03933            -400.00     2200.00
03934            -440.00     2160.00
03935            -440.00     2160.00
03936            -440.00     2120.00
03937            -440.00     2120.00
03938            -440.00     2080.00
03939            -400.00     2080.00
03940            -400.00     2000.00
03941            -400.00     2000.00
03942            -400.00     2000.00
03943            -400.00     1960.00
03944            -400.00     1920.00
03945            -400.00     1920.00
03946            -400.00     1920.00
03947            -400.00     1880.00
03948            -360.00     1880.00
03949            -440.00     1840.00
03950            -400.00     1840.00
03951            -360.00     1760.00
03952            -400.00     1760.00
03953            -400.00     1760.00
03954            -360.00     1720.00
03955            -400.00     1680.00
03956            -360.00     1680.00
03957            -360.00     1680.00
03958            -360.00     1600.00
03959            -320.00     1640.00
03960            -360.00     1560.00
03961            -360.00     1560.00
03962            -320.00     1520.00
03963            -280.00     1480.00
03964            -360.00     1520.00
03965            -320.00     1440.00
03966            -360.00     1440.00
03967            -320.00     1400.00
03968            -280.00     1400.00
03969            -280.00     1360.00
03970            -280.00     1360.00
03971            -280.00     1280.00
03972            -280.00     1280.00
03973            -240.00     1280.00
03974            -240.00     1200.00
03975            -280.00     1240.00
03976            -240.00     1200.00
03977            -240.00     1200.00
03978            -240.00     1120.00
03979            -240.00     1120.00
03980            -240.00     1120.00
03981            -240.00     1080.00
03982            -240.00     1040.00
03983            -240.00     1040.00
03984            -240.00     1000.00
03985            -200.00      960.00
03986            -240.00      960.00
03987            -200.00      920.00
03988            -240.00      880.00
03989            -200.00      880.00
03990            -200.00      800.00
03991            -200.00      840.00
03992            -200.00      800.00
03993            -200.00      760.00
03994            -200.00      760.00
03995            -160.00      720.00
03996            -120.00      720.00
03997            -200.00      680.00
03998            -120.00      640.00
03999            -120.00      640.00
04000            -120.00      600.00
04001            -120.00      560.00
04002            -120.00      560.00
04003            -120.00      480.00
04004            -120.00      520.00
04005            -120.00      480.00
04006            -120.00      440.00
04007            -120.00      440.00
04008            -120.00      400.00
04009            -120.00      360.00
04010            -120.00      360.00
04011            -120.00      320.00
04012            -120.00      280.00
04013            -120.00      280.00
04014            -120.00      240.00
04015             -80.00      200.00
04016            -120.00      160.00
04017             -80.00      160.00
04018             -80.00      120.00
04019             -80.00      120.00
04020             -80.00       80.00
04021             -80.00       80.00
04022             -80.00       40.00
04023             -80.00        0.00
04024             -40.00        0.00
04025             -40.00      -40.00
04026             -40.00      -80.00
04027             -40.00      -80.00
04028             -40.00      -80.00
04029             -40.00     -120.00
04030             -40.00     -160.00
04031             -40.00     -200.00
04032             -40.00     -240.00
04033             -40.00     -240.00
04034              40.00     -240.00
04035              40.00     -280.00
04036              40.00     -360.00
04037             -40.00     -400.00
04038             -40.00     -400.00
04039              40.00     -360.00
04040              40.00     -440.00
04041              40.00     -480.00
04042              80.00     -480.00
04043              80.00     -480.00
04044              80.00     -560.00
04045              40.00     -560.00
04046              40.00     -560.00
04047              80.00     -600.00
04048              80.00     -640.00
04049              80.00     -680.00
04050              80.00     -680.00
04051              80.00     -720.00
04052             120.00     -720.00
04053             120.00     -760.00
04054             120.00     -800.00
04055              80.00     -800.00
04056             120.00     -840.00
04057             120.00     -840.00
04058             160.00     -880.00
04059             120.00     -880.00
04060             120.00     -960.00
04061             200.00     -960.00
04062             120.00    -1000.00
04063             200.00    -1040.00
04064             200.00    -1040.00
04065             200.00    -1080.00
04066             160.00    -1120.00
04067             200.00    -1120.00
04068             200.00    -1160.00
04069             200.00    -1160.00
04070             200.00    -1200.00
04071             200.00    -1200.00
04072             200.00    -1240.00
04073             200.00    -1280.00
04074             200.00    -1280.00
04075             200.00    -1320.00
04076             200.00    -1360.00
04077             200.00    -1360.00
04078             200.00    -1360.00
04079             240.00    -1440.00
04080             240.00    -1440.00
04081             240.00    -1480.00
04082             240.00    -1520.00
04083             240.00    -1520.00
04084             240.00    -1520.00
04085             240.00    -1560.00
04086             240.00    -1600.00
04087             240.00    -1640.00
04088             280.00    -1640.00
04089             240.00    -1680.00
04090             280.00    -1680.00
04091             280.00    -1680.00
04092             280.00    -1760.00
04093             280.00    -1760.00
04094             280.00    -1800.00
04095             280.00    -1840.00
04096             280.00    -1840.00
04097             280.00    -1840.00
04098             280.00    -1880.00
04099             320.00    -1920.00
04100             320.00    -1920.00
04101             320.00    -1960.00
04102             360.00    -1960.00
04103             360.00    -2000.00
04104             360.00    -2000.00
04105             360.00    -2000.00
04106             360.00    -2080.00
04107             360.00    -2080.00
04108             360.00    -2080.00
04109             360.00    -2120.00
04110             360.00    -2160.00
04111             360.00    -2160.00
04112             360.00    -2160.00
04113             400.00    -2200.00
04114             400.00    -2240.00
04115             400.00    -2240.00
04116             400.00    -2280.00
04117             400.00    -2320.00
04118             400.00    -2320.00
04119             400.00    -2320.00
04120             440.00    -2360.00
04121             440.00    -2400.00
04122             440.00    -2400.00
04123             440.00    -2440.00
04124             440.00    -2480.00
04125             440.00    -2480.00
04126             440.00    -2480.00
04127             440.00    -2520.00
04128             480.00    -2520.00
04129             440.00    -2560.00
04130             480.00    -2560.00
04131             440.00    -2600.00
04132             440.00    -2640.00
04133             440.00    -2640.00
04134             520.00    -2640.00
04135             520.00    -2680.00
04136             480.00    -2720.00
04137             520.00    -2720.00
04138             520.00    -2720.00
04139             520.00    -2760.00
04140             520.00    -2760.00
04141             520.00    -2800.00
04142             520.00    -2800.00
04143             520.00    -2880.00
04144             520.00    -2800.00
04145             520.00    -2880.00
04146             520.00    -2880.00
04147             520.00    -2880.00
04148             520.00    -2920.00
04149             520.00    -2960.00
04150             520.00    -2960.00
04151             520.00    -2960.00
04152             560.00    -3000.00
04153             520.00    -3040.00
04154             520.00    -3040.00
04155             560.00    -3040.00
04156             520.00    -3080.00
04157             520.00    -3080.00
04158             560.00    -3120.00
04159             520.00    -3120.00
04160             520.00    -3120.00
04161             560.00    -3160.00
04162             520.00    -3200.00
04163             560.00    -3200.00
04164             560.00    -3240.00
04165             600.00    -3240.00
04166             600.00    -3280.00
04167             560.00    -3240.00
04168             600.00    -3280.00
04169             600.00    -3280.00
04170             560.00    -3320.00
04171             560.00    -3320.00
04172             600.00    -3360.00
04173             600.00    -3360.00
04174             560.00    -3360.00
04175             600.00    -3400.00
04176             600.00    -3440.00
04177             600.00    -3400.00
04178             600.00    -3400.00
04179             600.00    -3440.00
04180             640.00    -3440.00
04181             680.00    -3480.00
04182             600.00    -3440.00
04183             600.00    -3520.00
04184             680.00    -3520.00
04185             680.00    -3520.00
04186             640.00    -3560.00
04187             680.00    -3560.00
04188             680.00    -3560.00
04189             680.00    -3560.00
04190             680.00    -3560.00
04191             680.00    -3600.00
04192             680.00    -3600.00
04193             680.00    -3640.00
04194             680.00    -3680.00
04195             680.00    -3680.00
04196             680.00    -3680.00
04197             680.00    -3680.00
04198             680.00    -3720.00
04199             720.00    -3720.00
04200             720.00    -3720.00
04201             680.00    -3720.00
04202             720.00    -3760.00
04203             720.00    -3760.00
04204             720.00    -3760.00
04205             680.00    -3760.00
04206             720.00    -3800.00
04207             720.00    -3800.00
04208             680.00    -3800.00
04209             680.00    -3840.00
04210             720.00    -3840.00
04211             680.00    -3880.00
04212             720.00    -3880.00
04213             720.00    -3880.00
04214             680.00    -3880.00
04215             720.00    -3880.00
04216             680.00    -3880.00
04217             720.00    -3920.00
04218             720.00    -3920.00
04219             720.00    -3920.00
04220             720.00    -3920.00
04221             720.00    -3920.00
04222             720.00    -3920.00
04223             720.00    -3960.00
04224             720.00    -3960.00
04225             720.00    -4000.00
04226             720.00    -4000.00
04227             720.00    -4000.00
04228             720.00    -4000.00
04229             720.00    -4000.00
04230             720.00    -4000.00
04231             760.00    -4000.00
04232             720.00    -4040.00
04233             720.00    -4000.00
04234             720.00    -4040.00
04235             720.00    -4000.00
04236             760.00    -4040.00
04237             720.00    -4080.00
04238             760.00    -4040.00
04239             800.00    -4080.00
04240             760.00    -4080.00
04241             760.00    -4040.00
04242             720.00    -4080.00
04243             760.00    -4080.00
04244             720.00    -4120.00
04245             760.00    -4080.00
04246             720.00    -4120.00
04247             760.00    -4120.00
04248             760.00    -4120.00
04249             760.00    -4160.00
04250             760.00    -4160.00
04251             760.00    -4120.00
04252             800.00    -4120.00
04253             800.00    -4160.00
04254             760.00    -4160.00
04255             760.00    -4160.00
04256             760.00    -4160.00
04257             760.00    -4160.00
04258             760.00    -4160.00
04259             760.00    -4160.00
04260             760.00    -4160.00
04261             760.00    -4160.00
04262             800.00    -4160.00
04263             800.00    -4200.00
04264             800.00    -4160.00
04265             800.00    -4200.00
04266             800.00    -4200.00
04267             840.00    -4200.00
04268             760.00    -4160.00
04269             800.00    -4160.00
04270             760.00    -4200.00
04271             760.00    -4160.00
04272             760.00    -4200.00
04273             800.00    -4200.00
04274             760.00    -4200.00
04275             760.00    -4200.00
04276             760.00    -4160.00
04277             760.00    -4200.00
04278             760.00    -4200.00
04279             760.00    -4200.00
04280             760.00    -4200.00
04281             760.00    -4200.00
04282             760.00    -4200.00
04283             800.00    -4160.00
04284             760.00    -4160.00
04285             760.00    -4200.00
04286             800.00    -4160.00
04287             760.00    -4160.00
04288             840.00    -4160.00
04289             720.00    -4160.00
04290             760.00    -4160.00
04291             760.00    -4160.00
04292             760.00    -4160.00
04293             760.00    -4160.00
04294             760.00    -4160.00
04295             760.00    -4160.00
04296             800.00    -4160.00
04297             760.00    -4160.00
04298             840.00    -4160.00
04299             760.00    -4160.00
04300             760.00    -4160.00
04301             840.00    -4160.00
04302             760.00    -4160.00
04303             800.00    -4160.00
04304             760.00    -4120.00
04305             760.00    -4160.00
04306             760.00    -4120.00
04307             760.00    -4080.00
04308             760.00    -4080.00
04309             760.00    -4080.00
04310             760.00    -4080.00
04311             760.00    -4080.00
04312             760.00    -4080.00
04313             840.00    -4040.00
04314             840.00    -4080.00
04315             800.00    -4080.00
04316             760.00    -4040.00
04317             760.00    -4040.00
04318             760.00    -4040.00
04319             760.00    -4040.00
04320             800.00    -4040.00
04321             760.00    -4000.00
04322             760.00    -4000.00
04323             760.00    -4000.00
04324             760.00    -4000.00
04325             760.00    -4000.00
04326             760.00    -3960.00
04327             760.00    -4000.00
04328             760.00    -3960.00
04329             760.00    -3960.00
04330             720.00    -3920.00
04331             760.00    -3920.00
04332             760.00    -3920.00
04333             760.00    -3920.00
04334             760.00    -3920.00
04335             720.00    -3920.00
04336             760.00    -3920.00
04337             720.00    -3880.00
04338             760.00    -3880.00
04339             760.00    -3880.00
04340             720.00    -3840.00
04341             720.00    -3880.00
04342             720.00    -3840.00
04343             720.00    -3840.00
04344             720.00    -3840.00
04345             720.00    -3800.00
04346             720.00    -3840.00
04347             720.00    -3760.00
04348             720.00    -3800.00
04349             720.00    -3760.00
04350             720.00    -3760.00
04351             720.00    -3760.00
04352             720.00    -3720.00
04353             720.00    -3760.00
04354             720.00    -3720.00
04355             720.00    -3680.00
04356             720.00    -3680.00
04357             720.00    -3720.00
04358             680.00    -3680.00
04359             720.00    -3680.00
04360             680.00    -3640.00
04361             680.00    -3600.00
04362             720.00    -3600.00
04363             720.00    -3600.00
04364             680.00    -3560.00
04365             720.00    -3560.00
04366             720.00    -3560.00
04367             720.00    -3520.00
04368             680.00    -3520.00
04369             680.00    -3480.00
04370             680.00    -3480.00
04371             680.00    -3520.00
04372             720.00    -3440.00
04373             680.00    -3440.00
04374             680.00    -3440.00
04375             680.00    -3440.00
04376             680.00    -3400.00
04377             680.00    -3400.00
04378             680.00    -3400.00
04379             680.00    -3360.00
04380             680.00    -3360.00
04381             680.00    -3360.00
04382             680.00    -3320.00
04383             680.00    -3320.00
04384             680.00    -3280.00
04385             680.00    -3280.00
04386             680.00    -3280.00
04387             680.00    -3240.00
04388             680.00    -3240.00
04389             640.00    -3200.00
04390             680.00    -3200.00
04391             640.00    -3200.00
04392             680.00    -3160.00
04393             600.00    -3120.00
04394             600.00    -3120.00
04395             640.00    -3120.00
04396             600.00    -3080.00
04397             600.00    -3080.00
04398             600.00    -3080.00
04399             600.00    -3080.00
04400             600.00    -3040.00
04401             560.00    -2960.00
04402             560.00    -3000.00
04403             600.00    -2960.00
04404             560.00    -2960.00
04405             560.00    -2920.00
04406             560.00    -2920.00
04407             560.00    -2880.00
04408             560.00    -2880.00
04409             560.00    -2880.00
04410             560.00    -2840.00
04411             560.00    -2840.00
04412             520.00    -2800.00
04413             560.00    -2760.00
04414             560.00    -2760.00
04415             520.00    -2720.00
04416             520.00    -2720.00
04417             560.00    -2720.00
04418             560.00    -2640.00
04419             520.00    -2640.00
04420             520.00    -2640.00
04421             520.00    -2640.00
04422             520.00    -2600.00
04423             520.00    -2600.00
04424             520.00    -2560.00
04425             520.00    -2560.00
04426             520.00    -2560.00
04427             520.00    -2480.00
04428             520.00    -2480.00
04429             520.00    -2480.00
04430             520.00    -2440.00
04431             520.00    -2440.00
04432             480.00    -2400.00
04433             520.00    -2360.00
04434             520.00    -2360.00
04435             480.00    -2320.00
04436             480.00    -2320.00
04437             440.00    -2280.00
04438             440.00    -2280.00
04439             520.00    -2280.00
04440             480.00    -2200.00
04441             520.00    -2200.00
04442             480.00    -2160.00
04443             440.00    -2160.00
04444             480.00    -2120.00
04445             440.00    -2120.00
04446             440.00    -2080.00
04447             400.00    -2080.00
04448             440.00    -2040.00
04449             400.00    -2000.00
04450             400.00    -2000.00
04451             440.00    -1960.00
04452             400.00    -1960.00
04453             400.00    -1920.00
04454             400.00    -1920.00
04455             440.00    -1920.00
04456             400.00    -1840.00
04457             400.00    -1840.00
04458             400.00    -1840.00
04459             400.00    -1800.00
04460             400.00    -1800.00
04461             400.00    -1760.00
04462             400.00    -1760.00
04463             400.00    -1680.00
04464             400.00    -1680.00
04465             360.00    -1640.00
04466             360.00    -1680.00
04467             360.00    -1640.00
04468             360.00    -1600.00
04469             320.00    -1560.00
04470             360.00    -1560.00
04471             360.00    -1480.00
04472             320.00    -1480.00
04473             280.00    -1480.00
04474             320.00    -1440.00
04475             320.00    -1440.00
04476             280.00    -1400.00
04477             280.00    -1400.00
04478             280.00    -1360.00
04479             280.00    -1320.00
04480             280.00    -1280.00
04481             280.00    -1280.00
04482             240.00    -1280.00
04483             280.00    -1240.00
04484             280.00    -1200.00
04485             240.00    -1200.00
04486             240.00    -1160.00
04487             240.00    -1120.00
04488             280.00    -1120.00
04489             240.00    -1120.00
04490             240.00    -1040.00
04491             240.00    -1040.00
04492             240.00    -1040.00
04493             240.00     -960.00
04494             200.00     -920.00
04495             200.00     -920.00
04496             240.00     -920.00
04497             200.00     -880.00
04498             200.00     -840.00
04499             240.00     -840.00
04500             200.00     -800.00
04501             200.00     -800.00
04502             200.00     -760.00
04503             200.00     -720.00
04504             200.00     -720.00
04505             200.00     -680.00
04506             160.00     -680.00
04507             200.00     -640.00
04508             200.00     -640.00
04509             120.00     -560.00
04510             200.00     -560.00
04511             160.00     -560.00
04512             120.00     -520.00
04513             160.00     -480.00
04514             120.00     -480.00
04515             120.00     -440.00
04516             120.00     -400.00
04517             120.00     -400.00
04518             120.00     -360.00
04519             120.00     -320.00
04520              80.00     -320.00
04521              80.00     -320.00
04522             120.00     -240.00
04523              80.00     -240.00
04524              80.00     -200.00
04525              80.00     -160.00
04526              80.00     -160.00
04527              80.00     -160.00
04528              80.00      -80.00
04529              80.00      -80.00
04530              80.00      -40.00
04531              40.00      -40.00
04532              40.00        0.00
04533              40.00        0.00
04534              40.00       80.00
04535              40.00       80.00
04536              40.00       80.00
04537              40.00      120.00
04538              40.00      160.00
04539               0.00      160.00
04540              40.00      240.00
04541             -40.00      240.00
04542              40.00      280.00
04543              40.00      360.00
04544             -40.00      320.00
04545             -80.00      280.00
04546            -120.00      360.00
04547             -40.00      400.00
04548             -40.00      440.00
04549             -40.00      440.00
04550             -40.00      440.00
04551             -80.00      480.00
04552             -80.00      520.00
04553             -80.00      560.00
04554             -40.00      560.00
04555             -40.00      600.00
04556             -80.00      600.00
04557             -80.00      640.00
04558            -120.00      680.00
04559             -80.00      720.00
04560             -80.00      720.00
04561             -80.00      760.00
04562            -120.00      760.00
04563            -120.00      800.00
04564            -120.00      800.00
04565            -120.00      880.00
04566            -120.00      880.00
04567            -120.00      920.00
04568            -160.00      920.00
04569            -120.00      960.00
04570            -120.00      960.00
04571            -120.00     1040.00
04572            -120.00     1040.00
04573            -120.00     1040.00
04574            -120.00     1080.00
04575            -120.00     1120.00
04576            -120.00     1120.00
04577            -160.00     1160.00
04578            -200.00     1200.00
04579            -160.00     1240.00
04580            -200.00     1240.00
04581            -200.00     1240.00
04582            -200.00     1280.00
04583            -200.00     1320.00
04584            -200.00     1360.00
04585            -200.00     1360.00
04586            -240.00     1400.00
04587            -200.00     1400.00
04588            -200.00     1440.00
04589            -200.00     1440.00
04590            -240.00     1440.00
04591            -240.00     1520.00
04592            -240.00     1560.00
04593            -240.00     1520.00
04594            -240.00     1600.00
04595            -240.00     1640.00
04596            -240.00     1640.00
04597            -240.00     1680.00
04598            -240.00     1680.00
04599            -280.00     1680.00
04600            -280.00     1720.00
04601            -280.00     1760.00
04602            -280.00     1760.00
04603            -280.00     1800.00
04604            -320.00     1800.00
04605            -320.00     1840.00
04606            -280.00     1880.00
04607            -320.00     1880.00
04608            -360.00     1920.00
04609            -360.00     1920.00
04610            -360.00     1960.00
04611            -360.00     2000.00
04612            -360.00     2000.00
04613            -360.00     2040.00
04614            -400.00     2040.00
04615            -400.00     2080.00
04616            -360.00     2080.00
04617            -360.00     2160.00
04618            -400.00     2120.00
04619            -400.00     2160.00
04620            -400.00     2160.00
04621            -400.00     2200.00
04622            -400.00     2200.00
04623            -400.00     2240.00
04624            -400.00     2240.00
04625            -400.00     2280.00
04626            -400.00     2320.00
04627            -440.00     2360.00
04628            -440.00     2360.00
04629            -400.00     2400.00
04630            -400.00     2400.00
04631            -440.00     2440.00
04632            -400.00     2440.00
04633            -440.00     2480.00
04634            -440.00     2480.00
04635            -400.00     2520.00
04636            -400.00     2520.00
04637            -440.00     2520.00
04638            -440.00     2560.00
04639            -440.00     2640.00
04640            -440.00     2640.00
04641            -440.00     2640.00
04642            -440.00     2640.00
04643            -440.00     2680.00
04644            -440.00     2680.00
04645            -440.00     2720.00
04646            -440.00     2720.00
04647            -440.00     2760.00
04648            -480.00     2800.00
04649            -440.00     2800.00
04650            -440.00     2840.00
04651            -480.00     2800.00
04652            -520.00     2880.00
04653            -520.00     2880.00
04654            -520.00     2920.00
04655            -520.00     2920.00
04656            -520.00     2920.00
04657            -520.00     2920.00
04658            -520.00     2960.00
04659            -560.00     2960.00
04660            -520.00     3000.00
04661            -560.00     3040.00
04662            -560.00     3040.00
04663            -560.00     3040.00
04664            -560.00     3080.00
04665            -560.00     3120.00
04666            -560.00     3120.00
04667            -560.00     3120.00
04668            -560.00     3120.00
04669            -560.00     3160.00
04670            -600.00     3160.00
04671            -560.00     3200.00
04672            -560.00     3200.00
04673            -600.00     3240.00
04674            -600.00     3240.00
04675            -600.00     3280.00
04676            -600.00     3280.00
04677            -600.00     3280.00
04678            -560.00     3320.00
04679            -600.00     3320.00
04680            -600.00     3320.00
04681            -600.00     3360.00
04682            -600.00     3360.00
04683            -600.00     3360.00
04684            -600.00     3360.00
04685            -600.00     3400.00
04686            -600.00     3440.00
04687            -600.00     3480.00
04688            -640.00     3440.00
04689            -600.00     3480.00
04690            -600.00     3480.00
04691            -600.00     3520.00
04692            -600.00     3520.00
04693            -600.00     3520.00
04694            -600.00     3520.00
04695            -600.00     3600.00
04696            -680.00     3600.00
04697            -680.00     3560.00
04698            -680.00     3600.00
04699            -680.00     3600.00
04700            -640.00     3640.00
04701            -640.00     3640.00
04702            -640.00     3680.00
04703            -680.00     3640.00
04704            -600.00     3640.00
04705            -640.00     3680.00
04706            -680.00     3680.00
04707            -680.00     3680.00
04708            -640.00     3760.00
04709            -680.00     3760.00
04710            -680.00     3760.00
04711            -680.00     3760.00
04712            -680.00     3800.00
04713            -680.00     3800.00
04714            -680.00     3800.00
04715            -680.00     3800.00
04716            -680.00     3800.00
04717            -720.00     3840.00
04718            -680.00     3840.00
04719            -680.00     3840.00
04720            -720.00     3840.00
04721            -680.00     3880.00
04722            -680.00     3920.00
04723            -680.00     3880.00
04724            -720.00     3880.00
04725            -720.00     3920.00
04726            -680.00     3920.00
04727            -720.00     3920.00
04728            -720.00     3920.00
04729            -720.00     3920.00
04730            -760.00     3960.00
04731            -720.00     3960.00
04732            -760.00     3960.00
04733            -760.00     3960.00
04734            -760.00     3960.00
04735            -760.00     4000.00
04736            -760.00     4000.00
04737            -720.00     4000.00
04738            -760.00     4000.00
04739            -760.00     4000.00
04740            -760.00     4000.00
04741            -760.00     4040.00
04742            -760.00     4040.00
04743            -760.00     4000.00
04744            -760.00     4040.00
04745            -760.00     4080.00
04746            -760.00     4080.00
04747            -760.00     4080.00
04748            -760.00     4080.00
04749            -760.00     4080.00
04750            -760.00     4080.00
04751            -760.00     4120.00
04752            -760.00     4120.00
04753            -760.00     4120.00
04754            -760.00     4120.00
04755            -760.00     4120.00
04756            -760.00     4120.00
04757            -760.00     4120.00
04758            -760.00     4120.00
04759            -760.00     4160.00
04760            -760.00     4160.00
04761            -760.00     4120.00
04762            -760.00     4200.00
04763            -760.00     4160.00
04764            -760.00     4120.00
04765            -760.00     4120.00
04766            -760.00     4200.00
04767            -760.00     4200.00
04768            -760.00     4160.00
04769            -760.00     4160.00
04770            -760.00     4200.00
04771            -760.00     4200.00
04772            -760.00     4200.00
04773            -760.00     4200.00
04774            -760.00     4200.00
04775            -760.00     4200.00
04776            -800.00     4200.00
04777            -760.00     4200.00
04778            -800.00     4160.00
04779            -760.00     4200.00
04780            -760.00     4200.00
04781            -760.00     4200.00
04782            -760.00     4160.00
04783            -760.00     4200.00
04784            -760.00     4240.00
04785            -760.00     4200.00
04786            -760.00     4200.00
04787            -760.00     4160.00
04788            -760.00     4200.00
04789            -760.00     4200.00
04790            -760.00     4160.00
04791            -800.00     4200.00
04792            -800.00     4160.00
04793            -760.00     4200.00
04794            -760.00     4200.00
04795            -800.00     4160.00
04796            -760.00     4160.00
04797            -840.00     4160.00
04798            -760.00     4200.00
04799            -760.00     4200.00
04800            -760.00     4120.00
04801            -760.00     4160.00
04802            -760.00     4200.00
04803            -760.00     4160.00
04804            -800.00     4160.00
04805            -760.00     4160.00
04806            -760.00     4200.00
04807            -760.00     4200.00
04808            -760.00     4160.00
04809            -760.00     4160.00
04810            -760.00     4120.00
04811            -760.00     4160.00
04812            -760.00     4120.00
04813            -760.00     4120.00
04814            -760.00     4120.00
04815            -760.00     4120.00
04816            -760.00     4120.00
04817            -760.00     4120.00
04818            -760.00     4080.00
04819            -760.00     4080.00
04820            -760.00     4080.00
04821            -760.00     4080.00
04822            -760.00     4080.00
04823            -760.00     4080.00
04824            -760.00     4080.00
04825            -760.00     4080.00
04826            -760.00     4040.00
04827            -760.00     4000.00
04828            -760.00     4040.00
04829            -760.00     4000.00
04830            -760.00     4000.00
04831            -760.00     4000.00
04832            -760.00     4000.00
04833            -760.00     4000.00
04834            -760.00     4000.00
04835            -760.00     4000.00
04836            -760.00     4000.00
04837            -760.00     3960.00
04838            -760.00     3960.00
04839            -760.00     3920.00
04840            -760.00     3920.00
04841            -760.00     3920.00
04842            -760.00     3920.00
04843            -720.00     3920.00
04844            -760.00     3920.00
04845            -760.00     3920.00
04846            -720.00     3880.00
04847            -720.00     3880.00
04848            -760.00     3920.00
04849            -760.00     3840.00
04850            -720.00     3840.00
04851            -760.00     3840.00
04852            -720.00     3840.00
04853            -720.00     3840.00
04854            -720.00     3800.00
04855            -720.00     3800.00
04856            -720.00     3800.00
04857            -720.00     3760.00
04858            -720.00     3800.00
04859            -680.00     3760.00
04860            -720.00     3720.00
04861            -720.00     3680.00
04862            -720.00     3680.00
04863            -720.00     3680.00
04864            -720.00     3680.00
04865            -720.00     3680.00
04866            -720.00     3640.00
04867            -720.00     3680.00
04868            -720.00     3600.00
04869            -720.00     3640.00
04870            -720.00     3600.00
04871            -720.00     3640.00
04872            -720.00     3600.00
04873            -720.00     3560.00
04874            -720.00     3560.00
04875            -680.00     3520.00
04876            -680.00     3520.00
04877            -680.00     3520.00
04878            -680.00     3480.00
04879            -680.00     3480.00
04880            -680.00     3480.00
04881            -680.00     3480.00
04882            -680.00     3440.00
04883            -680.00     3440.00
04884            -680.00     3440.00
04885            -680.00     3440.00
04886            -680.00     3400.00
04887            -680.00     3360.00
04888            -680.00     3360.00
04889            -640.00     3320.00
04890            -600.00     3360.00
04891            -680.00     3320.00
04892            -640.00     3320.00
04893            -640.00     3280.00
04894            -640.00     3280.00
04895            -600.00     3280.00
04896            -600.00     3240.00
04897            -600.00     3200.00
04898            -600.00     3200.00
04899            -600.00     3200.00
04900            -600.00     3160.00
04901            -600.00     3160.00
04902            -600.00     3160.00
04903            -600.00     3160.00
04904            -600.00     3120.00
04905            -600.00     3120.00
04906            -600.00     3040.00
04907            -600.00     3040.00
04908            -600.00     3040.00
04909            -600.00     3000.00
04910            -560.00     3000.00
04911            -600.00     2960.00
04912            -600.00     3000.00
04913            -560.00     2960.00
04914            -560.00     2960.00
04915            -600.00     2920.00
04916            -560.00     2880.00
04917            -560.00     2920.00
04918            -560.00     2880.00
04919            -560.00     2840.00
04920            -560.00     2840.00
04921            -560.00     2800.00
04922            -560.00     2760.00
04923            -560.00     2800.00
04924            -560.00     2720.00
04925            -560.00     2720.00
04926            -560.00     2680.00
04927            -560.00     2680.00
04928            -560.00     2680.00
04929            -560.00     2640.00
04930            -560.00     2640.00
04931            -520.00     2600.00
04932            -520.00     2560.00
04933            -520.00     2520.00
04934            -520.00     2560.00
04935            -520.00     2520.00
04936            -560.00     2520.00
04937            -520.00     2480.00
04938            -520.00     2480.00
04939            -520.00     2440.00
04940            -480.00     2400.00
04941            -520.00     2400.00
04942            -520.00     2360.00
04943            -440.00     2360.00
04944            -440.00     2320.00
04945            -520.00     2320.00
04946            -440.00     2320.00
04947            -440.00     2240.00
04948            -440.00     2240.00
04949            -440.00     2240.00
04950            -440.00     2200.00
04951            -440.00     2200.00
04952            -440.00     2160.00
04953            -400.00     2160.00
04954            -400.00     2120.00
04955            -440.00     2080.00
04956            -400.00     2080.00
04957            -440.00     2040.00
04958            -440.00     2040.00
04959            -400.00     2000.00
04960            -440.00     2000.00
04961            -400.00     1920.00
04962            -400.00     1920.00
04963            -440.00     1920.00
04964            -400.00     1880.00
04965            -400.00     1880.00
04966            -400.00     1840.00
04967            -360.00     1840.00
04968            -360.00     1760.00
04969            -400.00     1760.00
04970            -360.00     1760.00
04971            -360.00     1720.00
04972            -400.00     1680.00
04973            -360.00     1680.00
04974            -360.00     1640.00
04975            -320.00     1600.00
04976            -360.00     1640.00
04977            -320.00     1600.00
04978            -360.00     1560.00
04979            -360.00     1560.00
04980            -360.00     1520.00
04981            -320.00     1520.00
04982            -280.00     1440.00
04983            -360.00     1440.00
04984            -280.00     1440.00
04985            -280.00     1360.00
04986            -240.00     1360.00
04987            -280.00     1360.00
04988            -280.00     1320.00
04989            -280.00     1280.00
04990            -280.00     1240.00
04991            -280.00     1240.00
04992            -280.00     1200.00
04993            -280.00     1200.00
04994            -240.00     1160.00
04995            -240.00     1120.00
04996            -240.00     1120.00
04997            -240.00     1080.00
04998            -240.00     1080.00
04999            -240.00     1040.00
05000            -240.00     1040.00
