Unit:(mV)
                     CH1         CH2
Frequency              ?  98.335 kHz
00001            -240.00    -1400.00
00002            -240.00    -1440.00
00003            -240.00    -1480.00
00004            -240.00    -1480.00
00005            -240.00    -1560.00
00006            -240.00    -1600.00
00007            -240.00    -1600.00
00008            -240.00    -1600.00
00009            -280.00    -1680.00
00010            -240.00    -1680.00
00011            -240.00    -1720.00
00012            -280.00    -1760.00
00013            -280.00    -1760.00
00014            -280.00    -1800.00
00015            -280.00    -1840.00
00016            -280.00    -1880.00
00017            -280.00    -1920.00
00018            -280.00    -1920.00
00019            -360.00    -1960.00
00020            -280.00    -1960.00
00021            -360.00    -2000.00
00022            -320.00    -2000.00
00023            -360.00    -2080.00
00024            -360.00    -2120.00
00025            -360.00    -2120.00
00026            -360.00    -2160.00
00027            -360.00    -2160.00
00028            -360.00    -2200.00
00029            -400.00    -2240.00
00030            -360.00    -2280.00
00031            -400.00    -2320.00
00032            -400.00    -2320.00
00033            -400.00    -2360.00
00034            -400.00    -2400.00
00035            -440.00    -2440.00
00036            -440.00    -2440.00
00037            -400.00    -2440.00
00038            -400.00    -2480.00
00039            -440.00    -2520.00
00040            -400.00    -2560.00
00041            -440.00    -2600.00
00042            -440.00    -2600.00
00043            -440.00    -2640.00
00044            -440.00    -2640.00
00045            -440.00    -2720.00
00046            -440.00    -2720.00
00047            -520.00    -2720.00
00048            -440.00    -2760.00
00049            -480.00    -2760.00
00050            -480.00    -2800.00
00051            -440.00    -2800.00
00052            -520.00    -2880.00
00053            -520.00    -2880.00
00054            -520.00    -2960.00
00055            -520.00    -2960.00
00056            -520.00    -2960.00
00057            -520.00    -3000.00
00058            -520.00    -3040.00
00059            -560.00    -3040.00
00060            -560.00    -3080.00
00061            -560.00    -3120.00
00062            -560.00    -3120.00
00063            -560.00    -3200.00
00064            -560.00    -3160.00
00065            -560.00    -3200.00
00066            -560.00    -3240.00
00067            -560.00    -3280.00
00068            -560.00    -3280.00
00069            -560.00    -3320.00
00070            -560.00    -3320.00
00071            -600.00    -3360.00
00072            -560.00    -3400.00
00073            -600.00    -3400.00
00074            -560.00    -3400.00
00075            -560.00    -3440.00
00076            -600.00    -3440.00
00077            -560.00    -3480.00
00078            -560.00    -3520.00
00079            -600.00    -3520.00
00080            -600.00    -3560.00
00081            -600.00    -3600.00
00082            -600.00    -3600.00
00083            -600.00    -3640.00
00084            -600.00    -3640.00
00085            -600.00    -3680.00
00086            -600.00    -3680.00
00087            -600.00    -3720.00
00088            -600.00    -3760.00
00089            -600.00    -3760.00
00090            -640.00    -3760.00
00091            -640.00    -3840.00
00092            -600.00    -3840.00
00093            -640.00    -3840.00
00094            -680.00    -3880.00
00095            -680.00    -3840.00
00096            -680.00    -3920.00
00097            -640.00    -3880.00
00098            -680.00    -3920.00
00099            -680.00    -4000.00
00100            -680.00    -4000.00
00101            -680.00    -4000.00
00102            -680.00    -4040.00
00103            -680.00    -4040.00
00104            -680.00    -4040.00
00105            -720.00    -4080.00
00106            -720.00    -4120.00
00107            -680.00    -4120.00
00108            -720.00    -4160.00
00109            -720.00    -4160.00
00110            -760.00    -4200.00
00111            -720.00    -4200.00
00112            -720.00    -4200.00
00113            -760.00    -4240.00
00114            -760.00    -4280.00
00115            -760.00    -4240.00
00116            -760.00    -4320.00
00117            -760.00    -4320.00
00118            -760.00    -4320.00
00119            -760.00    -4360.00
00120            -760.00    -4360.00
00121            -760.00    -4360.00
00122            -760.00    -4360.00
00123            -760.00    -4400.00
00124            -760.00    -4400.00
00125            -760.00    -4400.00
00126            -760.00    -4480.00
00127            -760.00    -4480.00
00128            -760.00    -4480.00
00129            -760.00    -4480.00
00130            -760.00    -4480.00
00131            -760.00    -4520.00
00132            -760.00    -4560.00
00133            -800.00    -4560.00
00134            -760.00    -4560.00
00135            -800.00    -4560.00
00136            -800.00    -4560.00
00137            -760.00    -4600.00
00138            -760.00    -4600.00
00139            -840.00    -4640.00
00140            -760.00    -4640.00
00141            -840.00    -4640.00
00142            -840.00    -4640.00
00143            -840.00    -4680.00
00144            -840.00    -4680.00
00145            -840.00    -4720.00
00146            -800.00    -4680.00
00147            -840.00    -4720.00
00148            -800.00    -4720.00
00149            -760.00    -4760.00
00150            -840.00    -4720.00
00151            -800.00    -4760.00
00152            -840.00    -4800.00
00153            -840.00    -4760.00
00154            -840.00    -4760.00
00155            -840.00    -4840.00
00156            -840.00    -4800.00
00157            -840.00    -4800.00
00158            -840.00    -4840.00
00159            -880.00    -4840.00
00160            -840.00    -4840.00
00161            -840.00    -4840.00
00162            -840.00    -4840.00
00163            -880.00    -4880.00
00164            -840.00    -4880.00
00165            -840.00    -4880.00
00166            -840.00    -4880.00
00167            -880.00    -4880.00
00168            -880.00    -4920.00
00169            -880.00    -4960.00
00170            -840.00    -4960.00
00171            -880.00    -4960.00
00172            -880.00    -4960.00
00173            -840.00    -4960.00
00174            -880.00    -4960.00
00175            -880.00    -4960.00
00176            -880.00    -5000.00
00177            -880.00    -5000.00
00178            -880.00    -4960.00
00179            -880.00    -5000.00
00180            -920.00    -5000.00
00181            -880.00    -5000.00
00182            -880.00    -5000.00
00183            -880.00    -5000.00
00184            -880.00    -5000.00
00185            -880.00    -5000.00
00186            -880.00    -5000.00
00187            -920.00    -5000.00
00188            -880.00    -5000.00
00189            -880.00    -5000.00
00190            -880.00    -5000.00
00191            -880.00    -5000.00
00192            -920.00    -5000.00
00193            -920.00    -5000.00
00194            -880.00    -5000.00
00195            -880.00    -5000.00
00196            -880.00    -5000.00
00197            -880.00    -5000.00
00198            -880.00    -5000.00
00199            -880.00    -5000.00
00200            -920.00    -5000.00
00201            -880.00    -5000.00
00202            -880.00    -5000.00
00203            -880.00    -5000.00
00204            -920.00    -5000.00
00205            -880.00    -5000.00
00206            -880.00    -5000.00
00207            -880.00    -5000.00
00208            -880.00    -5000.00
00209            -880.00    -5000.00
00210            -880.00    -5000.00
00211            -880.00    -5000.00
00212            -920.00    -5000.00
00213            -880.00    -5000.00
00214            -880.00    -5000.00
00215            -880.00    -5000.00
00216            -880.00    -5000.00
00217            -880.00    -5000.00
00218            -880.00    -5000.00
00219            -880.00    -5000.00
00220            -880.00    -5000.00
00221            -880.00    -5000.00
00222            -880.00    -5000.00
00223            -880.00    -5000.00
00224            -880.00    -5000.00
00225            -880.00    -5000.00
00226            -880.00    -5000.00
00227            -880.00    -5000.00
00228            -880.00    -5000.00
00229            -880.00    -5000.00
00230            -880.00    -5000.00
00231            -880.00    -5000.00
00232            -880.00    -5000.00
00233            -880.00    -5000.00
00234            -880.00    -5000.00
00235            -880.00    -5000.00
00236            -880.00    -5000.00
00237            -880.00    -5000.00
00238            -880.00    -5000.00
00239            -880.00    -5000.00
00240            -880.00    -4960.00
00241            -880.00    -4960.00
00242            -880.00    -4960.00
00243            -880.00    -4960.00
00244            -880.00    -4960.00
00245            -880.00    -4960.00
00246            -880.00    -4960.00
00247            -880.00    -4920.00
00248            -880.00    -4920.00
00249            -880.00    -4920.00
00250            -880.00    -4920.00
00251            -880.00    -4920.00
00252            -880.00    -4880.00
00253            -880.00    -4880.00
00254            -880.00    -4880.00
00255            -840.00    -4880.00
00256            -840.00    -4840.00
00257            -880.00    -4880.00
00258            -880.00    -4840.00
00259            -880.00    -4840.00
00260            -880.00    -4840.00
00261            -840.00    -4760.00
00262            -880.00    -4800.00
00263            -880.00    -4800.00
00264            -840.00    -4760.00
00265            -880.00    -4760.00
00266            -880.00    -4760.00
00267            -840.00    -4720.00
00268            -880.00    -4720.00
00269            -840.00    -4720.00
00270            -840.00    -4720.00
00271            -840.00    -4720.00
00272            -840.00    -4720.00
00273            -840.00    -4680.00
00274            -840.00    -4680.00
00275            -840.00    -4640.00
00276            -840.00    -4640.00
00277            -760.00    -4640.00
00278            -840.00    -4640.00
00279            -800.00    -4640.00
00280            -840.00    -4600.00
00281            -800.00    -4560.00
00282            -800.00    -4560.00
00283            -760.00    -4560.00
00284            -760.00    -4520.00
00285            -760.00    -4520.00
00286            -840.00    -4520.00
00287            -760.00    -4480.00
00288            -800.00    -4520.00
00289            -760.00    -4480.00
00290            -760.00    -4440.00
00291            -760.00    -4480.00
00292            -760.00    -4400.00
00293            -800.00    -4440.00
00294            -760.00    -4400.00
00295            -760.00    -4360.00
00296            -760.00    -4360.00
00297            -760.00    -4360.00
00298            -760.00    -4320.00
00299            -760.00    -4320.00
00300            -760.00    -4320.00
00301            -760.00    -4280.00
00302            -760.00    -4240.00
00303            -760.00    -4240.00
00304            -760.00    -4240.00
00305            -760.00    -4240.00
00306            -760.00    -4200.00
00307            -760.00    -4200.00
00308            -760.00    -4160.00
00309            -760.00    -4160.00
00310            -760.00    -4160.00
00311            -720.00    -4080.00
00312            -760.00    -4080.00
00313            -760.00    -4080.00
00314            -720.00    -4040.00
00315            -760.00    -4040.00
00316            -720.00    -4000.00
00317            -720.00    -4000.00
00318            -760.00    -3960.00
00319            -720.00    -3920.00
00320            -720.00    -3920.00
00321            -720.00    -3920.00
00322            -720.00    -3880.00
00323            -680.00    -3880.00
00324            -720.00    -3880.00
00325            -680.00    -3840.00
00326            -720.00    -3840.00
00327            -720.00    -3840.00
00328            -720.00    -3720.00
00329            -680.00    -3760.00
00330            -720.00    -3720.00
00331            -680.00    -3720.00
00332            -680.00    -3680.00
00333            -680.00    -3680.00
00334            -680.00    -3680.00
00335            -600.00    -3600.00
00336            -600.00    -3600.00
00337            -640.00    -3560.00
00338            -600.00    -3480.00
00339            -640.00    -3520.00
00340            -600.00    -3480.00
00341            -640.00    -3440.00
00342            -600.00    -3480.00
00343            -600.00    -3400.00
00344            -600.00    -3400.00
00345            -600.00    -3400.00
00346            -600.00    -3360.00
00347            -600.00    -3360.00
00348            -600.00    -3320.00
00349            -560.00    -3280.00
00350            -600.00    -3280.00
00351            -560.00    -3280.00
00352            -560.00    -3200.00
00353            -600.00    -3200.00
00354            -560.00    -3160.00
00355            -560.00    -3160.00
00356            -560.00    -3120.00
00357            -560.00    -3080.00
00358            -560.00    -3080.00
00359            -560.00    -3040.00
00360            -560.00    -3040.00
00361            -560.00    -3040.00
00362            -560.00    -3000.00
00363            -560.00    -2960.00
00364            -560.00    -2920.00
00365            -520.00    -2920.00
00366            -520.00    -2880.00
00367            -520.00    -2880.00
00368            -520.00    -2800.00
00369            -520.00    -2800.00
00370            -520.00    -2760.00
00371            -520.00    -2720.00
00372            -520.00    -2720.00
00373            -520.00    -2680.00
00374            -520.00    -2680.00
00375            -520.00    -2600.00
00376            -480.00    -2640.00
00377            -520.00    -2600.00
00378            -440.00    -2560.00
00379            -440.00    -2560.00
00380            -440.00    -2520.00
00381            -520.00    -2480.00
00382            -440.00    -2480.00
00383            -440.00    -2400.00
00384            -440.00    -2400.00
00385            -440.00    -2360.00
00386            -440.00    -2320.00
00387            -440.00    -2280.00
00388            -440.00    -2280.00
00389            -440.00    -2200.00
00390            -440.00    -2240.00
00391            -400.00    -2200.00
00392            -440.00    -2160.00
00393            -400.00    -2120.00
00394            -400.00    -2120.00
00395            -440.00    -2080.00
00396            -400.00    -2040.00
00397            -400.00    -2000.00
00398            -400.00    -2000.00
00399            -400.00    -1960.00
00400            -400.00    -1960.00
00401            -360.00    -1920.00
00402            -360.00    -1880.00
00403            -360.00    -1840.00
00404            -400.00    -1840.00
00405            -360.00    -1800.00
00406            -360.00    -1760.00
00407            -360.00    -1720.00
00408            -280.00    -1720.00
00409            -320.00    -1680.00
00410            -280.00    -1640.00
00411            -280.00    -1600.00
00412            -280.00    -1600.00
00413            -240.00    -1560.00
00414            -280.00    -1560.00
00415            -280.00    -1480.00
00416            -240.00    -1440.00
00417            -280.00    -1440.00
00418            -280.00    -1440.00
00419            -240.00    -1360.00
00420            -280.00    -1360.00
00421            -240.00    -1360.00
00422            -240.00    -1280.00
00423            -240.00    -1240.00
00424            -240.00    -1280.00
00425            -240.00    -1200.00
00426            -240.00    -1160.00
00427            -200.00    -1160.00
00428            -240.00    -1120.00
00429            -200.00    -1080.00
00430            -200.00    -1080.00
00431            -200.00    -1000.00
00432            -200.00     -960.00
00433            -200.00     -960.00
00434            -200.00     -920.00
00435            -200.00     -880.00
00436            -160.00     -880.00
00437            -200.00     -840.00
00438            -120.00     -800.00
00439            -160.00     -800.00
00440            -200.00     -800.00
00441            -120.00     -720.00
00442            -160.00     -680.00
00443            -120.00     -680.00
00444            -120.00     -640.00
00445            -120.00     -600.00
00446            -120.00     -560.00
00447            -120.00     -520.00
00448            -120.00     -520.00
00449            -120.00     -480.00
00450             -80.00     -440.00
00451            -120.00     -400.00
00452             -80.00     -400.00
00453            -120.00     -360.00
00454            -120.00     -320.00
00455             -80.00     -320.00
00456             -80.00     -240.00
00457             -80.00     -200.00
00458             -80.00     -200.00
00459             -40.00     -160.00
00460             -40.00     -160.00
00461             -40.00     -120.00
00462             -40.00      -80.00
00463             -40.00      -40.00
00464             -40.00        0.00
00465             -40.00       40.00
00466               0.00       80.00
00467             -40.00       80.00
00468               0.00      120.00
00469               0.00      160.00
00470               0.00      200.00
00471              40.00      200.00
00472              40.00      240.00
00473              40.00      280.00
00474              80.00      360.00
00475              40.00      360.00
00476             -40.00      320.00
00477             -40.00      360.00
00478              80.00      440.00
00479              80.00      480.00
00480              80.00      480.00
00481              80.00      560.00
00482             120.00      560.00
00483              80.00      600.00
00484              80.00      600.00
00485              80.00      680.00
00486             120.00      680.00
00487              80.00      680.00
00488              80.00      720.00
00489              80.00      800.00
00490             120.00      760.00
00491             120.00      840.00
00492             160.00      880.00
00493             160.00      920.00
00494             160.00      920.00
00495             120.00      960.00
00496             200.00     1040.00
00497             200.00     1040.00
00498             120.00     1040.00
00499             200.00     1120.00
00500             120.00     1120.00
00501             200.00     1160.00
00502             200.00     1200.00
00503             200.00     1200.00
00504             200.00     1240.00
00505             200.00     1240.00
00506             200.00     1320.00
00507             200.00     1360.00
00508             200.00     1360.00
00509             240.00     1400.00
00510             240.00     1440.00
00511             240.00     1440.00
00512             240.00     1520.00
00513             280.00     1560.00
00514             240.00     1560.00
00515             280.00     1640.00
00516             240.00     1640.00
00517             240.00     1640.00
00518             240.00     1680.00
00519             280.00     1680.00
00520             280.00     1720.00
00521             280.00     1760.00
00522             280.00     1760.00
00523             320.00     1840.00
00524             280.00     1840.00
00525             280.00     1880.00
00526             360.00     1920.00
00527             360.00     1920.00
00528             320.00     2000.00
00529             360.00     2000.00
00530             360.00     2040.00
00531             360.00     2040.00
00532             360.00     2040.00
00533             360.00     2080.00
00534             360.00     2160.00
00535             360.00     2160.00
00536             360.00     2200.00
00537             400.00     2240.00
00538             400.00     2240.00
00539             400.00     2320.00
00540             400.00     2360.00
00541             400.00     2360.00
00542             400.00     2400.00
00543             400.00     2400.00
00544             400.00     2440.00
00545             400.00     2480.00
00546             440.00     2520.00
00547             440.00     2520.00
00548             440.00     2560.00
00549             400.00     2520.00
00550             440.00     2560.00
00551             400.00     2640.00
00552             480.00     2640.00
00553             440.00     2680.00
00554             440.00     2720.00
00555             440.00     2720.00
00556             480.00     2800.00
00557             440.00     2800.00
00558             520.00     2800.00
00559             480.00     2840.00
00560             520.00     2880.00
00561             520.00     2920.00
00562             520.00     2960.00
00563             520.00     2960.00
00564             520.00     3000.00
00565             520.00     3000.00
00566             520.00     3040.00
00567             520.00     3040.00
00568             520.00     3120.00
00569             520.00     3080.00
00570             520.00     3120.00
00571             520.00     3160.00
00572             520.00     3160.00
00573             560.00     3200.00
00574             520.00     3240.00
00575             520.00     3280.00
00576             560.00     3280.00
00577             520.00     3320.00
00578             520.00     3320.00
00579             560.00     3360.00
00580             560.00     3360.00
00581             560.00     3360.00
00582             560.00     3440.00
00583             560.00     3440.00
00584             560.00     3480.00
00585             560.00     3480.00
00586             600.00     3520.00
00587             600.00     3520.00
00588             600.00     3560.00
00589             640.00     3600.00
00590             600.00     3640.00
00591             600.00     3600.00
00592             600.00     3640.00
00593             640.00     3680.00
00594             600.00     3680.00
00595             680.00     3720.00
00596             600.00     3720.00
00597             680.00     3760.00
00598             640.00     3760.00
00599             680.00     3800.00
00600             680.00     3800.00
00601             680.00     3800.00
00602             680.00     3880.00
00603             680.00     3880.00
00604             680.00     3920.00
00605             720.00     3920.00
00606             720.00     3960.00
00607             680.00     3960.00
00608             680.00     4000.00
00609             720.00     4000.00
00610             720.00     4040.00
00611             680.00     4040.00
00612             720.00     4040.00
00613             720.00     4080.00
00614             720.00     4080.00
00615             720.00     4120.00
00616             720.00     4120.00
00617             720.00     4200.00
00618             720.00     4200.00
00619             720.00     4200.00
00620             720.00     4240.00
00621             720.00     4240.00
00622             720.00     4240.00
00623             760.00     4240.00
00624             720.00     4280.00
00625             760.00     4280.00
00626             720.00     4320.00
00627             720.00     4320.00
00628             720.00     4320.00
00629             720.00     4360.00
00630             720.00     4400.00
00631             720.00     4400.00
00632             720.00     4400.00
00633             760.00     4400.00
00634             760.00     4440.00
00635             760.00     4440.00
00636             760.00     4440.00
00637             760.00     4480.00
00638             760.00     4520.00
00639             760.00     4480.00
00640             760.00     4560.00
00641             760.00     4560.00
00642             760.00     4560.00
00643             760.00     4560.00
00644             760.00     4600.00
00645             760.00     4600.00
00646             800.00     4600.00
00647             760.00     4600.00
00648             800.00     4640.00
00649             840.00     4640.00
00650             760.00     4640.00
00651             800.00     4680.00
00652             840.00     4680.00
00653             760.00     4680.00
00654             840.00     4720.00
00655             840.00     4720.00
00656             840.00     4720.00
00657             800.00     4760.00
00658             840.00     4760.00
00659             840.00     4760.00
00660             880.00     4800.00
00661             840.00     4800.00
00662             840.00     4800.00
00663             800.00     4800.00
00664             840.00     4800.00
00665             840.00     4840.00
00666             840.00     4840.00
00667             840.00     4840.00
00668             840.00     4840.00
00669             880.00     4880.00
00670             840.00     4880.00
00671             840.00     4880.00
00672             840.00     4880.00
00673             880.00     4920.00
00674             880.00     4920.00
00675             880.00     4920.00
00676             880.00     4920.00
00677             840.00     4920.00
00678             880.00     4960.00
00679             880.00     4960.00
00680             840.00     4920.00
00681             840.00     4960.00
00682             880.00     4920.00
00683             880.00     4960.00
00684             880.00     4960.00
00685             880.00     4960.00
00686             880.00     4960.00
00687             880.00     5000.00
00688             880.00     4960.00
00689             880.00     5000.00
00690             840.00     5000.00
00691             880.00     5000.00
00692             880.00     5000.00
00693             880.00     5000.00
00694             880.00     5000.00
00695             880.00     5000.00
00696             880.00     5000.00
00697             880.00     5000.00
00698             840.00     5000.00
00699             840.00     5000.00
00700             920.00     5000.00
00701             880.00     5000.00
00702             840.00     5000.00
00703             880.00     5000.00
00704             880.00     5000.00
00705             880.00     5000.00
00706             880.00     5000.00
00707             880.00     5000.00
00708             880.00     5000.00
00709             840.00     5000.00
00710             880.00     5000.00
00711             880.00     5000.00
00712             880.00     5000.00
00713             880.00     5000.00
00714             880.00     5000.00
00715             880.00     5000.00
00716             880.00     5000.00
00717             880.00     5000.00
00718             880.00     5000.00
00719             880.00     5000.00
00720             880.00     5000.00
00721             880.00     5000.00
00722             880.00     5000.00
00723             880.00     5000.00
00724             880.00     5000.00
00725             880.00     5000.00
00726             920.00     5000.00
00727             880.00     5000.00
00728             880.00     5000.00
00729             880.00     5000.00
00730             880.00     5000.00
00731             920.00     5000.00
00732             880.00     5000.00
00733             880.00     5000.00
00734             880.00     5000.00
00735             920.00     5000.00
00736             920.00     5000.00
00737             880.00     5000.00
00738             880.00     5000.00
00739             880.00     5000.00
00740             880.00     5000.00
00741             880.00     5000.00
00742             920.00     4960.00
00743             920.00     5000.00
00744             880.00     5000.00
00745             880.00     4960.00
00746             880.00     5000.00
00747             880.00     5000.00
00748             880.00     4960.00
00749             880.00     4960.00
00750             880.00     4960.00
00751             880.00     4960.00
00752             880.00     4920.00
00753             880.00     4960.00
00754             880.00     4960.00
00755             880.00     4960.00
00756             880.00     4920.00
00757             880.00     4920.00
00758             840.00     4920.00
00759             880.00     4880.00
00760             840.00     4920.00
00761             840.00     4880.00
00762             880.00     4880.00
00763             840.00     4880.00
00764             840.00     4840.00
00765             880.00     4840.00
00766             840.00     4880.00
00767             840.00     4840.00
00768             840.00     4800.00
00769             880.00     4800.00
00770             840.00     4800.00
00771             840.00     4800.00
00772             840.00     4800.00
00773             840.00     4760.00
00774             840.00     4760.00
00775             840.00     4760.00
00776             840.00     4720.00
00777             840.00     4760.00
00778             840.00     4720.00
00779             840.00     4720.00
00780             840.00     4720.00
00781             840.00     4680.00
00782             840.00     4640.00
00783             840.00     4680.00
00784             840.00     4640.00
00785             840.00     4640.00
00786             840.00     4640.00
00787             840.00     4600.00
00788             840.00     4600.00
00789             840.00     4560.00
00790             840.00     4560.00
00791             840.00     4560.00
00792             800.00     4560.00
00793             760.00     4560.00
00794             840.00     4520.00
00795             760.00     4480.00
00796             800.00     4480.00
00797             800.00     4480.00
00798             760.00     4440.00
00799             840.00     4480.00
00800             800.00     4440.00
00801             800.00     4440.00
00802             840.00     4400.00
00803             840.00     4400.00
00804             800.00     4400.00
00805             800.00     4360.00
00806             760.00     4360.00
00807             760.00     4320.00
00808             800.00     4320.00
00809             760.00     4280.00
00810             760.00     4280.00
00811             760.00     4240.00
00812             760.00     4240.00
00813             760.00     4240.00
00814             760.00     4240.00
00815             720.00     4240.00
00816             760.00     4160.00
00817             720.00     4200.00
00818             760.00     4120.00
00819             720.00     4120.00
00820             720.00     4120.00
00821             720.00     4080.00
00822             720.00     4080.00
00823             720.00     4000.00
00824             720.00     4000.00
00825             720.00     4000.00
00826             680.00     4000.00
00827             720.00     3960.00
00828             720.00     3920.00
00829             680.00     3920.00
00830             720.00     3920.00
00831             720.00     3880.00
00832             680.00     3840.00
00833             680.00     3840.00
00834             720.00     3840.00
00835             680.00     3800.00
00836             680.00     3800.00
00837             680.00     3760.00
00838             680.00     3760.00
00839             680.00     3720.00
00840             680.00     3680.00
00841             680.00     3680.00
00842             680.00     3640.00
00843             680.00     3640.00
00844             640.00     3640.00
00845             600.00     3600.00
00846             680.00     3600.00
00847             600.00     3520.00
00848             600.00     3480.00
00849             640.00     3520.00
00850             600.00     3440.00
00851             600.00     3440.00
00852             600.00     3440.00
00853             640.00     3440.00
00854             600.00     3360.00
00855             600.00     3360.00
00856             600.00     3320.00
00857             560.00     3320.00
00858             600.00     3280.00
00859             560.00     3280.00
00860             560.00     3240.00
00861             560.00     3200.00
00862             600.00     3200.00
00863             560.00     3200.00
00864             600.00     3160.00
00865             560.00     3120.00
00866             560.00     3120.00
00867             560.00     3080.00
00868             560.00     3040.00
00869             560.00     3040.00
00870             560.00     3000.00
00871             560.00     2960.00
00872             560.00     2960.00
00873             520.00     2920.00
00874             560.00     2880.00
00875             560.00     2880.00
00876             520.00     2840.00
00877             520.00     2840.00
00878             520.00     2800.00
00879             520.00     2720.00
00880             520.00     2720.00
00881             520.00     2720.00
00882             520.00     2680.00
00883             520.00     2680.00
00884             520.00     2640.00
00885             480.00     2640.00
00886             440.00     2560.00
00887             480.00     2520.00
00888             480.00     2520.00
00889             480.00     2480.00
00890             440.00     2480.00
00891             440.00     2440.00
00892             440.00     2400.00
00893             440.00     2400.00
00894             400.00     2360.00
00895             440.00     2320.00
00896             400.00     2280.00
00897             440.00     2240.00
00898             400.00     2240.00
00899             400.00     2200.00
00900             400.00     2200.00
00901             400.00     2160.00
00902             360.00     2120.00
00903             400.00     2080.00
00904             360.00     2080.00
00905             400.00     2040.00
00906             400.00     2000.00
00907             360.00     2000.00
00908             360.00     1960.00
00909             360.00     1960.00
00910             360.00     1880.00
00911             360.00     1880.00
00912             320.00     1880.00
00913             360.00     1800.00
00914             320.00     1760.00
00915             320.00     1760.00
00916             360.00     1720.00
00917             280.00     1680.00
00918             360.00     1680.00
00919             320.00     1600.00
00920             280.00     1640.00
00921             320.00     1600.00
00922             280.00     1560.00
00923             280.00     1560.00
00924             280.00     1480.00
00925             280.00     1480.00
00926             280.00     1440.00
00927             240.00     1400.00
00928             280.00     1360.00
00929             240.00     1360.00
00930             280.00     1280.00
00931             240.00     1280.00
00932             240.00     1280.00
00933             240.00     1240.00
00934             240.00     1200.00
00935             240.00     1160.00
00936             240.00     1120.00
00937             240.00     1120.00
00938             240.00     1080.00
00939             200.00     1040.00
00940             200.00     1040.00
00941             200.00      960.00
00942             200.00      960.00
00943             200.00      920.00
00944             200.00      880.00
00945             200.00      840.00
00946             200.00      800.00
00947             200.00      800.00
00948             200.00      760.00
00949             200.00      720.00
00950             200.00      720.00
00951             120.00      680.00
00952             120.00      640.00
00953             120.00      600.00
00954             120.00      600.00
00955             120.00      560.00
00956             120.00      520.00
00957              80.00      480.00
00958             120.00      440.00
00959             120.00      400.00
00960              80.00      400.00
00961              80.00      360.00
00962              80.00      360.00
00963              80.00      320.00
00964              40.00      280.00
00965              80.00      240.00
00966              40.00      200.00
00967              80.00      160.00
00968              80.00      160.00
00969              40.00      120.00
00970              40.00       80.00
00971              80.00       80.00
00972              40.00        0.00
00973              40.00      -40.00
00974             -40.00      -40.00
00975             -40.00      -80.00
00976              40.00      -80.00
00977               0.00     -160.00
00978             -40.00     -160.00
00979               0.00     -200.00
00980               0.00     -240.00
00981             -40.00     -240.00
00982               0.00     -280.00
00983             -40.00     -320.00
00984               0.00     -360.00
00985             -80.00     -480.00
00986            -120.00     -480.00
00987             -40.00     -440.00
00988              40.00     -480.00
00989             -80.00     -520.00
00990             -80.00     -560.00
00991             -40.00     -560.00
00992             -80.00     -640.00
00993            -120.00     -680.00
00994             -80.00     -640.00
00995             -80.00     -680.00
00996            -120.00     -720.00
00997            -120.00     -760.00
00998             -80.00     -800.00
00999            -120.00     -840.00
01000            -120.00     -880.00
01001            -120.00     -840.00
01002            -120.00     -880.00
01003            -120.00     -960.00
01004            -120.00     -960.00
01005            -120.00    -1000.00
01006            -120.00    -1040.00
01007            -160.00    -1080.00
01008            -200.00    -1080.00
01009            -120.00    -1160.00
01010            -160.00    -1200.00
01011            -160.00    -1160.00
01012            -200.00    -1240.00
01013            -200.00    -1240.00
01014            -200.00    -1320.00
01015            -200.00    -1320.00
01016            -200.00    -1360.00
01017            -200.00    -1360.00
01018            -200.00    -1400.00
01019            -240.00    -1440.00
01020            -240.00    -1440.00
01021            -240.00    -1480.00
01022            -240.00    -1560.00
01023            -240.00    -1560.00
01024            -240.00    -1600.00
01025            -280.00    -1640.00
01026            -240.00    -1640.00
01027            -240.00    -1680.00
01028            -320.00    -1720.00
01029            -320.00    -1760.00
01030            -280.00    -1800.00
01031            -280.00    -1800.00
01032            -320.00    -1840.00
01033            -280.00    -1880.00
01034            -360.00    -1920.00
01035            -360.00    -1920.00
01036            -320.00    -1920.00
01037            -360.00    -2000.00
01038            -320.00    -2000.00
01039            -360.00    -2080.00
01040            -360.00    -2080.00
01041            -360.00    -2120.00
01042            -400.00    -2120.00
01043            -360.00    -2160.00
01044            -360.00    -2160.00
01045            -400.00    -2200.00
01046            -400.00    -2240.00
01047            -400.00    -2280.00
01048            -400.00    -2320.00
01049            -400.00    -2320.00
01050            -400.00    -2400.00
01051            -440.00    -2360.00
01052            -400.00    -2440.00
01053            -400.00    -2440.00
01054            -400.00    -2480.00
01055            -440.00    -2480.00
01056            -440.00    -2520.00
01057            -400.00    -2560.00
01058            -440.00    -2600.00
01059            -400.00    -2600.00
01060            -440.00    -2600.00
01061            -440.00    -2680.00
01062            -440.00    -2680.00
01063            -440.00    -2720.00
01064            -440.00    -2760.00
01065            -440.00    -2760.00
01066            -440.00    -2760.00
01067            -440.00    -2840.00
01068            -440.00    -2840.00
01069            -440.00    -2880.00
01070            -480.00    -2880.00
01071            -520.00    -2920.00
01072            -520.00    -2960.00
01073            -520.00    -2960.00
01074            -520.00    -2960.00
01075            -520.00    -3040.00
01076            -520.00    -3080.00
01077            -520.00    -3080.00
01078            -560.00    -3120.00
01079            -520.00    -3120.00
01080            -520.00    -3200.00
01081            -560.00    -3160.00
01082            -560.00    -3200.00
01083            -560.00    -3240.00
01084            -560.00    -3280.00
01085            -560.00    -3280.00
01086            -560.00    -3280.00
01087            -560.00    -3360.00
01088            -560.00    -3360.00
01089            -600.00    -3360.00
01090            -560.00    -3400.00
01091            -600.00    -3440.00
01092            -600.00    -3440.00
01093            -600.00    -3440.00
01094            -600.00    -3440.00
01095            -600.00    -3520.00
01096            -600.00    -3560.00
01097            -600.00    -3560.00
01098            -600.00    -3600.00
01099            -600.00    -3600.00
01100            -600.00    -3640.00
01101            -600.00    -3680.00
01102            -600.00    -3720.00
01103            -640.00    -3720.00
01104            -600.00    -3720.00
01105            -600.00    -3760.00
01106            -640.00    -3760.00
01107            -680.00    -3760.00
01108            -680.00    -3800.00
01109            -640.00    -3840.00
01110            -680.00    -3840.00
01111            -680.00    -3880.00
01112            -680.00    -3880.00
01113            -680.00    -3920.00
01114            -680.00    -3920.00
01115            -680.00    -3920.00
01116            -720.00    -3920.00
01117            -680.00    -3960.00
01118            -680.00    -4000.00
01119            -720.00    -4000.00
01120            -680.00    -4040.00
01121            -680.00    -4080.00
01122            -720.00    -4040.00
01123            -720.00    -4080.00
01124            -720.00    -4120.00
01125            -720.00    -4160.00
01126            -720.00    -4160.00
01127            -680.00    -4160.00
01128            -720.00    -4200.00
01129            -720.00    -4200.00
01130            -720.00    -4240.00
01131            -720.00    -4200.00
01132            -720.00    -4280.00
01133            -760.00    -4280.00
01134            -720.00    -4280.00
01135            -720.00    -4360.00
01136            -760.00    -4320.00
01137            -760.00    -4360.00
01138            -760.00    -4360.00
01139            -760.00    -4320.00
01140            -760.00    -4400.00
01141            -760.00    -4400.00
01142            -720.00    -4400.00
01143            -760.00    -4400.00
01144            -760.00    -4440.00
01145            -760.00    -4480.00
01146            -760.00    -4480.00
01147            -760.00    -4520.00
01148            -760.00    -4520.00
01149            -760.00    -4520.00
01150            -760.00    -4520.00
01151            -760.00    -4560.00
01152            -840.00    -4560.00
01153            -800.00    -4560.00
01154            -800.00    -4560.00
01155            -840.00    -4640.00
01156            -800.00    -4640.00
01157            -760.00    -4640.00
01158            -840.00    -4640.00
01159            -840.00    -4640.00
01160            -840.00    -4680.00
01161            -840.00    -4680.00
01162            -840.00    -4680.00
01163            -840.00    -4720.00
01164            -840.00    -4720.00
01165            -840.00    -4720.00
01166            -840.00    -4720.00
01167            -840.00    -4760.00
01168            -840.00    -4720.00
01169            -840.00    -4800.00
01170            -880.00    -4760.00
01171            -840.00    -4800.00
01172            -880.00    -4800.00
01173            -840.00    -4800.00
01174            -840.00    -4760.00
01175            -840.00    -4840.00
01176            -880.00    -4840.00
01177            -840.00    -4840.00
01178            -880.00    -4880.00
01179            -880.00    -4880.00
01180            -880.00    -4840.00
01181            -840.00    -4880.00
01182            -840.00    -4880.00
01183            -880.00    -4880.00
01184            -880.00    -4960.00
01185            -880.00    -4920.00
01186            -880.00    -4960.00
01187            -880.00    -4920.00
01188            -880.00    -4960.00
01189            -880.00    -4960.00
01190            -880.00    -4960.00
01191            -880.00    -4960.00
01192            -880.00    -4960.00
01193            -880.00    -5000.00
01194            -880.00    -4960.00
01195            -880.00    -4960.00
01196            -880.00    -4960.00
01197            -880.00    -5000.00
01198            -880.00    -5000.00
01199            -880.00    -5000.00
01200            -880.00    -5000.00
01201            -880.00    -5000.00
01202            -880.00    -5000.00
01203            -880.00    -5000.00
01204            -880.00    -5000.00
01205            -880.00    -5000.00
01206            -880.00    -5000.00
01207            -880.00    -5000.00
01208            -880.00    -5000.00
01209            -880.00    -5000.00
01210            -880.00    -5000.00
01211            -880.00    -5000.00
01212            -880.00    -5000.00
01213            -880.00    -5000.00
01214            -880.00    -5000.00
01215            -880.00    -5000.00
01216            -880.00    -5000.00
01217            -880.00    -5000.00
01218            -880.00    -5000.00
01219            -880.00    -5000.00
01220            -920.00    -5000.00
01221            -920.00    -5000.00
01222            -920.00    -5000.00
01223            -880.00    -5000.00
01224            -920.00    -5000.00
01225            -920.00    -5000.00
01226            -880.00    -5000.00
01227            -880.00    -5000.00
01228            -880.00    -5000.00
01229            -920.00    -5000.00
01230            -920.00    -5000.00
01231            -880.00    -5000.00
01232            -880.00    -5000.00
01233            -920.00    -5000.00
01234            -880.00    -5000.00
01235            -880.00    -5000.00
01236            -880.00    -5000.00
01237            -880.00    -5000.00
01238            -920.00    -5000.00
01239            -880.00    -5000.00
01240            -880.00    -5000.00
01241            -880.00    -5000.00
01242            -880.00    -5000.00
01243            -880.00    -5000.00
01244            -880.00    -5000.00
01245            -880.00    -5000.00
01246            -880.00    -5000.00
01247            -880.00    -5000.00
01248            -880.00    -5000.00
01249            -880.00    -5000.00
01250            -880.00    -5000.00
01251            -880.00    -5000.00
01252            -880.00    -5000.00
01253            -880.00    -5000.00
01254            -880.00    -5000.00
01255            -880.00    -5000.00
01256            -880.00    -4960.00
01257            -880.00    -4960.00
01258            -880.00    -4960.00
01259            -880.00    -4960.00
01260            -880.00    -4960.00
01261            -880.00    -4960.00
01262            -840.00    -4920.00
01263            -880.00    -4920.00
01264            -880.00    -4920.00
01265            -880.00    -4880.00
01266            -840.00    -4920.00
01267            -880.00    -4880.00
01268            -880.00    -4880.00
01269            -880.00    -4920.00
01270            -880.00    -4880.00
01271            -840.00    -4880.00
01272            -880.00    -4840.00
01273            -840.00    -4880.00
01274            -880.00    -4880.00
01275            -840.00    -4760.00
01276            -880.00    -4840.00
01277            -840.00    -4760.00
01278            -840.00    -4800.00
01279            -840.00    -4760.00
01280            -840.00    -4760.00
01281            -880.00    -4760.00
01282            -880.00    -4760.00
01283            -880.00    -4720.00
01284            -840.00    -4720.00
01285            -880.00    -4720.00
01286            -880.00    -4720.00
01287            -880.00    -4720.00
01288            -840.00    -4680.00
01289            -840.00    -4680.00
01290            -840.00    -4680.00
01291            -880.00    -4640.00
01292            -840.00    -4640.00
01293            -840.00    -4640.00
01294            -840.00    -4640.00
01295            -840.00    -4640.00
01296            -840.00    -4640.00
01297            -800.00    -4560.00
01298            -840.00    -4600.00
01299            -840.00    -4560.00
01300            -840.00    -4560.00
01301            -800.00    -4560.00
01302            -800.00    -4520.00
01303            -840.00    -4520.00
01304            -800.00    -4520.00
01305            -760.00    -4480.00
01306            -800.00    -4480.00
01307            -760.00    -4440.00
01308            -760.00    -4440.00
01309            -760.00    -4400.00
01310            -760.00    -4400.00
01311            -760.00    -4400.00
01312            -760.00    -4360.00
01313            -760.00    -4360.00
01314            -760.00    -4360.00
01315            -760.00    -4320.00
01316            -760.00    -4320.00
01317            -760.00    -4280.00
01318            -760.00    -4280.00
01319            -760.00    -4280.00
01320            -760.00    -4240.00
01321            -760.00    -4240.00
01322            -720.00    -4200.00
01323            -760.00    -4200.00
01324            -720.00    -4200.00
01325            -720.00    -4160.00
01326            -720.00    -4160.00
01327            -760.00    -4120.00
01328            -720.00    -4080.00
01329            -720.00    -4080.00
01330            -720.00    -4040.00
01331            -720.00    -4040.00
01332            -720.00    -4040.00
01333            -720.00    -4000.00
01334            -720.00    -4000.00
01335            -720.00    -3960.00
01336            -720.00    -3960.00
01337            -720.00    -3920.00
01338            -680.00    -3880.00
01339            -680.00    -3880.00
01340            -680.00    -3840.00
01341            -680.00    -3880.00
01342            -680.00    -3840.00
01343            -680.00    -3800.00
01344            -720.00    -3800.00
01345            -680.00    -3760.00
01346            -680.00    -3760.00
01347            -680.00    -3760.00
01348            -680.00    -3720.00
01349            -680.00    -3680.00
01350            -680.00    -3640.00
01351            -680.00    -3680.00
01352            -680.00    -3600.00
01353            -600.00    -3600.00
01354            -680.00    -3560.00
01355            -680.00    -3560.00
01356            -600.00    -3520.00
01357            -680.00    -3480.00
01358            -600.00    -3480.00
01359            -600.00    -3440.00
01360            -600.00    -3440.00
01361            -600.00    -3400.00
01362            -600.00    -3400.00
01363            -640.00    -3360.00
01364            -600.00    -3360.00
01365            -600.00    -3320.00
01366            -600.00    -3280.00
01367            -600.00    -3280.00
01368            -600.00    -3240.00
01369            -560.00    -3240.00
01370            -600.00    -3160.00
01371            -560.00    -3200.00
01372            -560.00    -3120.00
01373            -600.00    -3120.00
01374            -560.00    -3120.00
01375            -560.00    -3080.00
01376            -560.00    -3040.00
01377            -520.00    -3040.00
01378            -560.00    -3000.00
01379            -560.00    -2960.00
01380            -560.00    -2960.00
01381            -560.00    -2920.00
01382            -520.00    -2920.00
01383            -560.00    -2880.00
01384            -520.00    -2840.00
01385            -520.00    -2800.00
01386            -520.00    -2760.00
01387            -440.00    -2760.00
01388            -480.00    -2720.00
01389            -480.00    -2720.00
01390            -520.00    -2720.00
01391            -480.00    -2640.00
01392            -440.00    -2600.00
01393            -440.00    -2640.00
01394            -480.00    -2600.00
01395            -440.00    -2560.00
01396            -440.00    -2520.00
01397            -440.00    -2480.00
01398            -440.00    -2480.00
01399            -440.00    -2440.00
01400            -440.00    -2440.00
01401            -440.00    -2400.00
01402            -440.00    -2320.00
01403            -400.00    -2360.00
01404            -440.00    -2280.00
01405            -400.00    -2280.00
01406            -440.00    -2240.00
01407            -400.00    -2200.00
01408            -440.00    -2160.00
01409            -400.00    -2160.00
01410            -400.00    -2120.00
01411            -400.00    -2080.00
01412            -400.00    -2080.00
01413            -400.00    -2080.00
01414            -400.00    -2000.00
01415            -400.00    -2000.00
01416            -400.00    -1960.00
01417            -360.00    -1920.00
01418            -400.00    -1880.00
01419            -400.00    -1880.00
01420            -400.00    -1840.00
01421            -360.00    -1840.00
01422            -360.00    -1800.00
01423            -360.00    -1760.00
01424            -360.00    -1720.00
01425            -360.00    -1680.00
01426            -320.00    -1680.00
01427            -320.00    -1680.00
01428            -320.00    -1640.00
01429            -280.00    -1600.00
01430            -280.00    -1600.00
01431            -280.00    -1520.00
01432            -280.00    -1480.00
01433            -280.00    -1480.00
01434            -280.00    -1440.00
01435            -280.00    -1440.00
01436            -240.00    -1360.00
01437            -280.00    -1360.00
01438            -240.00    -1320.00
01439            -240.00    -1320.00
01440            -240.00    -1240.00
01441            -240.00    -1200.00
01442            -240.00    -1200.00
01443            -240.00    -1200.00
01444            -240.00    -1160.00
01445            -240.00    -1120.00
01446            -200.00    -1080.00
01447            -200.00    -1040.00
01448            -200.00    -1000.00
01449            -200.00    -1000.00
01450            -200.00     -920.00
01451            -200.00     -920.00
01452            -120.00     -880.00
01453            -160.00     -880.00
01454            -200.00     -840.00
01455            -160.00     -800.00
01456            -200.00     -800.00
01457            -120.00     -720.00
01458            -120.00     -720.00
01459            -120.00     -680.00
01460            -120.00     -640.00
01461            -120.00     -640.00
01462            -120.00     -560.00
01463            -120.00     -560.00
01464            -120.00     -520.00
01465            -120.00     -520.00
01466            -120.00     -440.00
01467             -80.00     -400.00
01468             -80.00     -400.00
01469            -120.00     -360.00
01470             -80.00     -360.00
01471            -120.00     -320.00
01472             -80.00     -280.00
01473             -80.00     -240.00
01474             -40.00     -240.00
01475             -40.00     -160.00
01476             -80.00     -160.00
01477             -40.00     -120.00
01478             -40.00      -80.00
01479             -40.00      -40.00
01480             -40.00      -40.00
01481             -40.00        0.00
01482             -40.00        0.00
01483             -40.00       80.00
01484             -40.00       80.00
01485             -40.00      120.00
01486             -40.00      120.00
01487              40.00      160.00
01488               0.00      240.00
01489              40.00      240.00
01490              40.00      360.00
01491              80.00      360.00
01492              40.00      400.00
01493               0.00      320.00
01494             -40.00      400.00
01495              40.00      480.00
01496              80.00      480.00
01497              40.00      480.00
01498              80.00      560.00
01499              40.00      600.00
01500              80.00      560.00
01501              40.00      600.00
01502              80.00      680.00
01503             120.00      720.00
01504              80.00      680.00
01505              80.00      720.00
01506              80.00      800.00
01507             120.00      800.00
01508              80.00      840.00
01509             120.00      880.00
01510             120.00      920.00
01511             120.00      920.00
01512             120.00      960.00
01513             200.00     1040.00
01514             160.00     1040.00
01515             120.00     1080.00
01516             200.00     1120.00
01517             200.00     1120.00
01518             200.00     1160.00
01519             200.00     1200.00
01520             200.00     1200.00
01521             200.00     1240.00
01522             240.00     1280.00
01523             240.00     1280.00
01524             240.00     1360.00
01525             240.00     1400.00
01526             240.00     1400.00
01527             240.00     1440.00
01528             240.00     1440.00
01529             240.00     1480.00
01530             240.00     1520.00
01531             240.00     1560.00
01532             240.00     1600.00
01533             280.00     1640.00
01534             240.00     1640.00
01535             280.00     1680.00
01536             280.00     1720.00
01537             280.00     1720.00
01538             280.00     1760.00
01539             280.00     1800.00
01540             320.00     1840.00
01541             280.00     1880.00
01542             280.00     1880.00
01543             280.00     1920.00
01544             280.00     1920.00
01545             320.00     2000.00
01546             320.00     2000.00
01547             360.00     2040.00
01548             360.00     2040.00
01549             320.00     2080.00
01550             360.00     2080.00
01551             360.00     2160.00
01552             360.00     2200.00
01553             400.00     2240.00
01554             360.00     2240.00
01555             360.00     2240.00
01556             360.00     2320.00
01557             400.00     2320.00
01558             400.00     2360.00
01559             400.00     2360.00
01560             400.00     2400.00
01561             400.00     2440.00
01562             400.00     2440.00
01563             400.00     2480.00
01564             440.00     2520.00
01565             400.00     2520.00
01566             440.00     2560.00
01567             400.00     2600.00
01568             440.00     2640.00
01569             440.00     2680.00
01570             440.00     2680.00
01571             440.00     2720.00
01572             440.00     2720.00
01573             520.00     2720.00
01574             440.00     2800.00
01575             480.00     2800.00
01576             520.00     2840.00
01577             480.00     2880.00
01578             520.00     2920.00
01579             520.00     2960.00
01580             520.00     2960.00
01581             520.00     2960.00
01582             520.00     3000.00
01583             520.00     3040.00
01584             520.00     3040.00
01585             520.00     3080.00
01586             520.00     3120.00
01587             520.00     3120.00
01588             560.00     3160.00
01589             520.00     3200.00
01590             520.00     3200.00
01591             560.00     3240.00
01592             520.00     3240.00
01593             560.00     3280.00
01594             560.00     3280.00
01595             560.00     3320.00
01596             560.00     3360.00
01597             640.00     3360.00
01598             560.00     3400.00
01599             600.00     3440.00
01600             600.00     3440.00
01601             560.00     3480.00
01602             560.00     3480.00
01603             600.00     3480.00
01604             600.00     3520.00
01605             600.00     3520.00
01606             600.00     3600.00
01607             680.00     3600.00
01608             600.00     3640.00
01609             600.00     3680.00
01610             600.00     3680.00
01611             600.00     3720.00
01612             600.00     3720.00
01613             600.00     3760.00
01614             600.00     3800.00
01615             600.00     3760.00
01616             640.00     3800.00
01617             600.00     3800.00
01618             680.00     3840.00
01619             680.00     3840.00
01620             680.00     3880.00
01621             640.00     3920.00
01622             680.00     3920.00
01623             680.00     3920.00
01624             680.00     3960.00
01625             680.00     3960.00
01626             680.00     4000.00
01627             680.00     4040.00
01628             680.00     4000.00
01629             720.00     4080.00
01630             680.00     4080.00
01631             720.00     4120.00
01632             680.00     4120.00
01633             680.00     4160.00
01634             680.00     4200.00
01635             720.00     4200.00
01636             680.00     4200.00
01637             720.00     4240.00
01638             720.00     4240.00
01639             720.00     4280.00
01640             720.00     4280.00
01641             720.00     4280.00
01642             720.00     4320.00
01643             720.00     4320.00
01644             760.00     4320.00
01645             760.00     4320.00
01646             720.00     4360.00
01647             760.00     4400.00
01648             760.00     4400.00
01649             760.00     4440.00
01650             760.00     4440.00
01651             760.00     4440.00
01652             760.00     4480.00
01653             800.00     4480.00
01654             760.00     4480.00
01655             760.00     4480.00
01656             760.00     4520.00
01657             800.00     4520.00
01658             840.00     4520.00
01659             800.00     4560.00
01660             800.00     4560.00
01661             840.00     4600.00
01662             800.00     4560.00
01663             840.00     4600.00
01664             840.00     4600.00
01665             840.00     4640.00
01666             800.00     4640.00
01667             840.00     4640.00
01668             840.00     4640.00
01669             840.00     4680.00
01670             840.00     4680.00
01671             840.00     4720.00
01672             840.00     4720.00
01673             840.00     4720.00
01674             840.00     4720.00
01675             840.00     4720.00
01676             840.00     4760.00
01677             840.00     4800.00
01678             840.00     4760.00
01679             840.00     4800.00
01680             840.00     4800.00
01681             840.00     4800.00
01682             840.00     4800.00
01683             840.00     4800.00
01684             840.00     4840.00
01685             840.00     4880.00
01686             840.00     4880.00
01687             840.00     4880.00
01688             840.00     4880.00
01689             880.00     4880.00
01690             840.00     4920.00
01691             840.00     4920.00
01692             840.00     4920.00
01693             880.00     4920.00
01694             840.00     4920.00
01695             840.00     4960.00
01696             840.00     4920.00
01697             840.00     4920.00
01698             840.00     4960.00
01699             840.00     4960.00
01700             880.00     4960.00
01701             880.00     4960.00
01702             880.00     4960.00
01703             880.00     4960.00
01704             880.00     4960.00
01705             880.00     4960.00
01706             880.00     5000.00
01707             880.00     5000.00
01708             840.00     5000.00
01709             880.00     5000.00
01710             880.00     5000.00
01711             880.00     5000.00
01712             880.00     5000.00
01713             880.00     5000.00
01714             880.00     5000.00
01715             880.00     5000.00
01716             880.00     5000.00
01717             880.00     5000.00
01718             880.00     5000.00
01719             840.00     5000.00
01720             880.00     5000.00
01721             920.00     5000.00
01722             880.00     5000.00
01723             920.00     5000.00
01724             880.00     5000.00
01725             880.00     5000.00
01726             880.00     5000.00
01727             880.00     5000.00
01728             880.00     5000.00
01729             880.00     5000.00
01730             880.00     5000.00
01731             920.00     5000.00
01732             920.00     5000.00
01733             880.00     5000.00
01734             880.00     5000.00
01735             880.00     5000.00
01736             880.00     5000.00
01737             880.00     5000.00
01738             880.00     5000.00
01739             880.00     5000.00
01740             880.00     5000.00
01741             880.00     5000.00
01742             880.00     5000.00
01743             880.00     5000.00
01744             880.00     5000.00
01745             880.00     5000.00
01746             880.00     5000.00
01747             880.00     5000.00
01748             880.00     5000.00
01749             880.00     5000.00
01750             880.00     5000.00
01751             880.00     5000.00
01752             840.00     5000.00
01753             880.00     5000.00
01754             880.00     5000.00
01755             880.00     5000.00
01756             840.00     5000.00
01757             880.00     5000.00
01758             880.00     5000.00
01759             840.00     5000.00
01760             880.00     5000.00
01761             880.00     4960.00
01762             840.00     4960.00
01763             840.00     4960.00
01764             880.00     4960.00
01765             880.00     5000.00
01766             880.00     4960.00
01767             840.00     4960.00
01768             880.00     4960.00
01769             880.00     4920.00
01770             880.00     4920.00
01771             880.00     4960.00
01772             880.00     4960.00
01773             840.00     4920.00
01774             840.00     4920.00
01775             880.00     4920.00
01776             880.00     4920.00
01777             880.00     4920.00
01778             840.00     4880.00
01779             880.00     4880.00
01780             880.00     4880.00
01781             880.00     4880.00
01782             880.00     4880.00
01783             840.00     4840.00
01784             840.00     4840.00
01785             840.00     4800.00
01786             840.00     4800.00
01787             840.00     4800.00
01788             880.00     4800.00
01789             840.00     4760.00
01790             840.00     4800.00
01791             840.00     4720.00
01792             840.00     4760.00
01793             840.00     4760.00
01794             840.00     4760.00
01795             840.00     4720.00
01796             840.00     4720.00
01797             840.00     4720.00
01798             840.00     4680.00
01799             840.00     4720.00
01800             840.00     4680.00
01801             800.00     4640.00
01802             840.00     4640.00
01803             840.00     4640.00
01804             840.00     4640.00
01805             760.00     4600.00
01806             800.00     4600.00
01807             840.00     4560.00
01808             760.00     4560.00
01809             840.00     4560.00
01810             840.00     4560.00
01811             760.00     4520.00
01812             840.00     4520.00
01813             760.00     4480.00
01814             800.00     4480.00
01815             760.00     4480.00
01816             760.00     4440.00
01817             760.00     4440.00
01818             840.00     4440.00
01819             760.00     4400.00
01820             760.00     4400.00
01821             760.00     4400.00
01822             760.00     4360.00
01823             720.00     4360.00
01824             760.00     4320.00
01825             760.00     4320.00
01826             720.00     4320.00
01827             720.00     4280.00
01828             760.00     4280.00
01829             720.00     4240.00
01830             760.00     4240.00
01831             720.00     4240.00
01832             720.00     4200.00
01833             720.00     4200.00
01834             720.00     4160.00
01835             760.00     4160.00
01836             720.00     4120.00
01837             720.00     4120.00
01838             720.00     4080.00
01839             720.00     4080.00
01840             720.00     4080.00
01841             760.00     4000.00
01842             720.00     4000.00
01843             720.00     4000.00
01844             720.00     3960.00
01845             720.00     3920.00
01846             720.00     3960.00
01847             680.00     3920.00
01848             720.00     3880.00
01849             720.00     3840.00
01850             680.00     3840.00
01851             680.00     3800.00
01852             680.00     3800.00
01853             680.00     3800.00
01854             680.00     3760.00
01855             680.00     3760.00
01856             680.00     3720.00
01857             680.00     3680.00
01858             680.00     3640.00
01859             680.00     3640.00
01860             680.00     3640.00
01861             680.00     3640.00
01862             680.00     3600.00
01863             680.00     3560.00
01864             640.00     3520.00
01865             680.00     3520.00
01866             680.00     3480.00
01867             600.00     3480.00
01868             640.00     3440.00
01869             600.00     3440.00
01870             600.00     3360.00
01871             600.00     3360.00
01872             600.00     3360.00
01873             560.00     3360.00
01874             560.00     3280.00
01875             600.00     3280.00
01876             560.00     3280.00
01877             560.00     3200.00
01878             600.00     3200.00
01879             560.00     3160.00
01880             560.00     3160.00
01881             560.00     3120.00
01882             560.00     3120.00
01883             560.00     3120.00
01884             520.00     3040.00
01885             560.00     3040.00
01886             520.00     3040.00
01887             520.00     2960.00
01888             520.00     2960.00
01889             520.00     2960.00
01890             520.00     2920.00
01891             520.00     2880.00
01892             520.00     2840.00
01893             520.00     2840.00
01894             520.00     2800.00
01895             520.00     2800.00
01896             520.00     2760.00
01897             520.00     2760.00
01898             520.00     2680.00
01899             520.00     2680.00
01900             520.00     2640.00
01901             520.00     2600.00
01902             520.00     2640.00
01903             520.00     2560.00
01904             520.00     2560.00
01905             440.00     2520.00
01906             440.00     2480.00
01907             520.00     2480.00
01908             440.00     2480.00
01909             440.00     2400.00
01910             440.00     2400.00
01911             440.00     2360.00
01912             440.00     2320.00
01913             440.00     2280.00
01914             440.00     2240.00
01915             440.00     2240.00
01916             440.00     2200.00
01917             400.00     2200.00
01918             400.00     2160.00
01919             400.00     2120.00
01920             400.00     2080.00
01921             400.00     2080.00
01922             400.00     2040.00
01923             400.00     2040.00
01924             400.00     2000.00
01925             400.00     2000.00
01926             400.00     1880.00
01927             360.00     1920.00
01928             360.00     1880.00
01929             360.00     1840.00
01930             360.00     1840.00
01931             360.00     1800.00
01932             360.00     1760.00
01933             320.00     1720.00
01934             280.00     1680.00
01935             320.00     1680.00
01936             280.00     1680.00
01937             280.00     1600.00
01938             280.00     1560.00
01939             320.00     1560.00
01940             280.00     1520.00
01941             280.00     1520.00
01942             280.00     1440.00
01943             240.00     1440.00
01944             280.00     1400.00
01945             200.00     1400.00
01946             280.00     1360.00
01947             280.00     1320.00
01948             240.00     1240.00
01949             240.00     1240.00
01950             200.00     1240.00
01951             240.00     1200.00
01952             200.00     1160.00
01953             240.00     1120.00
01954             200.00     1120.00
01955             200.00     1080.00
01956             200.00     1040.00
01957             200.00     1040.00
01958             200.00      960.00
01959             200.00      920.00
01960             200.00      920.00
01961             200.00      880.00
01962             200.00      880.00
01963             200.00      840.00
01964             200.00      760.00
01965             160.00      800.00
01966             120.00      720.00
01967             120.00      720.00
01968             120.00      680.00
01969             120.00      640.00
01970             120.00      600.00
01971             120.00      560.00
01972             120.00      560.00
01973              80.00      520.00
01974             120.00      480.00
01975             120.00      440.00
01976             120.00      440.00
01977              80.00      400.00
01978              80.00      360.00
01979              80.00      360.00
01980              80.00      320.00
01981              80.00      280.00
01982              80.00      240.00
01983              80.00      200.00
01984              80.00      160.00
01985              40.00      160.00
01986              40.00      120.00
01987              40.00       80.00
01988              40.00       80.00
01989              40.00        0.00
01990              40.00        0.00
01991              40.00      -40.00
01992              40.00      -80.00
01993              40.00      -80.00
01994              40.00     -120.00
01995             -40.00     -160.00
01996             -40.00     -160.00
01997             -40.00     -240.00
01998               0.00     -240.00
01999               0.00     -240.00
02000              40.00     -280.00
02001             -40.00     -400.00
02002             -80.00     -480.00
02003            -120.00     -480.00
02004             -80.00     -400.00
02005             -40.00     -480.00
02006             -80.00     -520.00
02007            -120.00     -520.00
02008             -80.00     -560.00
02009             -80.00     -640.00
02010            -120.00     -680.00
02011            -120.00     -640.00
02012             -80.00     -720.00
02013            -120.00     -720.00
02014            -160.00     -760.00
02015            -120.00     -760.00
02016            -120.00     -840.00
02017            -200.00     -840.00
02018            -120.00     -840.00
02019            -120.00     -960.00
02020            -200.00     -920.00
02021            -120.00     -960.00
02022            -120.00    -1000.00
02023            -160.00    -1040.00
02024            -160.00    -1120.00
02025            -200.00    -1120.00
02026            -200.00    -1120.00
02027            -200.00    -1200.00
02028            -200.00    -1200.00
02029            -200.00    -1200.00
02030            -200.00    -1280.00
02031            -200.00    -1280.00
02032            -200.00    -1320.00
02033            -200.00    -1320.00
02034            -200.00    -1360.00
02035            -200.00    -1440.00
02036            -240.00    -1440.00
02037            -240.00    -1440.00
02038            -240.00    -1480.00
02039            -240.00    -1520.00
02040            -240.00    -1560.00
02041            -240.00    -1600.00
02042            -240.00    -1640.00
02043            -240.00    -1680.00
02044            -240.00    -1680.00
02045            -280.00    -1680.00
02046            -280.00    -1760.00
02047            -280.00    -1760.00
02048            -280.00    -1800.00
02049            -280.00    -1840.00
02050            -280.00    -1840.00
02051            -280.00    -1880.00
02052            -280.00    -1920.00
02053            -360.00    -1960.00
02054            -280.00    -1960.00
02055            -320.00    -2000.00
02056            -280.00    -2000.00
02057            -360.00    -2080.00
02058            -360.00    -2120.00
02059            -360.00    -2120.00
02060            -360.00    -2160.00
02061            -360.00    -2160.00
02062            -400.00    -2240.00
02063            -400.00    -2200.00
02064            -360.00    -2280.00
02065            -400.00    -2320.00
02066            -400.00    -2320.00
02067            -400.00    -2360.00
02068            -400.00    -2400.00
02069            -440.00    -2440.00
02070            -440.00    -2440.00
02071            -440.00    -2480.00
02072            -440.00    -2480.00
02073            -440.00    -2520.00
02074            -440.00    -2560.00
02075            -440.00    -2600.00
02076            -440.00    -2600.00
02077            -440.00    -2640.00
02078            -440.00    -2640.00
02079            -440.00    -2680.00
02080            -480.00    -2720.00
02081            -440.00    -2720.00
02082            -520.00    -2760.00
02083            -480.00    -2800.00
02084            -520.00    -2800.00
02085            -520.00    -2880.00
02086            -520.00    -2880.00
02087            -520.00    -2920.00
02088            -520.00    -2920.00
02089            -480.00    -2960.00
02090            -560.00    -2960.00
02091            -520.00    -3040.00
02092            -520.00    -3040.00
02093            -520.00    -3080.00
02094            -520.00    -3080.00
02095            -520.00    -3120.00
02096            -520.00    -3120.00
02097            -560.00    -3160.00
02098            -560.00    -3200.00
02099            -560.00    -3200.00
02100            -560.00    -3240.00
02101            -560.00    -3240.00
02102            -560.00    -3280.00
02103            -560.00    -3280.00
02104            -560.00    -3320.00
02105            -560.00    -3360.00
02106            -560.00    -3360.00
02107            -560.00    -3400.00
02108            -600.00    -3400.00
02109            -560.00    -3440.00
02110            -560.00    -3440.00
02111            -600.00    -3520.00
02112            -560.00    -3520.00
02113            -600.00    -3520.00
02114            -600.00    -3560.00
02115            -600.00    -3600.00
02116            -600.00    -3600.00
02117            -600.00    -3600.00
02118            -600.00    -3680.00
02119            -600.00    -3680.00
02120            -640.00    -3720.00
02121            -600.00    -3720.00
02122            -640.00    -3760.00
02123            -640.00    -3720.00
02124            -600.00    -3760.00
02125            -600.00    -3800.00
02126            -600.00    -3840.00
02127            -680.00    -3840.00
02128            -680.00    -3840.00
02129            -680.00    -3880.00
02130            -680.00    -3880.00
02131            -680.00    -3920.00
02132            -680.00    -3920.00
02133            -680.00    -3960.00
02134            -720.00    -4000.00
02135            -680.00    -4000.00
02136            -720.00    -4000.00
02137            -720.00    -4040.00
02138            -680.00    -4040.00
02139            -680.00    -4080.00
02140            -720.00    -4080.00
02141            -720.00    -4160.00
02142            -720.00    -4120.00
02143            -720.00    -4160.00
02144            -720.00    -4160.00
02145            -760.00    -4200.00
02146            -760.00    -4240.00
02147            -720.00    -4240.00
02148            -760.00    -4240.00
02149            -720.00    -4280.00
02150            -760.00    -4320.00
02151            -760.00    -4280.00
02152            -760.00    -4320.00
02153            -760.00    -4320.00
02154            -760.00    -4360.00
02155            -760.00    -4360.00
02156            -760.00    -4400.00
02157            -760.00    -4400.00
02158            -760.00    -4400.00
02159            -760.00    -4400.00
02160            -760.00    -4440.00
02161            -760.00    -4480.00
02162            -760.00    -4440.00
02163            -760.00    -4480.00
02164            -760.00    -4480.00
02165            -760.00    -4520.00
02166            -760.00    -4520.00
02167            -760.00    -4560.00
02168            -760.00    -4520.00
02169            -760.00    -4560.00
02170            -760.00    -4560.00
02171            -840.00    -4560.00
02172            -760.00    -4600.00
02173            -800.00    -4600.00
02174            -760.00    -4640.00
02175            -800.00    -4640.00
02176            -800.00    -4640.00
02177            -840.00    -4640.00
02178            -760.00    -4680.00
02179            -840.00    -4680.00
02180            -840.00    -4720.00
02181            -840.00    -4680.00
02182            -840.00    -4720.00
02183            -840.00    -4720.00
02184            -840.00    -4720.00
02185            -840.00    -4760.00
02186            -840.00    -4760.00
02187            -840.00    -4800.00
02188            -880.00    -4800.00
02189            -840.00    -4800.00
02190            -840.00    -4800.00
02191            -880.00    -4840.00
02192            -840.00    -4840.00
02193            -840.00    -4840.00
02194            -840.00    -4840.00
02195            -880.00    -4840.00
02196            -880.00    -4880.00
02197            -880.00    -4880.00
02198            -880.00    -4880.00
02199            -880.00    -4880.00
02200            -880.00    -4880.00
02201            -880.00    -4920.00
02202            -880.00    -4880.00
02203            -880.00    -4960.00
02204            -880.00    -4920.00
02205            -880.00    -4960.00
02206            -880.00    -4960.00
02207            -880.00    -4920.00
02208            -880.00    -4960.00
02209            -880.00    -4960.00
02210            -880.00    -4960.00
02211            -880.00    -4960.00
02212            -880.00    -5000.00
02213            -880.00    -5000.00
02214            -880.00    -5000.00
02215            -880.00    -5000.00
02216            -880.00    -5000.00
02217            -880.00    -5000.00
02218            -880.00    -5000.00
02219            -880.00    -5000.00
02220            -880.00    -5000.00
02221            -880.00    -5000.00
02222            -880.00    -5000.00
02223            -880.00    -5000.00
02224            -880.00    -5000.00
02225            -880.00    -5000.00
02226            -880.00    -5000.00
02227            -880.00    -5000.00
02228            -880.00    -5000.00
02229            -880.00    -5000.00
02230            -920.00    -5000.00
02231            -880.00    -5000.00
02232            -880.00    -5000.00
02233            -880.00    -5000.00
02234            -880.00    -5000.00
02235            -880.00    -5000.00
02236            -880.00    -5000.00
02237            -880.00    -5000.00
02238            -880.00    -5000.00
02239            -880.00    -5000.00
02240            -880.00    -5000.00
02241            -880.00    -5000.00
02242            -880.00    -5000.00
02243            -880.00    -5000.00
02244            -880.00    -5000.00
02245            -880.00    -5000.00
02246            -880.00    -5000.00
02247            -880.00    -5000.00
02248            -880.00    -5000.00
02249            -880.00    -5000.00
02250            -880.00    -5000.00
02251            -880.00    -5000.00
02252            -880.00    -5000.00
02253            -880.00    -5000.00
02254            -880.00    -5000.00
02255            -880.00    -5000.00
02256            -880.00    -5000.00
02257            -880.00    -5000.00
02258            -880.00    -5000.00
02259            -880.00    -5000.00
02260            -880.00    -5000.00
02261            -880.00    -5000.00
02262            -880.00    -5000.00
02263            -920.00    -5000.00
02264            -880.00    -5000.00
02265            -880.00    -5000.00
02266            -920.00    -5000.00
02267            -880.00    -5000.00
02268            -920.00    -5000.00
02269            -880.00    -5000.00
02270            -880.00    -5000.00
02271            -880.00    -5000.00
02272            -880.00    -4960.00
02273            -880.00    -4960.00
02274            -880.00    -4960.00
02275            -880.00    -4960.00
02276            -880.00    -4960.00
02277            -880.00    -4960.00
02278            -880.00    -4960.00
02279            -880.00    -4960.00
02280            -880.00    -4960.00
02281            -880.00    -4920.00
02282            -880.00    -4880.00
02283            -880.00    -4920.00
02284            -880.00    -4920.00
02285            -880.00    -4880.00
02286            -880.00    -4880.00
02287            -880.00    -4880.00
02288            -880.00    -4880.00
02289            -880.00    -4880.00
02290            -880.00    -4880.00
02291            -880.00    -4840.00
02292            -840.00    -4840.00
02293            -880.00    -4840.00
02294            -880.00    -4800.00
02295            -880.00    -4800.00
02296            -880.00    -4800.00
02297            -840.00    -4760.00
02298            -840.00    -4760.00
02299            -840.00    -4760.00
02300            -880.00    -4760.00
02301            -880.00    -4720.00
02302            -840.00    -4720.00
02303            -840.00    -4720.00
02304            -840.00    -4720.00
02305            -840.00    -4720.00
02306            -840.00    -4680.00
02307            -840.00    -4680.00
02308            -840.00    -4680.00
02309            -800.00    -4640.00
02310            -840.00    -4640.00
02311            -760.00    -4640.00
02312            -800.00    -4640.00
02313            -800.00    -4600.00
02314            -800.00    -4600.00
02315            -760.00    -4560.00
02316            -840.00    -4560.00
02317            -840.00    -4520.00
02318            -760.00    -4520.00
02319            -800.00    -4520.00
02320            -760.00    -4480.00
02321            -840.00    -4480.00
02322            -760.00    -4480.00
02323            -840.00    -4480.00
02324            -800.00    -4480.00
02325            -800.00    -4400.00
02326            -800.00    -4400.00
02327            -760.00    -4400.00
02328            -840.00    -4360.00
02329            -800.00    -4400.00
02330            -760.00    -4320.00
02331            -760.00    -4320.00
02332            -760.00    -4320.00
02333            -760.00    -4320.00
02334            -760.00    -4320.00
02335            -760.00    -4240.00
02336            -760.00    -4240.00
02337            -760.00    -4240.00
02338            -760.00    -4200.00
02339            -760.00    -4200.00
02340            -760.00    -4200.00
02341            -760.00    -4160.00
02342            -760.00    -4160.00
02343            -760.00    -4160.00
02344            -760.00    -4080.00
02345            -760.00    -4080.00
02346            -720.00    -4080.00
02347            -760.00    -4040.00
02348            -720.00    -4040.00
02349            -760.00    -4000.00
02350            -720.00    -4000.00
02351            -720.00    -4000.00
02352            -720.00    -3960.00
02353            -680.00    -3920.00
02354            -720.00    -3920.00
02355            -720.00    -3880.00
02356            -720.00    -3880.00
02357            -680.00    -3880.00
02358            -720.00    -3840.00
02359            -640.00    -3840.00
02360            -720.00    -3840.00
02361            -720.00    -3800.00
02362            -680.00    -3760.00
02363            -680.00    -3760.00
02364            -680.00    -3720.00
02365            -680.00    -3720.00
02366            -680.00    -3680.00
02367            -680.00    -3680.00
02368            -640.00    -3600.00
02369            -600.00    -3600.00
02370            -600.00    -3600.00
02371            -600.00    -3560.00
02372            -600.00    -3560.00
02373            -640.00    -3480.00
02374            -600.00    -3480.00
02375            -600.00    -3440.00
02376            -600.00    -3440.00
02377            -600.00    -3440.00
02378            -600.00    -3400.00
02379            -600.00    -3400.00
02380            -600.00    -3360.00
02381            -560.00    -3360.00
02382            -560.00    -3360.00
02383            -600.00    -3280.00
02384            -600.00    -3280.00
02385            -560.00    -3240.00
02386            -560.00    -3200.00
02387            -560.00    -3200.00
02388            -600.00    -3160.00
02389            -560.00    -3120.00
02390            -560.00    -3120.00
02391            -560.00    -3080.00
02392            -560.00    -3080.00
02393            -560.00    -3040.00
02394            -560.00    -3040.00
02395            -560.00    -3000.00
02396            -560.00    -2960.00
02397            -560.00    -2960.00
02398            -560.00    -2920.00
02399            -520.00    -2920.00
02400            -560.00    -2880.00
02401            -560.00    -2840.00
02402            -480.00    -2800.00
02403            -520.00    -2800.00
02404            -520.00    -2760.00
02405            -520.00    -2720.00
02406            -520.00    -2720.00
02407            -520.00    -2720.00
02408            -520.00    -2640.00
02409            -520.00    -2640.00
02410            -520.00    -2600.00
02411            -480.00    -2560.00
02412            -440.00    -2560.00
02413            -440.00    -2520.00
02414            -480.00    -2480.00
02415            -480.00    -2480.00
02416            -480.00    -2440.00
02417            -440.00    -2440.00
02418            -440.00    -2400.00
02419            -440.00    -2400.00
02420            -440.00    -2320.00
02421            -440.00    -2280.00
02422            -440.00    -2280.00
02423            -400.00    -2200.00
02424            -440.00    -2200.00
02425            -400.00    -2200.00
02426            -440.00    -2160.00
02427            -400.00    -2160.00
02428            -400.00    -2120.00
02429            -400.00    -2080.00
02430            -400.00    -2040.00
02431            -360.00    -2000.00
02432            -360.00    -1960.00
02433            -400.00    -1960.00
02434            -400.00    -1920.00
02435            -360.00    -1880.00
02436            -360.00    -1880.00
02437            -360.00    -1840.00
02438            -360.00    -1800.00
02439            -360.00    -1760.00
02440            -360.00    -1760.00
02441            -360.00    -1760.00
02442            -280.00    -1680.00
02443            -280.00    -1680.00
02444            -360.00    -1680.00
02445            -280.00    -1640.00
02446            -280.00    -1600.00
02447            -280.00    -1600.00
02448            -240.00    -1520.00
02449            -280.00    -1520.00
02450            -280.00    -1440.00
02451            -280.00    -1440.00
02452            -280.00    -1400.00
02453            -240.00    -1360.00
02454            -280.00    -1360.00
02455            -240.00    -1320.00
02456            -240.00    -1280.00
02457            -240.00    -1280.00
02458            -240.00    -1240.00
02459            -240.00    -1200.00
02460            -240.00    -1200.00
02461            -240.00    -1160.00
02462            -240.00    -1080.00
02463            -240.00    -1120.00
02464            -240.00    -1040.00
02465            -240.00    -1000.00
02466            -240.00    -1000.00
02467            -240.00     -920.00
02468            -200.00     -920.00
02469            -200.00     -880.00
02470            -200.00     -880.00
02471            -200.00     -800.00
02472            -200.00     -800.00
02473            -120.00     -760.00
02474            -200.00     -720.00
02475            -120.00     -720.00
02476            -200.00     -680.00
02477            -120.00     -640.00
02478            -200.00     -640.00
02479            -120.00     -600.00
02480            -120.00     -560.00
02481            -160.00     -560.00
02482            -120.00     -480.00
02483            -120.00     -480.00
02484            -120.00     -440.00
02485             -80.00     -400.00
02486             -80.00     -360.00
02487            -120.00     -320.00
02488             -80.00     -320.00
02489             -80.00     -280.00
02490             -80.00     -240.00
02491             -80.00     -240.00
02492             -80.00     -160.00
02493             -80.00     -160.00
02494             -80.00     -160.00
02495             -40.00      -80.00
02496             -40.00      -80.00
02497             -40.00      -40.00
02498             -40.00        0.00
02499               0.00       40.00
02500             -40.00       80.00
02501              40.00       80.00
02502               0.00      120.00
02503               0.00      160.00
02504              40.00      160.00
02505              40.00      240.00
02506              40.00      280.00
02507              40.00      320.00
02508              80.00      400.00
02509              40.00      360.00
02510             -40.00      360.00
02511             -40.00      360.00
02512              80.00      440.00
02513             120.00      480.00
02514              80.00      520.00
02515              80.00      560.00
02516              80.00      600.00
02517              80.00      560.00
02518              80.00      640.00
02519             120.00      720.00
02520             120.00      720.00
02521              80.00      720.00
02522              80.00      720.00
02523              80.00      800.00
02524             120.00      800.00
02525              80.00      840.00
02526             120.00      920.00
02527             120.00      920.00
02528             120.00      920.00
02529              80.00      960.00
02530             160.00     1000.00
02531             200.00     1040.00
02532             120.00     1080.00
02533             120.00     1120.00
02534             160.00     1120.00
02535             200.00     1200.00
02536             200.00     1240.00
02537             200.00     1240.00
02538             200.00     1240.00
02539             200.00     1280.00
02540             200.00     1280.00
02541             200.00     1360.00
02542             240.00     1360.00
02543             200.00     1400.00
02544             200.00     1440.00
02545             240.00     1480.00
02546             200.00     1520.00
02547             240.00     1520.00
02548             240.00     1560.00
02549             240.00     1640.00
02550             240.00     1640.00
02551             280.00     1640.00
02552             240.00     1680.00
02553             280.00     1720.00
02554             320.00     1760.00
02555             280.00     1760.00
02556             280.00     1760.00
02557             280.00     1840.00
02558             360.00     1840.00
02559             320.00     1840.00
02560             360.00     1920.00
02561             360.00     1920.00
02562             360.00     2000.00
02563             360.00     2000.00
02564             360.00     2040.00
02565             400.00     2040.00
02566             360.00     2080.00
02567             360.00     2120.00
02568             360.00     2160.00
02569             400.00     2200.00
02570             400.00     2200.00
02571             360.00     2240.00
02572             400.00     2240.00
02573             400.00     2320.00
02574             400.00     2360.00
02575             400.00     2360.00
02576             400.00     2400.00
02577             400.00     2400.00
02578             400.00     2440.00
02579             400.00     2480.00
02580             440.00     2480.00
02581             400.00     2520.00
02582             440.00     2560.00
02583             440.00     2600.00
02584             440.00     2560.00
02585             440.00     2640.00
02586             440.00     2680.00
02587             400.00     2640.00
02588             440.00     2680.00
02589             440.00     2760.00
02590             440.00     2720.00
02591             440.00     2800.00
02592             440.00     2840.00
02593             480.00     2800.00
02594             440.00     2880.00
02595             520.00     2920.00
02596             520.00     2920.00
02597             520.00     2960.00
02598             520.00     2960.00
02599             480.00     3040.00
02600             520.00     3040.00
02601             520.00     3040.00
02602             520.00     3080.00
02603             520.00     3120.00
02604             520.00     3160.00
02605             520.00     3120.00
02606             520.00     3160.00
02607             520.00     3200.00
02608             520.00     3200.00
02609             560.00     3280.00
02610             520.00     3240.00
02611             560.00     3320.00
02612             560.00     3320.00
02613             560.00     3320.00
02614             560.00     3360.00
02615             600.00     3400.00
02616             560.00     3440.00
02617             600.00     3440.00
02618             600.00     3440.00
02619             560.00     3480.00
02620             560.00     3520.00
02621             600.00     3520.00
02622             600.00     3520.00
02623             600.00     3600.00
02624             600.00     3600.00
02625             600.00     3640.00
02626             600.00     3640.00
02627             680.00     3680.00
02628             680.00     3680.00
02629             640.00     3680.00
02630             600.00     3720.00
02631             680.00     3760.00
02632             640.00     3760.00
02633             680.00     3800.00
02634             680.00     3840.00
02635             680.00     3840.00
02636             680.00     3840.00
02637             680.00     3880.00
02638             680.00     3920.00
02639             680.00     3920.00
02640             680.00     3920.00
02641             720.00     3960.00
02642             680.00     3960.00
02643             720.00     4000.00
02644             680.00     4040.00
02645             720.00     4040.00
02646             680.00     4040.00
02647             720.00     4080.00
02648             680.00     4080.00
02649             720.00     4120.00
02650             720.00     4160.00
02651             720.00     4120.00
02652             720.00     4200.00
02653             720.00     4160.00
02654             720.00     4200.00
02655             720.00     4240.00
02656             720.00     4240.00
02657             720.00     4240.00
02658             720.00     4280.00
02659             720.00     4280.00
02660             720.00     4280.00
02661             720.00     4320.00
02662             720.00     4360.00
02663             720.00     4320.00
02664             720.00     4360.00
02665             760.00     4400.00
02666             760.00     4440.00
02667             760.00     4400.00
02668             760.00     4440.00
02669             720.00     4440.00
02670             720.00     4480.00
02671             760.00     4480.00
02672             760.00     4480.00
02673             760.00     4520.00
02674             760.00     4520.00
02675             760.00     4520.00
02676             840.00     4560.00
02677             800.00     4560.00
02678             760.00     4560.00
02679             760.00     4600.00
02680             760.00     4600.00
02681             760.00     4640.00
02682             760.00     4640.00
02683             840.00     4640.00
02684             840.00     4640.00
02685             840.00     4640.00
02686             840.00     4680.00
02687             840.00     4720.00
02688             840.00     4720.00
02689             840.00     4720.00
02690             840.00     4720.00
02691             840.00     4760.00
02692             840.00     4760.00
02693             840.00     4760.00
02694             840.00     4760.00
02695             840.00     4800.00
02696             840.00     4800.00
02697             840.00     4800.00
02698             880.00     4800.00
02699             840.00     4800.00
02700             840.00     4840.00
02701             840.00     4840.00
02702             840.00     4880.00
02703             840.00     4840.00
02704             840.00     4880.00
02705             840.00     4880.00
02706             840.00     4880.00
02707             840.00     4920.00
02708             840.00     4920.00
02709             880.00     4880.00
02710             880.00     4920.00
02711             840.00     4920.00
02712             880.00     4920.00
02713             880.00     4920.00
02714             840.00     4960.00
02715             840.00     4960.00
02716             840.00     4960.00
02717             840.00     4920.00
02718             880.00     4960.00
02719             880.00     4960.00
02720             880.00     5000.00
02721             840.00     4960.00
02722             840.00     4960.00
02723             880.00     5000.00
02724             840.00     5000.00
02725             880.00     5000.00
02726             880.00     5000.00
02727             880.00     5000.00
02728             880.00     5000.00
02729             840.00     5000.00
02730             880.00     5000.00
02731             880.00     5000.00
02732             880.00     5000.00
02733             880.00     5000.00
02734             880.00     5000.00
02735             840.00     5000.00
02736             840.00     5000.00
02737             880.00     5000.00
02738             880.00     5000.00
02739             880.00     5000.00
02740             880.00     5000.00
02741             880.00     5000.00
02742             880.00     5000.00
02743             880.00     5000.00
02744             880.00     5000.00
02745             880.00     5000.00
02746             880.00     5000.00
02747             880.00     5000.00
02748             880.00     5000.00
02749             880.00     5000.00
02750             880.00     5000.00
02751             880.00     5000.00
02752             880.00     5000.00
02753             880.00     5000.00
02754             880.00     5000.00
02755             880.00     5000.00
02756             880.00     5000.00
02757             920.00     5000.00
02758             880.00     5000.00
02759             880.00     5000.00
02760             880.00     5000.00
02761             920.00     5000.00
02762             920.00     5000.00
02763             920.00     5000.00
02764             880.00     5000.00
02765             920.00     5000.00
02766             880.00     5000.00
02767             880.00     5000.00
02768             880.00     5000.00
02769             880.00     5000.00
02770             880.00     5000.00
02771             880.00     5000.00
02772             880.00     5000.00
02773             880.00     5000.00
02774             880.00     5000.00
02775             920.00     4960.00
02776             880.00     5000.00
02777             880.00     5000.00
02778             880.00     5000.00
02779             880.00     5000.00
02780             880.00     4960.00
02781             880.00     4960.00
02782             920.00     4960.00
02783             880.00     4960.00
02784             840.00     4960.00
02785             880.00     4960.00
02786             880.00     4960.00
02787             880.00     4920.00
02788             840.00     4920.00
02789             880.00     4920.00
02790             880.00     4920.00
02791             840.00     4920.00
02792             880.00     4920.00
02793             840.00     4880.00
02794             880.00     4920.00
02795             840.00     4880.00
02796             840.00     4880.00
02797             840.00     4880.00
02798             840.00     4840.00
02799             840.00     4840.00
02800             840.00     4880.00
02801             840.00     4800.00
02802             880.00     4800.00
02803             840.00     4800.00
02804             840.00     4800.00
02805             840.00     4800.00
02806             840.00     4760.00
02807             840.00     4760.00
02808             840.00     4760.00
02809             840.00     4760.00
02810             840.00     4760.00
02811             840.00     4720.00
02812             840.00     4720.00
02813             840.00     4720.00
02814             840.00     4720.00
02815             840.00     4680.00
02816             840.00     4680.00
02817             840.00     4640.00
02818             840.00     4640.00
02819             840.00     4640.00
02820             840.00     4640.00
02821             840.00     4600.00
02822             840.00     4600.00
02823             800.00     4600.00
02824             840.00     4560.00
02825             840.00     4560.00
02826             840.00     4560.00
02827             840.00     4520.00
02828             800.00     4480.00
02829             800.00     4480.00
02830             800.00     4480.00
02831             760.00     4480.00
02832             840.00     4480.00
02833             760.00     4480.00
02834             800.00     4400.00
02835             760.00     4440.00
02836             760.00     4400.00
02837             760.00     4360.00
02838             840.00     4400.00
02839             760.00     4360.00
02840             760.00     4320.00
02841             760.00     4320.00
02842             760.00     4320.00
02843             720.00     4280.00
02844             760.00     4280.00
02845             760.00     4240.00
02846             720.00     4240.00
02847             720.00     4200.00
02848             720.00     4200.00
02849             720.00     4160.00
02850             720.00     4200.00
02851             720.00     4160.00
02852             760.00     4160.00
02853             720.00     4120.00
02854             720.00     4080.00
02855             720.00     4080.00
02856             680.00     4040.00
02857             720.00     4040.00
02858             720.00     4000.00
02859             720.00     4000.00
02860             720.00     3960.00
02861             720.00     3960.00
02862             720.00     3960.00
02863             720.00     3920.00
02864             680.00     3920.00
02865             720.00     3880.00
02866             680.00     3840.00
02867             680.00     3840.00
02868             720.00     3800.00
02869             680.00     3800.00
02870             680.00     3800.00
02871             680.00     3760.00
02872             680.00     3760.00
02873             680.00     3680.00
02874             680.00     3680.00
02875             720.00     3680.00
02876             680.00     3680.00
02877             680.00     3640.00
02878             680.00     3600.00
02879             680.00     3560.00
02880             600.00     3560.00
02881             640.00     3520.00
02882             640.00     3520.00
02883             640.00     3480.00
02884             640.00     3440.00
02885             640.00     3480.00
02886             600.00     3440.00
02887             600.00     3400.00
02888             600.00     3400.00
02889             600.00     3360.00
02890             600.00     3320.00
02891             600.00     3320.00
02892             640.00     3280.00
02893             560.00     3280.00
02894             600.00     3240.00
02895             560.00     3200.00
02896             560.00     3200.00
02897             600.00     3160.00
02898             600.00     3160.00
02899             560.00     3120.00
02900             560.00     3120.00
02901             560.00     3040.00
02902             560.00     3040.00
02903             560.00     3000.00
02904             520.00     3000.00
02905             520.00     2960.00
02906             520.00     2960.00
02907             560.00     2960.00
02908             520.00     2880.00
02909             520.00     2840.00
02910             520.00     2840.00
02911             520.00     2840.00
02912             520.00     2760.00
02913             520.00     2720.00
02914             520.00     2720.00
02915             520.00     2720.00
02916             440.00     2680.00
02917             520.00     2640.00
02918             520.00     2640.00
02919             440.00     2600.00
02920             520.00     2560.00
02921             440.00     2520.00
02922             520.00     2520.00
02923             440.00     2520.00
02924             440.00     2480.00
02925             400.00     2440.00
02926             400.00     2400.00
02927             440.00     2360.00
02928             440.00     2360.00
02929             400.00     2360.00
02930             400.00     2280.00
02931             440.00     2240.00
02932             400.00     2240.00
02933             400.00     2200.00
02934             400.00     2160.00
02935             400.00     2160.00
02936             400.00     2120.00
02937             400.00     2080.00
02938             360.00     2080.00
02939             360.00     2040.00
02940             400.00     2000.00
02941             360.00     2000.00
02942             400.00     1920.00
02943             400.00     1920.00
02944             360.00     1880.00
02945             360.00     1880.00
02946             360.00     1840.00
02947             360.00     1840.00
02948             360.00     1760.00
02949             360.00     1760.00
02950             360.00     1720.00
02951             360.00     1720.00
02952             360.00     1680.00
02953             320.00     1640.00
02954             280.00     1600.00
02955             360.00     1560.00
02956             280.00     1560.00
02957             280.00     1520.00
02958             280.00     1520.00
02959             280.00     1440.00
02960             280.00     1440.00
02961             280.00     1400.00
02962             240.00     1360.00
02963             280.00     1360.00
02964             240.00     1280.00
02965             280.00     1280.00
02966             240.00     1240.00
02967             240.00     1200.00
02968             240.00     1200.00
02969             240.00     1200.00
02970             240.00     1120.00
02971             200.00     1120.00
02972             200.00     1080.00
02973             240.00     1080.00
02974             200.00     1000.00
02975             200.00      960.00
02976             200.00      920.00
02977             200.00      880.00
02978             160.00      880.00
02979             200.00      880.00
02980             160.00      800.00
02981             160.00      800.00
02982             120.00      760.00
02983             120.00      720.00
02984             120.00      720.00
02985             120.00      680.00
02986             120.00      640.00
02987              80.00      600.00
02988             120.00      560.00
02989              80.00      560.00
02990              80.00      520.00
02991              80.00      480.00
02992              80.00      440.00
02993              80.00      400.00
02994              80.00      400.00
02995              80.00      400.00
02996              80.00      320.00
02997              80.00      320.00
02998              80.00      280.00
02999              80.00      240.00
03000              40.00      160.00
03001              40.00      160.00
03002              40.00      120.00
03003              40.00      120.00
03004              40.00       80.00
03005              40.00       40.00
03006              40.00        0.00
03007              40.00      -40.00
03008              40.00      -40.00
03009             -40.00      -80.00
03010              40.00      -80.00
03011               0.00     -160.00
03012             -40.00     -160.00
03013             -40.00     -200.00
03014             -40.00     -200.00
03015             -40.00     -240.00
03016               0.00     -280.00
03017              40.00     -280.00
03018               0.00     -400.00
03019            -120.00     -480.00
03020            -120.00     -480.00
03021             -40.00     -400.00
03022              40.00     -480.00
03023             -80.00     -520.00
03024             -40.00     -520.00
03025             -80.00     -560.00
03026             -40.00     -640.00
03027            -120.00     -680.00
03028            -120.00     -640.00
03029             -80.00     -680.00
03030            -120.00     -720.00
03031            -120.00     -760.00
03032            -120.00     -800.00
03033             -80.00     -840.00
03034            -120.00     -840.00
03035             -80.00     -880.00
03036            -120.00     -920.00
03037            -120.00     -960.00
03038            -120.00    -1000.00
03039            -120.00    -1000.00
03040            -120.00    -1040.00
03041            -160.00    -1080.00
03042            -200.00    -1120.00
03043            -200.00    -1160.00
03044            -200.00    -1160.00
03045            -200.00    -1200.00
03046            -240.00    -1240.00
03047            -240.00    -1280.00
03048            -240.00    -1280.00
03049            -240.00    -1320.00
03050            -240.00    -1360.00
03051            -240.00    -1360.00
03052            -240.00    -1440.00
03053            -240.00    -1440.00
03054            -240.00    -1480.00
03055            -280.00    -1520.00
03056            -240.00    -1520.00
03057            -240.00    -1520.00
03058            -280.00    -1600.00
03059            -280.00    -1640.00
03060            -280.00    -1640.00
03061            -280.00    -1680.00
03062            -280.00    -1680.00
03063            -280.00    -1760.00
03064            -280.00    -1760.00
03065            -320.00    -1800.00
03066            -280.00    -1800.00
03067            -360.00    -1840.00
03068            -360.00    -1920.00
03069            -360.00    -1920.00
03070            -360.00    -1960.00
03071            -360.00    -1960.00
03072            -360.00    -2040.00
03073            -320.00    -2000.00
03074            -320.00    -2040.00
03075            -360.00    -2120.00
03076            -360.00    -2120.00
03077            -360.00    -2160.00
03078            -360.00    -2160.00
03079            -360.00    -2200.00
03080            -400.00    -2240.00
03081            -400.00    -2280.00
03082            -400.00    -2320.00
03083            -400.00    -2320.00
03084            -400.00    -2360.00
03085            -400.00    -2400.00
03086            -400.00    -2440.00
03087            -440.00    -2440.00
03088            -400.00    -2440.00
03089            -400.00    -2480.00
03090            -400.00    -2520.00
03091            -400.00    -2560.00
03092            -440.00    -2600.00
03093            -440.00    -2600.00
03094            -440.00    -2640.00
03095            -440.00    -2640.00
03096            -440.00    -2680.00
03097            -440.00    -2720.00
03098            -440.00    -2760.00
03099            -440.00    -2760.00
03100            -440.00    -2760.00
03101            -440.00    -2800.00
03102            -480.00    -2840.00
03103            -440.00    -2880.00
03104            -520.00    -2920.00
03105            -520.00    -2920.00
03106            -520.00    -2960.00
03107            -520.00    -2960.00
03108            -520.00    -3040.00
03109            -520.00    -3040.00
03110            -520.00    -3040.00
03111            -520.00    -3080.00
03112            -520.00    -3120.00
03113            -560.00    -3120.00
03114            -560.00    -3200.00
03115            -560.00    -3200.00
03116            -560.00    -3200.00
03117            -560.00    -3240.00
03118            -560.00    -3280.00
03119            -560.00    -3280.00
03120            -600.00    -3320.00
03121            -600.00    -3320.00
03122            -560.00    -3360.00
03123            -600.00    -3360.00
03124            -560.00    -3400.00
03125            -560.00    -3400.00
03126            -600.00    -3440.00
03127            -600.00    -3480.00
03128            -600.00    -3480.00
03129            -600.00    -3520.00
03130            -600.00    -3560.00
03131            -600.00    -3560.00
03132            -600.00    -3560.00
03133            -600.00    -3640.00
03134            -680.00    -3640.00
03135            -640.00    -3680.00
03136            -640.00    -3680.00
03137            -600.00    -3720.00
03138            -600.00    -3720.00
03139            -600.00    -3760.00
03140            -600.00    -3720.00
03141            -640.00    -3760.00
03142            -680.00    -3800.00
03143            -680.00    -3840.00
03144            -680.00    -3880.00
03145            -680.00    -3840.00
03146            -680.00    -3920.00
03147            -680.00    -3880.00
03148            -680.00    -3920.00
03149            -680.00    -3960.00
03150            -680.00    -4000.00
03151            -680.00    -4000.00
03152            -680.00    -4000.00
03153            -680.00    -4000.00
03154            -680.00    -4040.00
03155            -720.00    -4080.00
03156            -720.00    -4080.00
03157            -680.00    -4080.00
03158            -720.00    -4160.00
03159            -680.00    -4160.00
03160            -720.00    -4160.00
03161            -720.00    -4200.00
03162            -720.00    -4200.00
03163            -760.00    -4200.00
03164            -720.00    -4240.00
03165            -720.00    -4240.00
03166            -720.00    -4240.00
03167            -720.00    -4240.00
03168            -720.00    -4320.00
03169            -720.00    -4320.00
03170            -760.00    -4320.00
03171            -760.00    -4360.00
03172            -760.00    -4360.00
03173            -760.00    -4360.00
03174            -760.00    -4400.00
03175            -800.00    -4400.00
03176            -760.00    -4440.00
03177            -760.00    -4440.00
03178            -760.00    -4480.00
03179            -760.00    -4480.00
03180            -760.00    -4480.00
03181            -760.00    -4520.00
03182            -800.00    -4480.00
03183            -840.00    -4520.00
03184            -760.00    -4520.00
03185            -760.00    -4520.00
03186            -840.00    -4560.00
03187            -800.00    -4560.00
03188            -760.00    -4560.00
03189            -840.00    -4600.00
03190            -840.00    -4640.00
03191            -840.00    -4640.00
03192            -760.00    -4640.00
03193            -880.00    -4680.00
03194            -840.00    -4680.00
03195            -840.00    -4680.00
03196            -840.00    -4720.00
03197            -840.00    -4720.00
03198            -800.00    -4720.00
03199            -840.00    -4720.00
03200            -840.00    -4720.00
03201            -840.00    -4760.00
03202            -840.00    -4760.00
03203            -840.00    -4760.00
03204            -800.00    -4800.00
03205            -840.00    -4760.00
03206            -840.00    -4800.00
03207            -840.00    -4800.00
03208            -840.00    -4800.00
03209            -840.00    -4840.00
03210            -880.00    -4840.00
03211            -840.00    -4880.00
03212            -880.00    -4880.00
03213            -840.00    -4880.00
03214            -880.00    -4880.00
03215            -880.00    -4880.00
03216            -840.00    -4880.00
03217            -880.00    -4880.00
03218            -840.00    -4960.00
03219            -880.00    -4880.00
03220            -840.00    -4960.00
03221            -880.00    -4920.00
03222            -840.00    -4920.00
03223            -880.00    -4960.00
03224            -880.00    -4960.00
03225            -880.00    -4960.00
03226            -840.00    -4960.00
03227            -880.00    -5000.00
03228            -880.00    -5000.00
03229            -840.00    -5000.00
03230            -880.00    -5000.00
03231            -840.00    -5000.00
03232            -880.00    -5000.00
03233            -880.00    -5000.00
03234            -880.00    -5000.00
03235            -880.00    -5000.00
03236            -880.00    -5000.00
03237            -920.00    -5000.00
03238            -880.00    -5000.00
03239            -880.00    -5000.00
03240            -880.00    -5000.00
03241            -880.00    -5000.00
03242            -920.00    -5000.00
03243            -880.00    -5000.00
03244            -880.00    -5000.00
03245            -880.00    -5000.00
03246            -880.00    -5000.00
03247            -880.00    -5000.00
03248            -920.00    -5000.00
03249            -920.00    -5000.00
03250            -880.00    -5000.00
03251            -880.00    -5000.00
03252            -920.00    -5000.00
03253            -880.00    -5000.00
03254            -880.00    -5000.00
03255            -880.00    -5000.00
03256            -920.00    -5000.00
03257            -880.00    -5000.00
03258            -920.00    -5000.00
03259            -880.00    -5000.00
03260            -920.00    -5000.00
03261            -880.00    -5000.00
03262            -880.00    -5000.00
03263            -920.00    -5000.00
03264            -880.00    -5000.00
03265            -880.00    -5000.00
03266            -880.00    -5000.00
03267            -920.00    -5000.00
03268            -880.00    -5000.00
03269            -880.00    -5000.00
03270            -880.00    -5000.00
03271            -880.00    -5000.00
03272            -880.00    -5000.00
03273            -920.00    -5000.00
03274            -880.00    -5000.00
03275            -920.00    -5000.00
03276            -880.00    -5000.00
03277            -880.00    -5000.00
03278            -880.00    -5000.00
03279            -880.00    -5000.00
03280            -880.00    -5000.00
03281            -880.00    -5000.00
03282            -880.00    -5000.00
03283            -880.00    -5000.00
03284            -880.00    -5000.00
03285            -880.00    -5000.00
03286            -880.00    -5000.00
03287            -840.00    -5000.00
03288            -880.00    -4960.00
03289            -880.00    -5000.00
03290            -880.00    -4960.00
03291            -880.00    -4960.00
03292            -880.00    -4960.00
03293            -880.00    -4960.00
03294            -880.00    -4960.00
03295            -880.00    -4960.00
03296            -880.00    -4960.00
03297            -880.00    -4920.00
03298            -880.00    -4880.00
03299            -880.00    -4920.00
03300            -880.00    -4920.00
03301            -880.00    -4880.00
03302            -880.00    -4880.00
03303            -880.00    -4880.00
03304            -880.00    -4880.00
03305            -880.00    -4880.00
03306            -880.00    -4880.00
03307            -840.00    -4840.00
03308            -880.00    -4840.00
03309            -880.00    -4840.00
03310            -840.00    -4840.00
03311            -840.00    -4800.00
03312            -880.00    -4760.00
03313            -840.00    -4760.00
03314            -880.00    -4760.00
03315            -880.00    -4800.00
03316            -880.00    -4760.00
03317            -880.00    -4760.00
03318            -840.00    -4720.00
03319            -880.00    -4720.00
03320            -880.00    -4720.00
03321            -840.00    -4680.00
03322            -840.00    -4720.00
03323            -840.00    -4680.00
03324            -840.00    -4680.00
03325            -880.00    -4640.00
03326            -840.00    -4640.00
03327            -840.00    -4680.00
03328            -840.00    -4640.00
03329            -840.00    -4640.00
03330            -840.00    -4640.00
03331            -840.00    -4560.00
03332            -840.00    -4560.00
03333            -840.00    -4560.00
03334            -840.00    -4520.00
03335            -760.00    -4520.00
03336            -840.00    -4520.00
03337            -800.00    -4520.00
03338            -760.00    -4480.00
03339            -760.00    -4480.00
03340            -800.00    -4440.00
03341            -760.00    -4480.00
03342            -760.00    -4480.00
03343            -760.00    -4440.00
03344            -760.00    -4400.00
03345            -760.00    -4360.00
03346            -760.00    -4400.00
03347            -760.00    -4360.00
03348            -760.00    -4320.00
03349            -720.00    -4320.00
03350            -760.00    -4320.00
03351            -760.00    -4320.00
03352            -760.00    -4280.00
03353            -760.00    -4240.00
03354            -760.00    -4240.00
03355            -760.00    -4240.00
03356            -760.00    -4200.00
03357            -760.00    -4200.00
03358            -760.00    -4160.00
03359            -760.00    -4160.00
03360            -760.00    -4080.00
03361            -760.00    -4120.00
03362            -720.00    -4080.00
03363            -720.00    -4080.00
03364            -720.00    -4040.00
03365            -720.00    -4040.00
03366            -720.00    -4000.00
03367            -720.00    -4000.00
03368            -720.00    -4000.00
03369            -720.00    -3960.00
03370            -720.00    -3920.00
03371            -720.00    -3920.00
03372            -720.00    -3880.00
03373            -720.00    -3880.00
03374            -720.00    -3840.00
03375            -720.00    -3840.00
03376            -720.00    -3840.00
03377            -680.00    -3800.00
03378            -720.00    -3800.00
03379            -680.00    -3760.00
03380            -680.00    -3760.00
03381            -680.00    -3720.00
03382            -720.00    -3720.00
03383            -680.00    -3680.00
03384            -640.00    -3680.00
03385            -600.00    -3640.00
03386            -680.00    -3600.00
03387            -680.00    -3560.00
03388            -640.00    -3560.00
03389            -600.00    -3480.00
03390            -680.00    -3520.00
03391            -640.00    -3480.00
03392            -600.00    -3480.00
03393            -600.00    -3440.00
03394            -600.00    -3400.00
03395            -600.00    -3440.00
03396            -600.00    -3400.00
03397            -600.00    -3360.00
03398            -600.00    -3320.00
03399            -600.00    -3280.00
03400            -600.00    -3280.00
03401            -600.00    -3280.00
03402            -560.00    -3240.00
03403            -600.00    -3200.00
03404            -560.00    -3200.00
03405            -560.00    -3200.00
03406            -560.00    -3120.00
03407            -560.00    -3120.00
03408            -560.00    -3080.00
03409            -560.00    -3080.00
03410            -560.00    -3040.00
03411            -560.00    -3000.00
03412            -560.00    -2960.00
03413            -560.00    -2960.00
03414            -520.00    -2960.00
03415            -560.00    -2920.00
03416            -520.00    -2880.00
03417            -560.00    -2880.00
03418            -520.00    -2840.00
03419            -520.00    -2800.00
03420            -520.00    -2760.00
03421            -520.00    -2720.00
03422            -440.00    -2760.00
03423            -520.00    -2720.00
03424            -480.00    -2720.00
03425            -520.00    -2640.00
03426            -440.00    -2640.00
03427            -440.00    -2640.00
03428            -440.00    -2600.00
03429            -440.00    -2560.00
03430            -440.00    -2520.00
03431            -440.00    -2480.00
03432            -440.00    -2480.00
03433            -440.00    -2440.00
03434            -400.00    -2440.00
03435            -440.00    -2400.00
03436            -440.00    -2360.00
03437            -440.00    -2320.00
03438            -440.00    -2320.00
03439            -440.00    -2240.00
03440            -400.00    -2200.00
03441            -440.00    -2200.00
03442            -400.00    -2160.00
03443            -400.00    -2160.00
03444            -400.00    -2120.00
03445            -400.00    -2120.00
03446            -400.00    -2080.00
03447            -400.00    -2040.00
03448            -400.00    -2000.00
03449            -400.00    -2000.00
03450            -400.00    -1960.00
03451            -400.00    -1920.00
03452            -360.00    -1880.00
03453            -360.00    -1840.00
03454            -360.00    -1840.00
03455            -360.00    -1800.00
03456            -360.00    -1800.00
03457            -360.00    -1760.00
03458            -360.00    -1720.00
03459            -360.00    -1680.00
03460            -360.00    -1680.00
03461            -320.00    -1640.00
03462            -320.00    -1600.00
03463            -280.00    -1600.00
03464            -280.00    -1560.00
03465            -280.00    -1520.00
03466            -280.00    -1520.00
03467            -240.00    -1480.00
03468            -240.00    -1440.00
03469            -280.00    -1400.00
03470            -280.00    -1360.00
03471            -240.00    -1320.00
03472            -240.00    -1320.00
03473            -240.00    -1280.00
03474            -240.00    -1280.00
03475            -240.00    -1240.00
03476            -240.00    -1200.00
03477            -200.00    -1160.00
03478            -240.00    -1160.00
03479            -240.00    -1120.00
03480            -200.00    -1080.00
03481            -200.00    -1040.00
03482            -200.00    -1000.00
03483            -240.00     -920.00
03484            -160.00     -960.00
03485            -200.00     -920.00
03486            -160.00     -880.00
03487            -200.00     -840.00
03488            -120.00     -840.00
03489            -200.00     -800.00
03490            -120.00     -760.00
03491            -120.00     -720.00
03492            -120.00     -720.00
03493            -120.00     -680.00
03494            -120.00     -640.00
03495            -120.00     -640.00
03496            -120.00     -560.00
03497            -120.00     -560.00
03498            -120.00     -560.00
03499            -120.00     -520.00
03500            -120.00     -480.00
03501            -120.00     -400.00
03502            -120.00     -400.00
03503            -120.00     -360.00
03504             -80.00     -360.00
03505             -80.00     -320.00
03506            -120.00     -320.00
03507             -80.00     -240.00
03508             -80.00     -200.00
03509             -80.00     -200.00
03510             -80.00     -160.00
03511             -40.00     -120.00
03512             -40.00      -80.00
03513             -40.00      -40.00
03514             -40.00        0.00
03515             -40.00        0.00
03516             -40.00        0.00
03517             -40.00       80.00
03518              40.00       80.00
03519              40.00      120.00
03520             -40.00      160.00
03521              40.00      160.00
03522              40.00      240.00
03523              40.00      240.00
03524              40.00      360.00
03525              80.00      360.00
03526              40.00      360.00
03527             -40.00      320.00
03528               0.00      400.00
03529              80.00      480.00
03530              80.00      480.00
03531              40.00      480.00
03532              80.00      560.00
03533              80.00      600.00
03534              40.00      560.00
03535              80.00      640.00
03536              80.00      720.00
03537             120.00      720.00
03538              80.00      720.00
03539              80.00      720.00
03540             120.00      800.00
03541             120.00      800.00
03542             120.00      840.00
03543             120.00      880.00
03544             160.00      920.00
03545             120.00      920.00
03546             120.00      960.00
03547             200.00     1040.00
03548             200.00     1040.00
03549             160.00     1080.00
03550             200.00     1080.00
03551             200.00     1120.00
03552             200.00     1160.00
03553             200.00     1200.00
03554             200.00     1240.00
03555             200.00     1240.00
03556             200.00     1280.00
03557             200.00     1280.00
03558             200.00     1360.00
03559             240.00     1400.00
03560             240.00     1400.00
03561             240.00     1400.00
03562             240.00     1480.00
03563             240.00     1520.00
03564             280.00     1520.00
03565             240.00     1560.00
03566             240.00     1600.00
03567             240.00     1640.00
03568             240.00     1680.00
03569             240.00     1680.00
03570             240.00     1720.00
03571             280.00     1720.00
03572             280.00     1760.00
03573             280.00     1800.00
03574             320.00     1840.00
03575             280.00     1840.00
03576             320.00     1880.00
03577             320.00     1920.00
03578             320.00     1960.00
03579             320.00     2000.00
03580             320.00     2000.00
03581             320.00     2000.00
03582             360.00     2080.00
03583             360.00     2080.00
03584             360.00     2120.00
03585             360.00     2160.00
03586             360.00     2200.00
03587             360.00     2200.00
03588             360.00     2240.00
03589             400.00     2240.00
03590             400.00     2320.00
03591             400.00     2320.00
03592             400.00     2360.00
03593             400.00     2400.00
03594             400.00     2440.00
03595             400.00     2480.00
03596             400.00     2480.00
03597             400.00     2480.00
03598             440.00     2520.00
03599             400.00     2560.00
03600             440.00     2560.00
03601             440.00     2640.00
03602             440.00     2640.00
03603             440.00     2680.00
03604             440.00     2680.00
03605             520.00     2720.00
03606             480.00     2720.00
03607             520.00     2760.00
03608             480.00     2800.00
03609             520.00     2840.00
03610             520.00     2840.00
03611             520.00     2880.00
03612             480.00     2920.00
03613             520.00     2920.00
03614             520.00     2960.00
03615             520.00     2960.00
03616             520.00     3000.00
03617             520.00     3040.00
03618             520.00     3080.00
03619             520.00     3120.00
03620             520.00     3080.00
03621             560.00     3160.00
03622             560.00     3160.00
03623             520.00     3200.00
03624             560.00     3200.00
03625             560.00     3200.00
03626             520.00     3280.00
03627             560.00     3280.00
03628             520.00     3280.00
03629             560.00     3280.00
03630             560.00     3360.00
03631             560.00     3360.00
03632             560.00     3400.00
03633             560.00     3400.00
03634             600.00     3440.00
03635             560.00     3440.00
03636             560.00     3480.00
03637             600.00     3480.00
03638             600.00     3520.00
03639             600.00     3560.00
03640             600.00     3600.00
03641             600.00     3600.00
03642             600.00     3640.00
03643             600.00     3640.00
03644             640.00     3680.00
03645             600.00     3680.00
03646             680.00     3680.00
03647             640.00     3760.00
03648             600.00     3760.00
03649             600.00     3760.00
03650             680.00     3800.00
03651             640.00     3840.00
03652             680.00     3840.00
03653             680.00     3840.00
03654             640.00     3840.00
03655             680.00     3920.00
03656             680.00     3920.00
03657             680.00     3960.00
03658             680.00     3960.00
03659             720.00     4000.00
03660             680.00     4000.00
03661             680.00     4000.00
03662             720.00     4040.00
03663             720.00     4080.00
03664             680.00     4080.00
03665             680.00     4080.00
03666             720.00     4120.00
03667             720.00     4160.00
03668             720.00     4200.00
03669             720.00     4200.00
03670             720.00     4200.00
03671             720.00     4240.00
03672             720.00     4240.00
03673             720.00     4240.00
03674             720.00     4280.00
03675             720.00     4280.00
03676             720.00     4320.00
03677             720.00     4280.00
03678             760.00     4320.00
03679             760.00     4320.00
03680             760.00     4320.00
03681             800.00     4400.00
03682             760.00     4400.00
03683             760.00     4400.00
03684             760.00     4440.00
03685             800.00     4440.00
03686             760.00     4440.00
03687             760.00     4440.00
03688             760.00     4480.00
03689             760.00     4480.00
03690             760.00     4560.00
03691             760.00     4480.00
03692             760.00     4560.00
03693             800.00     4560.00
03694             840.00     4560.00
03695             840.00     4600.00
03696             800.00     4600.00
03697             760.00     4600.00
03698             840.00     4600.00
03699             800.00     4600.00
03700             840.00     4640.00
03701             840.00     4640.00
03702             800.00     4680.00
03703             800.00     4680.00
03704             840.00     4720.00
03705             840.00     4720.00
03706             840.00     4720.00
03707             840.00     4720.00
03708             840.00     4760.00
03709             840.00     4760.00
03710             760.00     4760.00
03711             840.00     4800.00
03712             840.00     4800.00
03713             840.00     4800.00
03714             840.00     4800.00
03715             840.00     4800.00
03716             840.00     4880.00
03717             840.00     4840.00
03718             840.00     4840.00
03719             840.00     4840.00
03720             840.00     4880.00
03721             840.00     4880.00
03722             840.00     4880.00
03723             840.00     4880.00
03724             840.00     4880.00
03725             880.00     4880.00
03726             840.00     4920.00
03727             880.00     4920.00
03728             840.00     4920.00
03729             880.00     4920.00
03730             880.00     4920.00
03731             840.00     4920.00
03732             880.00     4960.00
03733             880.00     4960.00
03734             880.00     4920.00
03735             880.00     4960.00
03736             880.00     4960.00
03737             880.00     4960.00
03738             880.00     4960.00
03739             840.00     5000.00
03740             880.00     5000.00
03741             880.00     5000.00
03742             880.00     5000.00
03743             880.00     5000.00
03744             880.00     5000.00
03745             880.00     5000.00
03746             880.00     5000.00
03747             880.00     5000.00
03748             880.00     5000.00
03749             880.00     5000.00
03750             840.00     5000.00
03751             880.00     5000.00
03752             880.00     5000.00
03753             880.00     5000.00
03754             880.00     5000.00
03755             920.00     5000.00
03756             880.00     5000.00
03757             880.00     5000.00
03758             880.00     5000.00
03759             880.00     5000.00
03760             880.00     5000.00
03761             880.00     5000.00
03762             880.00     5000.00
03763             840.00     5000.00
03764             920.00     5000.00
03765             880.00     5000.00
03766             880.00     5000.00
03767             840.00     5000.00
03768             880.00     5000.00
03769             880.00     5000.00
03770             880.00     5000.00
03771             880.00     5000.00
03772             880.00     5000.00
03773             880.00     5000.00
03774             920.00     5000.00
03775             880.00     5000.00
03776             880.00     5000.00
03777             880.00     5000.00
03778             840.00     5000.00
03779             880.00     5000.00
03780             920.00     5000.00
03781             840.00     5000.00
03782             880.00     5000.00
03783             880.00     5000.00
03784             880.00     5000.00
03785             880.00     5000.00
03786             880.00     5000.00
03787             880.00     5000.00
03788             880.00     5000.00
03789             880.00     5000.00
03790             880.00     5000.00
03791             880.00     5000.00
03792             840.00     4960.00
03793             880.00     5000.00
03794             880.00     4960.00
03795             880.00     5000.00
03796             880.00     5000.00
03797             880.00     4960.00
03798             880.00     5000.00
03799             880.00     4960.00
03800             880.00     5000.00
03801             880.00     4960.00
03802             880.00     4960.00
03803             880.00     4960.00
03804             880.00     4920.00
03805             880.00     4960.00
03806             880.00     4960.00
03807             880.00     4920.00
03808             880.00     4920.00
03809             880.00     4920.00
03810             880.00     4880.00
03811             880.00     4920.00
03812             880.00     4880.00
03813             880.00     4880.00
03814             840.00     4880.00
03815             880.00     4880.00
03816             880.00     4880.00
03817             880.00     4880.00
03818             880.00     4840.00
03819             880.00     4800.00
03820             880.00     4840.00
03821             840.00     4800.00
03822             840.00     4800.00
03823             880.00     4800.00
03824             840.00     4760.00
03825             840.00     4760.00
03826             840.00     4760.00
03827             840.00     4720.00
03828             840.00     4720.00
03829             840.00     4720.00
03830             840.00     4720.00
03831             840.00     4680.00
03832             840.00     4680.00
03833             840.00     4720.00
03834             840.00     4640.00
03835             840.00     4640.00
03836             840.00     4640.00
03837             800.00     4640.00
03838             840.00     4600.00
03839             840.00     4600.00
03840             840.00     4600.00
03841             840.00     4560.00
03842             840.00     4560.00
03843             840.00     4560.00
03844             840.00     4520.00
03845             760.00     4520.00
03846             800.00     4480.00
03847             840.00     4480.00
03848             760.00     4480.00
03849             840.00     4440.00
03850             800.00     4480.00
03851             760.00     4440.00
03852             720.00     4400.00
03853             760.00     4440.00
03854             760.00     4360.00
03855             760.00     4320.00
03856             760.00     4360.00
03857             760.00     4360.00
03858             760.00     4320.00
03859             720.00     4320.00
03860             760.00     4320.00
03861             760.00     4280.00
03862             760.00     4240.00
03863             760.00     4240.00
03864             760.00     4240.00
03865             760.00     4240.00
03866             760.00     4160.00
03867             720.00     4200.00
03868             760.00     4160.00
03869             720.00     4120.00
03870             760.00     4120.00
03871             720.00     4080.00
03872             720.00     4080.00
03873             720.00     4080.00
03874             720.00     4040.00
03875             720.00     4040.00
03876             720.00     4000.00
03877             720.00     4000.00
03878             720.00     4000.00
03879             720.00     3960.00
03880             720.00     3920.00
03881             720.00     3920.00
03882             720.00     3880.00
03883             720.00     3840.00
03884             720.00     3840.00
03885             680.00     3800.00
03886             680.00     3800.00
03887             720.00     3760.00
03888             680.00     3760.00
03889             680.00     3760.00
03890             680.00     3720.00
03891             680.00     3680.00
03892             680.00     3680.00
03893             680.00     3640.00
03894             640.00     3640.00
03895             680.00     3600.00
03896             600.00     3560.00
03897             640.00     3520.00
03898             600.00     3520.00
03899             640.00     3520.00
03900             600.00     3480.00
03901             640.00     3480.00
03902             600.00     3440.00
03903             600.00     3440.00
03904             600.00     3440.00
03905             600.00     3400.00
03906             560.00     3360.00
03907             560.00     3320.00
03908             600.00     3320.00
03909             600.00     3280.00
03910             560.00     3240.00
03911             560.00     3240.00
03912             560.00     3200.00
03913             560.00     3160.00
03914             560.00     3160.00
03915             560.00     3160.00
03916             520.00     3120.00
03917             560.00     3080.00
03918             560.00     3080.00
03919             560.00     3040.00
03920             520.00     3000.00
03921             520.00     3000.00
03922             520.00     2960.00
03923             520.00     2960.00
03924             520.00     2920.00
03925             520.00     2880.00
03926             520.00     2880.00
03927             520.00     2840.00
03928             520.00     2800.00
03929             520.00     2800.00
03930             520.00     2720.00
03931             520.00     2720.00
03932             520.00     2680.00
03933             520.00     2680.00
03934             520.00     2640.00
03935             520.00     2640.00
03936             520.00     2600.00
03937             520.00     2560.00
03938             480.00     2560.00
03939             440.00     2520.00
03940             440.00     2520.00
03941             480.00     2480.00
03942             440.00     2440.00
03943             480.00     2400.00
03944             440.00     2360.00
03945             440.00     2360.00
03946             440.00     2320.00
03947             440.00     2280.00
03948             440.00     2240.00
03949             400.00     2240.00
03950             400.00     2200.00
03951             400.00     2160.00
03952             400.00     2160.00
03953             400.00     2120.00
03954             400.00     2120.00
03955             400.00     2080.00
03956             400.00     2080.00
03957             360.00     2000.00
03958             360.00     2000.00
03959             360.00     1960.00
03960             360.00     1920.00
03961             360.00     1880.00
03962             360.00     1880.00
03963             360.00     1840.00
03964             360.00     1800.00
03965             360.00     1760.00
03966             280.00     1720.00
03967             360.00     1720.00
03968             320.00     1680.00
03969             280.00     1680.00
03970             360.00     1640.00
03971             280.00     1600.00
03972             280.00     1560.00
03973             280.00     1560.00
03974             280.00     1520.00
03975             280.00     1480.00
03976             280.00     1440.00
03977             240.00     1400.00
03978             280.00     1400.00
03979             280.00     1360.00
03980             280.00     1360.00
03981             240.00     1320.00
03982             240.00     1280.00
03983             240.00     1240.00
03984             240.00     1200.00
03985             240.00     1200.00
03986             240.00     1200.00
03987             240.00     1120.00
03988             240.00     1120.00
03989             240.00     1080.00
03990             240.00     1000.00
03991             200.00     1000.00
03992             200.00      960.00
03993             200.00      960.00
03994             160.00      920.00
03995             200.00      880.00
03996             200.00      840.00
03997             200.00      800.00
03998             200.00      800.00
03999             160.00      760.00
04000             200.00      720.00
04001             160.00      720.00
04002             200.00      680.00
04003             120.00      640.00
04004             120.00      600.00
04005             120.00      560.00
04006             120.00      520.00
04007             120.00      520.00
04008             120.00      480.00
04009              80.00      440.00
04010             120.00      440.00
04011              80.00      400.00
04012              80.00      400.00
04013              80.00      360.00
04014              80.00      280.00
04015              80.00      280.00
04016              80.00      240.00
04017              80.00      240.00
04018              80.00      160.00
04019              80.00      160.00
04020              40.00       80.00
04021              40.00       80.00
04022               0.00       40.00
04023              40.00        0.00
04024              40.00        0.00
04025              40.00      -40.00
04026               0.00      -40.00
04027              40.00     -120.00
04028             -40.00     -160.00
04029             -40.00     -160.00
04030             -40.00     -200.00
04031             -40.00     -240.00
04032             -40.00     -240.00
04033             -40.00     -280.00
04034               0.00     -320.00
04035             -40.00     -360.00
04036            -120.00     -480.00
04037            -120.00     -440.00
04038             -40.00     -400.00
04039             -40.00     -480.00
04040             -80.00     -520.00
04041             -80.00     -520.00
04042             -40.00     -560.00
04043             -80.00     -640.00
04044            -120.00     -680.00
04045             -80.00     -640.00
04046             -80.00     -680.00
04047            -120.00     -720.00
04048            -120.00     -720.00
04049            -120.00     -800.00
04050            -120.00     -840.00
04051            -120.00     -880.00
04052            -120.00     -880.00
04053            -120.00     -920.00
04054            -160.00     -960.00
04055            -160.00    -1000.00
04056            -120.00    -1000.00
04057            -160.00    -1040.00
04058            -200.00    -1080.00
04059            -200.00    -1120.00
04060            -120.00    -1200.00
04061            -200.00    -1160.00
04062            -200.00    -1200.00
04063            -200.00    -1240.00
04064            -200.00    -1280.00
04065            -200.00    -1280.00
04066            -200.00    -1320.00
04067            -240.00    -1360.00
04068            -200.00    -1360.00
04069            -200.00    -1400.00
04070            -240.00    -1440.00
04071            -240.00    -1440.00
04072            -240.00    -1480.00
04073            -200.00    -1520.00
04074            -240.00    -1560.00
04075            -280.00    -1600.00
04076            -240.00    -1640.00
04077            -240.00    -1680.00
04078            -240.00    -1680.00
04079            -280.00    -1680.00
04080            -280.00    -1760.00
04081            -280.00    -1800.00
04082            -280.00    -1840.00
04083            -280.00    -1800.00
04084            -280.00    -1880.00
04085            -280.00    -1920.00
04086            -320.00    -1920.00
04087            -360.00    -1960.00
04088            -280.00    -2000.00
04089            -360.00    -2000.00
04090            -360.00    -2040.00
04091            -360.00    -2080.00
04092            -400.00    -2120.00
04093            -360.00    -2160.00
04094            -400.00    -2160.00
04095            -400.00    -2160.00
04096            -400.00    -2240.00
04097            -400.00    -2240.00
04098            -360.00    -2280.00
04099            -400.00    -2320.00
04100            -440.00    -2320.00
04101            -400.00    -2360.00
04102            -400.00    -2400.00
04103            -440.00    -2400.00
04104            -400.00    -2440.00
04105            -440.00    -2480.00
04106            -400.00    -2480.00
04107            -440.00    -2520.00
04108            -440.00    -2560.00
04109            -440.00    -2600.00
04110            -440.00    -2600.00
04111            -440.00    -2640.00
04112            -440.00    -2640.00
04113            -440.00    -2680.00
04114            -440.00    -2720.00
04115            -440.00    -2720.00
04116            -520.00    -2760.00
04117            -440.00    -2800.00
04118            -480.00    -2840.00
04119            -440.00    -2840.00
04120            -520.00    -2880.00
04121            -520.00    -2920.00
04122            -480.00    -2960.00
04123            -520.00    -2960.00
04124            -440.00    -2960.00
04125            -520.00    -2960.00
04126            -520.00    -3040.00
04127            -520.00    -3080.00
04128            -520.00    -3080.00
04129            -520.00    -3080.00
04130            -520.00    -3120.00
04131            -560.00    -3160.00
04132            -560.00    -3200.00
04133            -560.00    -3200.00
04134            -560.00    -3240.00
04135            -560.00    -3240.00
04136            -560.00    -3280.00
04137            -560.00    -3280.00
04138            -560.00    -3320.00
04139            -560.00    -3360.00
04140            -560.00    -3360.00
04141            -560.00    -3360.00
04142            -560.00    -3400.00
04143            -560.00    -3440.00
04144            -600.00    -3480.00
04145            -600.00    -3480.00
04146            -600.00    -3520.00
04147            -600.00    -3480.00
04148            -600.00    -3560.00
04149            -600.00    -3600.00
04150            -600.00    -3600.00
04151            -640.00    -3640.00
04152            -600.00    -3640.00
04153            -680.00    -3680.00
04154            -600.00    -3680.00
04155            -680.00    -3720.00
04156            -680.00    -3760.00
04157            -680.00    -3720.00
04158            -680.00    -3760.00
04159            -680.00    -3840.00
04160            -680.00    -3840.00
04161            -600.00    -3840.00
04162            -680.00    -3840.00
04163            -680.00    -3880.00
04164            -720.00    -3920.00
04165            -680.00    -3920.00
04166            -680.00    -3960.00
04167            -680.00    -3960.00
04168            -720.00    -4000.00
04169            -680.00    -4000.00
04170            -680.00    -4040.00
04171            -720.00    -4040.00
04172            -720.00    -4040.00
04173            -720.00    -4080.00
04174            -720.00    -4080.00
04175            -720.00    -4120.00
04176            -720.00    -4160.00
04177            -720.00    -4160.00
04178            -720.00    -4160.00
04179            -720.00    -4200.00
04180            -720.00    -4240.00
04181            -720.00    -4200.00
04182            -720.00    -4240.00
04183            -720.00    -4280.00
04184            -760.00    -4240.00
04185            -720.00    -4320.00
04186            -760.00    -4320.00
04187            -760.00    -4320.00
04188            -760.00    -4360.00
04189            -760.00    -4360.00
04190            -760.00    -4360.00
04191            -760.00    -4360.00
04192            -760.00    -4400.00
04193            -760.00    -4400.00
04194            -760.00    -4400.00
04195            -760.00    -4440.00
04196            -760.00    -4480.00
04197            -760.00    -4480.00
04198            -760.00    -4480.00
04199            -760.00    -4520.00
04200            -760.00    -4520.00
04201            -760.00    -4520.00
04202            -760.00    -4560.00
04203            -760.00    -4560.00
04204            -800.00    -4560.00
04205            -760.00    -4560.00
04206            -760.00    -4600.00
04207            -800.00    -4640.00
04208            -840.00    -4640.00
04209            -800.00    -4680.00
04210            -760.00    -4640.00
04211            -760.00    -4640.00
04212            -840.00    -4680.00
04213            -800.00    -4720.00
04214            -840.00    -4720.00
04215            -840.00    -4720.00
04216            -840.00    -4720.00
04217            -840.00    -4720.00
04218            -840.00    -4720.00
04219            -880.00    -4760.00
04220            -880.00    -4800.00
04221            -840.00    -4760.00
04222            -880.00    -4800.00
04223            -840.00    -4800.00
04224            -880.00    -4800.00
04225            -880.00    -4800.00
04226            -840.00    -4840.00
04227            -880.00    -4840.00
04228            -880.00    -4840.00
04229            -840.00    -4840.00
04230            -880.00    -4880.00
04231            -880.00    -4880.00
04232            -880.00    -4880.00
04233            -840.00    -4880.00
04234            -880.00    -4880.00
04235            -880.00    -4920.00
04236            -880.00    -4960.00
04237            -880.00    -4920.00
04238            -880.00    -4960.00
04239            -880.00    -4920.00
04240            -880.00    -4960.00
04241            -880.00    -4960.00
04242            -880.00    -4960.00
04243            -880.00    -4960.00
04244            -880.00    -4960.00
04245            -840.00    -5000.00
04246            -880.00    -5000.00
04247            -880.00    -5000.00
04248            -920.00    -4960.00
04249            -880.00    -5000.00
04250            -880.00    -5000.00
04251            -880.00    -5000.00
04252            -880.00    -5000.00
04253            -880.00    -5000.00
04254            -880.00    -5000.00
04255            -880.00    -5000.00
04256            -880.00    -5000.00
04257            -880.00    -5000.00
04258            -880.00    -5000.00
04259            -880.00    -5000.00
04260            -880.00    -5000.00
04261            -880.00    -5000.00
04262            -880.00    -5000.00
04263            -880.00    -5000.00
04264            -880.00    -5000.00
04265            -880.00    -5000.00
04266            -880.00    -5000.00
04267            -880.00    -5000.00
04268            -880.00    -5000.00
04269            -880.00    -5000.00
04270            -880.00    -5000.00
04271            -880.00    -5000.00
04272            -880.00    -5000.00
04273            -880.00    -5000.00
04274            -880.00    -5000.00
04275            -880.00    -5000.00
04276            -880.00    -5000.00
04277            -920.00    -5000.00
04278            -880.00    -5000.00
04279            -880.00    -5000.00
04280            -880.00    -5000.00
04281            -920.00    -5000.00
04282            -880.00    -5000.00
04283            -920.00    -5000.00
04284            -880.00    -5000.00
04285            -880.00    -5000.00
04286            -920.00    -5000.00
04287            -880.00    -5000.00
04288            -880.00    -5000.00
04289            -880.00    -5000.00
04290            -920.00    -5000.00
04291            -920.00    -5000.00
04292            -880.00    -5000.00
04293            -880.00    -5000.00
04294            -880.00    -5000.00
04295            -920.00    -5000.00
04296            -880.00    -5000.00
04297            -880.00    -5000.00
04298            -880.00    -5000.00
04299            -880.00    -5000.00
04300            -920.00    -5000.00
04301            -880.00    -5000.00
04302            -920.00    -5000.00
04303            -880.00    -5000.00
04304            -880.00    -5000.00
04305            -880.00    -5000.00
04306            -880.00    -5000.00
04307            -880.00    -5000.00
04308            -880.00    -4960.00
04309            -880.00    -4960.00
04310            -880.00    -4960.00
04311            -880.00    -4960.00
04312            -880.00    -4960.00
04313            -880.00    -4960.00
04314            -880.00    -4960.00
04315            -880.00    -4960.00
04316            -880.00    -4960.00
04317            -880.00    -4880.00
04318            -880.00    -4920.00
04319            -880.00    -4880.00
04320            -880.00    -4880.00
04321            -840.00    -4880.00
04322            -880.00    -4880.00
04323            -880.00    -4880.00
04324            -880.00    -4880.00
04325            -880.00    -4840.00
04326            -880.00    -4840.00
04327            -840.00    -4840.00
04328            -880.00    -4800.00
04329            -840.00    -4760.00
04330            -840.00    -4800.00
04331            -840.00    -4760.00
04332            -840.00    -4760.00
04333            -840.00    -4760.00
04334            -880.00    -4720.00
04335            -840.00    -4720.00
04336            -840.00    -4720.00
04337            -840.00    -4680.00
04338            -840.00    -4720.00
04339            -760.00    -4720.00
04340            -840.00    -4680.00
04341            -840.00    -4680.00
04342            -840.00    -4640.00
04343            -840.00    -4680.00
04344            -760.00    -4640.00
04345            -840.00    -4640.00
04346            -840.00    -4640.00
04347            -840.00    -4560.00
04348            -840.00    -4560.00
04349            -840.00    -4560.00
04350            -840.00    -4560.00
04351            -880.00    -4560.00
04352            -840.00    -4520.00
04353            -840.00    -4520.00
04354            -840.00    -4480.00
04355            -840.00    -4480.00
04356            -760.00    -4480.00
04357            -800.00    -4480.00
04358            -800.00    -4480.00
04359            -840.00    -4440.00
04360            -840.00    -4400.00
04361            -760.00    -4400.00
04362            -760.00    -4360.00
04363            -800.00    -4360.00
04364            -760.00    -4360.00
04365            -760.00    -4320.00
04366            -800.00    -4320.00
04367            -760.00    -4320.00
04368            -760.00    -4320.00
04369            -760.00    -4280.00
04370            -760.00    -4240.00
04371            -760.00    -4240.00
04372            -760.00    -4200.00
04373            -760.00    -4200.00
04374            -760.00    -4200.00
04375            -760.00    -4160.00
04376            -760.00    -4160.00
04377            -720.00    -4160.00
04378            -760.00    -4080.00
04379            -720.00    -4080.00
04380            -760.00    -4080.00
04381            -720.00    -4040.00
04382            -720.00    -4000.00
04383            -720.00    -4040.00
04384            -720.00    -4040.00
04385            -720.00    -4000.00
04386            -720.00    -3960.00
04387            -720.00    -3920.00
04388            -720.00    -3920.00
04389            -720.00    -3920.00
04390            -720.00    -3880.00
04391            -680.00    -3840.00
04392            -680.00    -3840.00
04393            -680.00    -3840.00
04394            -680.00    -3800.00
04395            -680.00    -3800.00
04396            -680.00    -3760.00
04397            -680.00    -3760.00
04398            -680.00    -3720.00
04399            -640.00    -3680.00
04400            -680.00    -3680.00
04401            -600.00    -3680.00
04402            -680.00    -3640.00
04403            -680.00    -3600.00
04404            -680.00    -3560.00
04405            -640.00    -3560.00
04406            -600.00    -3520.00
04407            -600.00    -3480.00
04408            -640.00    -3480.00
04409            -600.00    -3440.00
04410            -600.00    -3440.00
04411            -600.00    -3440.00
04412            -600.00    -3400.00
04413            -640.00    -3400.00
04414            -600.00    -3360.00
04415            -600.00    -3360.00
04416            -600.00    -3360.00
04417            -600.00    -3280.00
04418            -560.00    -3280.00
04419            -600.00    -3240.00
04420            -600.00    -3200.00
04421            -560.00    -3200.00
04422            -560.00    -3200.00
04423            -560.00    -3120.00
04424            -600.00    -3120.00
04425            -560.00    -3080.00
04426            -560.00    -3080.00
04427            -560.00    -3040.00
04428            -560.00    -3040.00
04429            -560.00    -2960.00
04430            -560.00    -2960.00
04431            -520.00    -2960.00
04432            -560.00    -2920.00
04433            -560.00    -2880.00
04434            -560.00    -2880.00
04435            -520.00    -2840.00
04436            -520.00    -2800.00
04437            -520.00    -2800.00
04438            -520.00    -2760.00
04439            -520.00    -2720.00
04440            -520.00    -2720.00
04441            -520.00    -2640.00
04442            -440.00    -2680.00
04443            -480.00    -2640.00
04444            -480.00    -2600.00
04445            -480.00    -2560.00
04446            -440.00    -2560.00
04447            -440.00    -2560.00
04448            -480.00    -2480.00
04449            -440.00    -2480.00
04450            -440.00    -2440.00
04451            -440.00    -2400.00
04452            -400.00    -2400.00
04453            -440.00    -2400.00
04454            -440.00    -2320.00
04455            -440.00    -2320.00
04456            -440.00    -2280.00
04457            -400.00    -2240.00
04458            -440.00    -2200.00
04459            -400.00    -2200.00
04460            -360.00    -2160.00
04461            -400.00    -2120.00
04462            -400.00    -2080.00
04463            -400.00    -2080.00
04464            -360.00    -2040.00
04465            -400.00    -2000.00
04466            -400.00    -1960.00
04467            -360.00    -1960.00
04468            -360.00    -1960.00
04469            -360.00    -1920.00
04470            -360.00    -1840.00
04471            -360.00    -1840.00
04472            -360.00    -1800.00
04473            -280.00    -1800.00
04474            -360.00    -1760.00
04475            -360.00    -1760.00
04476            -360.00    -1720.00
04477            -320.00    -1680.00
04478            -320.00    -1640.00
04479            -280.00    -1600.00
04480            -320.00    -1600.00
04481            -280.00    -1520.00
04482            -280.00    -1520.00
04483            -320.00    -1480.00
04484            -280.00    -1440.00
04485            -240.00    -1440.00
04486            -280.00    -1400.00
04487            -280.00    -1360.00
04488            -240.00    -1360.00
04489            -280.00    -1320.00
04490            -240.00    -1280.00
04491            -240.00    -1280.00
04492            -240.00    -1200.00
04493            -240.00    -1200.00
04494            -240.00    -1160.00
04495            -240.00    -1160.00
04496            -240.00    -1120.00
04497            -240.00    -1040.00
04498            -240.00    -1040.00
04499            -240.00    -1000.00
04500            -200.00     -920.00
04501            -240.00     -960.00
04502            -200.00     -920.00
04503            -200.00     -880.00
04504            -200.00     -880.00
04505            -200.00     -840.00
04506            -200.00     -800.00
04507            -120.00     -800.00
04508            -200.00     -720.00
04509            -120.00     -720.00
04510            -160.00     -680.00
04511            -120.00     -680.00
04512            -120.00     -640.00
04513            -120.00     -560.00
04514            -120.00     -560.00
04515            -120.00     -520.00
04516            -120.00     -480.00
04517             -80.00     -480.00
04518             -40.00     -440.00
04519             -80.00     -400.00
04520            -120.00     -360.00
04521             -80.00     -360.00
04522             -80.00     -360.00
04523             -80.00     -320.00
04524             -80.00     -240.00
04525             -40.00     -240.00
04526             -40.00     -200.00
04527             -80.00     -160.00
04528             -40.00     -120.00
04529             -40.00      -80.00
04530             -40.00      -80.00
04531             -40.00        0.00
04532              40.00        0.00
04533             -40.00        0.00
04534              40.00       80.00
04535             -40.00       80.00
04536               0.00      120.00
04537               0.00      160.00
04538              40.00      240.00
04539              40.00      160.00
04540              40.00      280.00
04541              40.00      320.00
04542              80.00      360.00
04543              40.00      360.00
04544             -40.00      320.00
04545               0.00      400.00
04546              80.00      440.00
04547              80.00      480.00
04548              40.00      520.00
04549              80.00      560.00
04550              80.00      560.00
04551              80.00      560.00
04552              40.00      600.00
04553              80.00      720.00
04554             120.00      720.00
04555              80.00      720.00
04556              80.00      720.00
04557             120.00      800.00
04558              80.00      800.00
04559              80.00      880.00
04560             120.00      880.00
04561             120.00      880.00
04562              80.00      920.00
04563             120.00      960.00
04564             160.00     1040.00
04565             120.00     1040.00
04566             120.00     1080.00
04567             160.00     1120.00
04568             200.00     1120.00
04569             200.00     1160.00
04570             200.00     1200.00
04571             200.00     1240.00
04572             200.00     1240.00
04573             240.00     1280.00
04574             240.00     1320.00
04575             200.00     1360.00
04576             240.00     1360.00
04577             240.00     1400.00
04578             200.00     1440.00
04579             240.00     1440.00
04580             200.00     1560.00
04581             240.00     1520.00
04582             280.00     1560.00
04583             280.00     1600.00
04584             280.00     1640.00
04585             280.00     1680.00
04586             280.00     1680.00
04587             280.00     1720.00
04588             280.00     1720.00
04589             280.00     1760.00
04590             240.00     1800.00
04591             280.00     1840.00
04592             360.00     1880.00
04593             280.00     1920.00
04594             360.00     1920.00
04595             280.00     1960.00
04596             360.00     2000.00
04597             360.00     2000.00
04598             360.00     2040.00
04599             360.00     2080.00
04600             360.00     2080.00
04601             360.00     2120.00
04602             360.00     2160.00
04603             360.00     2160.00
04604             360.00     2200.00
04605             360.00     2240.00
04606             400.00     2280.00
04607             360.00     2320.00
04608             400.00     2320.00
04609             400.00     2360.00
04610             400.00     2400.00
04611             400.00     2400.00
04612             400.00     2480.00
04613             400.00     2480.00
04614             400.00     2480.00
04615             400.00     2520.00
04616             400.00     2560.00
04617             400.00     2560.00
04618             440.00     2600.00
04619             400.00     2640.00
04620             440.00     2680.00
04621             440.00     2680.00
04622             440.00     2720.00
04623             440.00     2720.00
04624             440.00     2760.00
04625             440.00     2800.00
04626             440.00     2800.00
04627             520.00     2880.00
04628             440.00     2880.00
04629             480.00     2920.00
04630             440.00     2920.00
04631             520.00     2960.00
04632             520.00     2960.00
04633             520.00     3000.00
04634             520.00     3000.00
04635             480.00     3080.00
04636             520.00     3080.00
04637             520.00     3120.00
04638             520.00     3120.00
04639             560.00     3160.00
04640             520.00     3160.00
04641             560.00     3240.00
04642             560.00     3240.00
04643             520.00     3280.00
04644             560.00     3280.00
04645             560.00     3320.00
04646             560.00     3320.00
04647             560.00     3360.00
04648             560.00     3400.00
04649             560.00     3360.00
04650             560.00     3440.00
04651             600.00     3480.00
04652             600.00     3480.00
04653             560.00     3480.00
04654             600.00     3520.00
04655             600.00     3560.00
04656             600.00     3600.00
04657             600.00     3560.00
04658             600.00     3600.00
04659             600.00     3640.00
04660             680.00     3680.00
04661             640.00     3680.00
04662             600.00     3680.00
04663             600.00     3680.00
04664             680.00     3760.00
04665             680.00     3760.00
04666             680.00     3800.00
04667             640.00     3800.00
04668             680.00     3840.00
04669             680.00     3840.00
04670             680.00     3840.00
04671             680.00     3880.00
04672             680.00     3920.00
04673             680.00     3920.00
04674             680.00     3920.00
04675             680.00     3920.00
04676             680.00     3960.00
04677             680.00     4000.00
04678             680.00     4040.00
04679             680.00     4000.00
04680             680.00     4040.00
04681             720.00     4080.00
04682             680.00     4080.00
04683             720.00     4120.00
04684             680.00     4120.00
04685             720.00     4160.00
04686             720.00     4160.00
04687             680.00     4240.00
04688             720.00     4200.00
04689             720.00     4240.00
04690             720.00     4240.00
04691             720.00     4280.00
04692             720.00     4240.00
04693             720.00     4320.00
04694             720.00     4280.00
04695             720.00     4320.00
04696             720.00     4360.00
04697             720.00     4360.00
04698             720.00     4360.00
04699             760.00     4400.00
04700             760.00     4400.00
04701             760.00     4440.00
04702             760.00     4440.00
04703             760.00     4440.00
04704             760.00     4480.00
04705             760.00     4440.00
04706             720.00     4480.00
04707             800.00     4480.00
04708             760.00     4520.00
04709             760.00     4560.00
04710             800.00     4560.00
04711             840.00     4560.00
04712             800.00     4600.00
04713             760.00     4600.00
04714             840.00     4600.00
04715             840.00     4640.00
04716             800.00     4640.00
04717             800.00     4640.00
04718             760.00     4640.00
04719             840.00     4640.00
04720             840.00     4720.00
04721             840.00     4720.00
04722             840.00     4720.00
04723             840.00     4680.00
04724             840.00     4720.00
04725             840.00     4720.00
04726             840.00     4760.00
04727             800.00     4760.00
04728             840.00     4800.00
04729             840.00     4760.00
04730             840.00     4800.00
04731             840.00     4800.00
04732             840.00     4800.00
04733             880.00     4800.00
04734             840.00     4880.00
04735             840.00     4840.00
04736             880.00     4840.00
04737             840.00     4880.00
04738             840.00     4880.00
04739             840.00     4880.00
04740             840.00     4880.00
04741             840.00     4880.00
04742             880.00     4880.00
04743             840.00     4920.00
04744             840.00     4920.00
04745             840.00     4920.00
04746             840.00     4960.00
04747             840.00     4920.00
04748             840.00     4920.00
04749             880.00     4960.00
04750             880.00     4960.00
04751             840.00     4960.00
04752             880.00     4920.00
04753             840.00     4960.00
04754             880.00     4960.00
04755             880.00     4960.00
04756             840.00     4960.00
04757             880.00     5000.00
04758             880.00     5000.00
04759             840.00     4960.00
04760             880.00     5000.00
04761             880.00     5000.00
04762             880.00     5000.00
04763             840.00     5000.00
04764             880.00     5000.00
04765             880.00     5000.00
04766             880.00     5000.00
04767             880.00     5000.00
04768             880.00     5000.00
04769             880.00     5000.00
04770             880.00     5000.00
04771             880.00     5000.00
04772             880.00     5000.00
04773             880.00     5000.00
04774             880.00     5000.00
04775             880.00     5000.00
04776             880.00     5000.00
04777             880.00     5000.00
04778             880.00     5000.00
04779             880.00     5000.00
04780             880.00     5000.00
04781             880.00     5000.00
04782             880.00     5000.00
04783             920.00     5000.00
04784             880.00     5000.00
04785             880.00     5000.00
04786             880.00     5000.00
04787             880.00     5000.00
04788             880.00     5000.00
04789             880.00     5000.00
04790             880.00     5000.00
04791             880.00     5000.00
04792             880.00     5000.00
04793             920.00     5000.00
04794             880.00     5000.00
04795             880.00     5000.00
04796             920.00     5000.00
04797             880.00     5000.00
04798             880.00     5000.00
04799             920.00     5000.00
04800             880.00     5000.00
04801             880.00     5000.00
04802             880.00     5000.00
04803             880.00     5000.00
04804             880.00     5000.00
04805             880.00     5000.00
04806             880.00     5000.00
04807             880.00     5000.00
04808             880.00     5000.00
04809             840.00     5000.00
04810             880.00     5000.00
04811             880.00     5000.00
04812             880.00     5000.00
04813             840.00     4960.00
04814             880.00     4960.00
04815             880.00     4960.00
04816             880.00     4960.00
04817             880.00     4960.00
04818             840.00     4960.00
04819             880.00     4960.00
04820             840.00     4960.00
04821             840.00     4920.00
04822             880.00     4960.00
04823             880.00     4920.00
04824             840.00     4960.00
04825             880.00     4880.00
04826             840.00     4920.00
04827             840.00     4920.00
04828             880.00     4880.00
04829             840.00     4880.00
04830             880.00     4920.00
04831             880.00     4880.00
04832             840.00     4880.00
04833             880.00     4880.00
04834             880.00     4880.00
04835             840.00     4840.00
04836             840.00     4800.00
04837             840.00     4800.00
04838             840.00     4800.00
04839             880.00     4760.00
04840             840.00     4800.00
04841             840.00     4760.00
04842             840.00     4760.00
04843             880.00     4760.00
04844             840.00     4720.00
04845             880.00     4720.00
04846             840.00     4760.00
04847             840.00     4680.00
04848             840.00     4720.00
04849             840.00     4720.00
04850             840.00     4680.00
04851             840.00     4640.00
04852             840.00     4680.00
04853             800.00     4640.00
04854             840.00     4640.00
04855             840.00     4600.00
04856             840.00     4600.00
04857             840.00     4560.00
04858             840.00     4560.00
04859             840.00     4560.00
04860             840.00     4560.00
04861             840.00     4560.00
04862             840.00     4520.00
04863             840.00     4480.00
04864             800.00     4480.00
04865             760.00     4480.00
04866             800.00     4440.00
04867             800.00     4440.00
04868             800.00     4440.00
04869             760.00     4400.00
04870             800.00     4440.00
04871             720.00     4400.00
04872             760.00     4400.00
04873             760.00     4320.00
04874             760.00     4320.00
04875             760.00     4320.00
04876             720.00     4320.00
04877             720.00     4280.00
04878             720.00     4280.00
04879             760.00     4240.00
04880             760.00     4240.00
04881             760.00     4240.00
04882             720.00     4160.00
04883             720.00     4200.00
04884             720.00     4160.00
04885             720.00     4160.00
04886             720.00     4120.00
04887             720.00     4120.00
04888             720.00     4080.00
04889             720.00     4080.00
04890             720.00     4080.00
04891             720.00     4040.00
04892             720.00     4000.00
04893             720.00     4000.00
04894             720.00     3960.00
04895             720.00     3960.00
04896             720.00     3960.00
04897             720.00     3920.00
04898             720.00     3920.00
04899             720.00     3880.00
04900             720.00     3840.00
04901             720.00     3840.00
04902             680.00     3840.00
04903             720.00     3760.00
04904             680.00     3800.00
04905             680.00     3760.00
04906             680.00     3760.00
04907             680.00     3720.00
04908             680.00     3680.00
04909             680.00     3680.00
04910             680.00     3640.00
04911             680.00     3640.00
04912             680.00     3600.00
04913             680.00     3560.00
04914             680.00     3560.00
04915             680.00     3520.00
04916             600.00     3480.00
04917             680.00     3520.00
04918             600.00     3480.00
04919             640.00     3440.00
04920             600.00     3400.00
04921             600.00     3360.00
04922             600.00     3360.00
04923             640.00     3360.00
04924             600.00     3320.00
04925             600.00     3280.00
04926             600.00     3280.00
04927             560.00     3280.00
04928             600.00     3200.00
04929             600.00     3200.00
04930             560.00     3160.00
04931             560.00     3160.00
04932             600.00     3120.00
04933             560.00     3120.00
04934             560.00     3080.00
04935             520.00     3040.00
04936             560.00     3000.00
04937             520.00     3040.00
04938             520.00     2960.00
04939             520.00     2960.00
04940             520.00     2920.00
04941             520.00     2880.00
04942             520.00     2880.00
04943             520.00     2840.00
04944             520.00     2840.00
04945             520.00     2800.00
04946             520.00     2800.00
04947             520.00     2760.00
04948             520.00     2720.00
04949             520.00     2680.00
04950             520.00     2680.00
04951             520.00     2640.00
04952             440.00     2600.00
04953             440.00     2560.00
04954             480.00     2560.00
04955             440.00     2560.00
04956             440.00     2520.00
04957             440.00     2480.00
04958             480.00     2480.00
04959             400.00     2400.00
04960             440.00     2400.00
04961             440.00     2400.00
04962             440.00     2360.00
04963             440.00     2320.00
04964             440.00     2280.00
04965             400.00     2280.00
04966             440.00     2240.00
04967             400.00     2200.00
04968             400.00     2200.00
04969             400.00     2160.00
04970             400.00     2120.00
04971             400.00     2120.00
04972             400.00     2080.00
04973             400.00     2040.00
04974             400.00     2000.00
04975             400.00     2000.00
04976             360.00     1920.00
04977             400.00     1920.00
04978             360.00     1880.00
04979             400.00     1840.00
04980             360.00     1880.00
04981             360.00     1840.00
04982             360.00     1760.00
04983             280.00     1760.00
04984             360.00     1720.00
04985             280.00     1680.00
04986             360.00     1680.00
04987             280.00     1600.00
04988             280.00     1600.00
04989             360.00     1600.00
04990             280.00     1560.00
04991             280.00     1560.00
04992             280.00     1480.00
04993             320.00     1440.00
04994             240.00     1400.00
04995             280.00     1400.00
04996             240.00     1400.00
04997             240.00     1360.00
04998             240.00     1320.00
04999             240.00     1280.00
05000             240.00     1240.00
