Unit:(mV)
                     CH1         CH2
Frequency              ?           ?
00001              -8.00    -2800.00
00002             -10.00    -2600.00
00003              -2.00    -2800.00
00004               8.00    -2400.00
00005               2.00    -2400.00
00006              -6.00    -2400.00
00007             -10.00    -2400.00
00008              -6.00    -2200.00
00009               8.00    -2000.00
00010               8.00    -2200.00
00011              -2.00    -2000.00
00012             -14.00    -2000.00
00013              -8.00    -2000.00
00014               2.00    -2000.00
00015               8.00    -2000.00
00016               0.00    -1800.00
00017             -10.00    -1600.00
00018              -8.00    -1600.00
00019               0.00    -1600.00
00020               6.00    -1600.00
00021               0.00    -1400.00
00022              -6.00    -1200.00
00023              -6.00    -1400.00
00024              -2.00    -1200.00
00025               0.00    -1000.00
00026               0.00    -1200.00
00027               0.00    -1000.00
00028              -6.00    -1000.00
00029              -8.00     -800.00
00030              -2.00     -800.00
00031               0.00     -800.00
00032               2.00     -800.00
00033               0.00     -600.00
00034              -4.00     -600.00
00035              -4.00     -600.00
00036              -2.00     -400.00
00037               0.00     -400.00
00038               2.00     -400.00
00039               0.00     -400.00
00040              -4.00     -200.00
00041              -6.00        0.00
00042              -6.00        0.00
00043              -2.00        0.00
00044               0.00      200.00
00045               0.00      200.00
00046               0.00      200.00
00047               0.00      200.00
00048              -2.00      400.00
00049               2.00      400.00
00050              10.00      400.00
00051               6.00      400.00
00052              -6.00      400.00
00053             -10.00      600.00
00054              -2.00      600.00
00055              32.00      800.00
00056             168.00     1000.00
00057              96.00     1000.00
00058            -254.00      800.00
00059            -254.00      800.00
00060             246.00     1200.00
00061             246.00     1200.00
00062            -254.00     1000.00
00063            -254.00     1000.00
00064             246.00     1600.00
00065             246.00     1600.00
00066            -254.00     1200.00
00067            -254.00     1600.00
00068             246.00     1800.00
00069             234.00     1600.00
00070            -206.00     1600.00
00071              -4.00     2000.00
00072             -34.00     1800.00
00073            -102.00     1600.00
00074             206.00     2000.00
00075              78.00     1800.00
00076            -254.00     2000.00
00077              42.00     2200.00
00078             102.00     2000.00
00079             -74.00     2200.00
00080              78.00     2400.00
00081             -50.00     2200.00
00082            -144.00     2400.00
00083             194.00     2600.00
00084              26.00     2600.00
00085            -230.00     2800.00
00086             102.00     2800.00
00087              96.00     2800.00
00088            -120.00     2800.00
00089              46.00     3200.00
00090              -6.00     2800.00
00091             -66.00     2800.00
00092              80.00     3200.00
00093             -32.00     3000.00
00094             -50.00     3200.00
00095              58.00     3200.00
00096             -34.00     3200.00
00097              -2.00     3400.00
00098              40.00     3200.00
00099             -72.00     3400.00
00100               2.00     3400.00
00101              54.00     3400.00
00102             -34.00     3400.00
00103              -8.00     3600.00
00104              18.00     3600.00
00105             -22.00     3400.00
00106             -10.00     3600.00
00107             -14.00     3600.00
00108               8.00     3600.00
00109              26.00     4000.00
00110             -22.00     3800.00
00111             -18.00     3600.00
00112              14.00     3800.00
00113             -16.00     4000.00
00114             -12.00     4000.00
00115              16.00     4000.00
00116              -6.00     4000.00
00117             -14.00     4000.00
00118               6.00     4200.00
00119              -2.00     4000.00
00120             -14.00     4000.00
00121              -6.00     4000.00
00122               0.00     4000.00
00123               6.00     4000.00
00124              -6.00     4200.00
00125             -16.00     4200.00
00126               2.00     4000.00
00127              -8.00     4200.00
00128             -22.00     4200.00
00129               6.00     4400.00
00130               8.00     4200.00
00131             -10.00     4200.00
00132             -10.00     4400.00
00133             -14.00     4400.00
00134              -8.00     4400.00
00135               8.00     4200.00
00136               4.00     4400.00
00137              -4.00     4400.00
00138             -12.00     4200.00
00139             -16.00     4400.00
00140              -2.00     4200.00
00141               0.00     4400.00
00142             -14.00     4200.00
00143             -10.00     4400.00
00144               2.00     4400.00
00145              -2.00     4400.00
00146              -6.00     4400.00
00147             -10.00     4400.00
00148             -16.00     4200.00
00149              -6.00     4200.00
00150               6.00     4400.00
00151               0.00     4200.00
00152             -14.00     4200.00
00153             -12.00     4200.00
00154              -2.00     4200.00
00155               2.00     4200.00
00156              -2.00     4200.00
00157              -8.00     4200.00
00158              -6.00     4200.00
00159             -10.00     4200.00
00160              -6.00     4000.00
00161               0.00     4000.00
00162              -2.00     4200.00
00163             -10.00     4000.00
00164              -6.00     4000.00
00165               0.00     4000.00
00166              -6.00     4000.00
00167             -10.00     4000.00
00168              -8.00     4000.00
00169               0.00     4000.00
00170               0.00     4000.00
00171              -4.00     4000.00
00172              -8.00     4000.00
00173             -12.00     3800.00
00174              -6.00     3600.00
00175               2.00     3800.00
00176               4.00     3600.00
00177              -6.00     3600.00
00178             -10.00     3600.00
00179             -10.00     3600.00
00180              -8.00     3600.00
00181               0.00     3600.00
00182               2.00     3400.00
00183              -2.00     3400.00
00184              -6.00     3400.00
00185             -10.00     3400.00
00186              -8.00     3200.00
00187              -6.00     3200.00
00188              -2.00     3200.00
00189               2.00     3400.00
00190               0.00     3200.00
00191              -8.00     3000.00
00192             -10.00     3200.00
00193             -10.00     2800.00
00194              -6.00     3000.00
00195              -6.00     2800.00
00196               0.00     2800.00
00197              -2.00     2800.00
00198              -8.00     2600.00
00199             -10.00     2600.00
00200              -2.00     2600.00
00201              -2.00     2600.00
00202              -2.00     2400.00
00203              -6.00     2400.00
00204              -6.00     2400.00
00205              -4.00     2400.00
00206              -8.00     2200.00
00207              -8.00     2200.00
00208              -2.00     2200.00
00209              -2.00     2000.00
00210               0.00     2000.00
00211              -2.00     1800.00
00212              -6.00     1800.00
00213             -10.00     1800.00
00214              -6.00     1800.00
00215              -6.00     1600.00
00216              -2.00     1600.00
00217               0.00     1600.00
00218              -2.00     1600.00
00219              -6.00     1400.00
00220              -8.00     1200.00
00221              -8.00     1200.00
00222               2.00     1200.00
00223               0.00     1200.00
00224              -6.00     1200.00
00225             -10.00     1000.00
00226              -6.00     1000.00
00227              -6.00      800.00
00228              -2.00     1000.00
00229               0.00      800.00
00230               0.00      800.00
00231              -6.00      600.00
00232              -8.00      400.00
00233              -2.00      600.00
00234               0.00      400.00
00235              -2.00      400.00
00236              -8.00      400.00
00237              -8.00      200.00
00238               2.00      200.00
00239               6.00      200.00
00240               2.00      200.00
00241               4.00        0.00
00242               2.00        0.00
00243              -4.00        0.00
00244              -8.00     -400.00
00245               0.00     -400.00
00246               8.00     -400.00
00247              38.00     -400.00
00248             146.00     -400.00
00249              66.00     -800.00
00250            -254.00     -800.00
00251            -254.00     -600.00
00252             246.00     -600.00
00253             246.00     -800.00
00254            -234.00    -1200.00
00255            -254.00     -800.00
00256             150.00    -1000.00
00257             246.00    -1200.00
00258            -158.00    -1200.00
00259            -254.00    -1000.00
00260              82.00    -1400.00
00261             246.00    -1200.00
00262              38.00    -1400.00
00263             -72.00    -1400.00
00264            -210.00    -1600.00
00265             -74.00    -1400.00
00266             246.00    -1800.00
00267             118.00    -1600.00
00268            -254.00    -1600.00
00269            -112.00    -2000.00
00270             194.00    -2000.00
00271              80.00    -2000.00
00272             -28.00    -2200.00
00273            -128.00    -2200.00
00274             -48.00    -2200.00
00275             154.00    -2200.00
00276              48.00    -2400.00
00277            -166.00    -2400.00
00278             -14.00    -2400.00
00279             112.00    -2400.00
00280               0.00    -2600.00
00281             -36.00    -2600.00
00282             -32.00    -2400.00
00283              -2.00    -2600.00
00284              42.00    -2800.00
00285              16.00    -2800.00
00286             -54.00    -2800.00
00287              -8.00    -2800.00
00288              34.00    -3000.00
00289              14.00    -3000.00
00290             -22.00    -3000.00
00291             -24.00    -3000.00
00292               8.00    -3000.00
00293              24.00    -3000.00
00294               0.00    -3200.00
00295             -26.00    -3000.00
00296               6.00    -3200.00
00297              22.00    -3200.00
00298             -12.00    -3400.00
00299             -18.00    -3200.00
00300               8.00    -3400.00
00301              12.00    -3400.00
00302               0.00    -3400.00
00303               0.00    -3600.00
00304              -8.00    -3600.00
00305              -2.00    -3600.00
00306               6.00    -3600.00
00307               6.00    -3600.00
00308              -4.00    -3600.00
00309              -2.00    -3600.00
00310               2.00    -3600.00
00311               8.00    -3800.00
00312              -6.00    -3600.00
00313             -10.00    -3800.00
00314               6.00    -3800.00
00315               8.00    -3800.00
00316              -2.00    -3800.00
00317              -2.00    -3800.00
00318               0.00    -4000.00
00319               0.00    -3800.00
00320               0.00    -4000.00
00321               0.00    -3800.00
00322               2.00    -4000.00
00323               0.00    -4000.00
00324              -2.00    -4000.00
00325              -2.00    -4000.00
00326               2.00    -4000.00
00327              -2.00    -4000.00
00328               2.00    -4000.00
00329               0.00    -4000.00
00330              -6.00    -4000.00
00331              -8.00    -4000.00
00332               0.00    -4000.00
00333               2.00    -4000.00
00334               2.00    -4000.00
00335               0.00    -4000.00
00336              -2.00    -4000.00
00337              -4.00    -4000.00
00338              -2.00    -4000.00
00339               0.00    -4000.00
00340               4.00    -4000.00
00341               0.00    -4000.00
00342              -2.00    -3800.00
00343               0.00    -4000.00
00344              -6.00    -4000.00
00345              -2.00    -3800.00
00346               2.00    -4000.00
00347               0.00    -4000.00
00348              -2.00    -3800.00
00349              -2.00    -4000.00
00350              -2.00    -3800.00
00351               0.00    -3800.00
00352               0.00    -3600.00
00353               0.00    -3600.00
00354               0.00    -3800.00
00355               0.00    -3600.00
00356              -2.00    -3800.00
00357               0.00    -3600.00
00358              -6.00    -3600.00
00359               0.00    -3600.00
00360               0.00    -3600.00
00361               6.00    -3600.00
00362              -2.00    -3600.00
00363               0.00    -3600.00
00364              -2.00    -3400.00
00365              -2.00    -3400.00
00366              -2.00    -3200.00
00367               2.00    -3200.00
00368               6.00    -3200.00
00369               0.00    -3200.00
00370              -2.00    -3200.00
00371              -2.00    -3000.00
00372               0.00    -3200.00
00373               2.00    -3000.00
00374               2.00    -3000.00
00375               2.00    -3000.00
00376               0.00    -3000.00
00377              -6.00    -3000.00
00378              -2.00    -3000.00
00379               0.00    -3000.00
00380               0.00    -2800.00
00381               2.00    -2800.00
00382               0.00    -2800.00
00383              -2.00    -2800.00
00384              -2.00    -2800.00
00385               0.00    -2800.00
00386               2.00    -2400.00
00387              -2.00    -2400.00
00388              -6.00    -2400.00
00389              -6.00    -2400.00
00390               0.00    -2400.00
00391               0.00    -2200.00
00392               0.00    -2200.00
00393               0.00    -2200.00
00394              -2.00    -2200.00
00395              -2.00    -2000.00
00396              -2.00    -2000.00
00397              -4.00    -2000.00
00398              -2.00    -2000.00
00399              -4.00    -2000.00
00400              -2.00    -1800.00
00401              -6.00    -1600.00
00402               0.00    -1600.00
00403               6.00    -1600.00
00404               0.00    -1600.00
00405             -10.00    -1400.00
00406              -8.00    -1400.00
00407              -2.00    -1400.00
00408               0.00    -1200.00
00409              -2.00    -1000.00
00410               0.00    -1000.00
00411              -2.00    -1200.00
00412              -6.00    -1000.00
00413              -8.00     -800.00
00414              -4.00     -800.00
00415              -8.00     -800.00
00416               8.00     -600.00
00417              14.00     -600.00
00418               0.00     -600.00
00419             -24.00     -400.00
00420             -18.00     -400.00
00421               6.00     -600.00
00422              22.00     -400.00
00423              -2.00     -400.00
00424             -18.00     -400.00
00425             -10.00     -200.00
00426               0.00        0.00
00427               6.00        0.00
00428              -2.00        0.00
00429              -6.00      200.00
00430               6.00      200.00
00431               6.00      400.00
00432               6.00      400.00
00433              12.00      400.00
00434              -2.00      400.00
00435             -14.00      600.00
00436              -8.00      800.00
00437               0.00      800.00
00438              34.00      800.00
00439             168.00     1000.00
00440             110.00     1000.00
00441            -254.00      800.00
00442            -254.00      800.00
00443             246.00     1200.00
00444             246.00     1400.00
00445            -254.00     1200.00
00446            -254.00     1000.00
00447             230.00     1600.00
00448             246.00     1600.00
00449            -254.00     1200.00
00450            -254.00     1600.00
00451             246.00     1800.00
00452             246.00     1600.00
00453            -198.00     1400.00
00454             -10.00     2000.00
00455             -10.00     1800.00
00456            -120.00     1800.00
00457             172.00     2000.00
00458             102.00     2000.00
00459            -254.00     2000.00
00460              30.00     2000.00
00461             128.00     2400.00
00462             -72.00     2200.00
00463              52.00     2400.00
00464             -48.00     2200.00
00465            -154.00     2400.00
00466             200.00     2600.00
00467              72.00     2600.00
00468            -242.00     2600.00
00469              72.00     2800.00
00470             112.00     2600.00
00471            -122.00     2800.00
00472              30.00     3000.00
00473               8.00     3000.00
00474             -66.00     2800.00
00475              80.00     3200.00
00476             -16.00     3000.00
00477             -70.00     3200.00
00478              50.00     3200.00
00479             -30.00     3000.00
00480              -2.00     3400.00
00481              58.00     3400.00
00482             -66.00     3200.00
00483             -22.00     3400.00
00484              46.00     3600.00
00485             -30.00     3200.00
00486               0.00     3400.00
00487              24.00     3600.00
00488             -26.00     3600.00
00489             -16.00     3600.00
00490              -6.00     3800.00
00491               8.00     3600.00
00492              22.00     3600.00
00493             -22.00     3600.00
00494             -22.00     3600.00
00495               8.00     4000.00
00496             -10.00     3800.00
00497              -2.00     4000.00
00498              20.00     4000.00
00499              -6.00     4000.00
00500             -28.00     4000.00
00501               0.00     4000.00
00502               2.00     4000.00
00503              -4.00     4000.00
00504               2.00     4000.00
00505              -2.00     4000.00
00506              -6.00     4000.00
00507             -10.00     4200.00
00508             -14.00     4200.00
00509              14.00     4200.00
00510               6.00     4200.00
00511             -16.00     4000.00
00512              -2.00     4200.00
00513               0.00     4200.00
00514             -10.00     4400.00
00515              -2.00     4200.00
00516               0.00     4200.00
00517              -8.00     4400.00
00518              -6.00     4400.00
00519              -4.00     4400.00
00520               0.00     4400.00
00521              -6.00     4200.00
00522             -14.00     4400.00
00523              -8.00     4200.00
00524               0.00     4400.00
00525              -6.00     4400.00
00526              -2.00     4200.00
00527               0.00     4400.00
00528              -6.00     4200.00
00529             -10.00     4200.00
00530              -8.00     4400.00
00531             -10.00     4200.00
00532              -2.00     4200.00
00533               4.00     4200.00
00534              -2.00     4200.00
00535             -16.00     4200.00
00536             -14.00     4400.00
00537              -6.00     4200.00
00538               0.00     4400.00
00539              -6.00     4200.00
00540              -4.00     4200.00
00541              -2.00     4200.00
00542             -12.00     4200.00
00543             -14.00     4200.00
00544              -2.00     4200.00
00545               2.00     4000.00
00546              -2.00     4200.00
00547              -6.00     4000.00
00548              -6.00     4000.00
00549              -6.00     4000.00
00550              -8.00     4000.00
00551              -6.00     4000.00
00552              -2.00     4000.00
00553              -2.00     4000.00
00554              -8.00     4000.00
00555              -2.00     3800.00
00556              -6.00     3800.00
00557              -8.00     3800.00
00558              -2.00     3600.00
00559               0.00     3600.00
00560              -6.00     3600.00
00561              -6.00     3600.00
00562              -6.00     3600.00
00563              -8.00     3400.00
00564              -4.00     3400.00
00565              -6.00     3600.00
00566              -4.00     3400.00
00567              -2.00     3400.00
00568              -8.00     3400.00
00569              -6.00     3200.00
00570               0.00     3200.00
00571              -6.00     3200.00
00572              -2.00     3200.00
00573              -2.00     3200.00
00574              -6.00     3200.00
00575              -6.00     3000.00
00576              -2.00     3200.00
00577              -6.00     2800.00
00578              -6.00     2800.00
00579              -6.00     2800.00
00580              -4.00     2600.00
00581              -2.00     2800.00
00582             -10.00     2600.00
00583              -6.00     2600.00
00584              -2.00     2600.00
00585              -6.00     2400.00
00586              -6.00     2400.00
00587              -6.00     2400.00
00588              -6.00     2200.00
00589              -6.00     2400.00
00590              -6.00     2400.00
00591              -2.00     2000.00
00592              -2.00     2000.00
00593              -6.00     2000.00
00594              -6.00     1800.00
00595              -6.00     1800.00
00596              -8.00     1800.00
00597              -6.00     1800.00
00598              -2.00     1800.00
00599              -2.00     1600.00
00600              -6.00     1400.00
00601              -6.00     1600.00
00602              -6.00     1400.00
00603              -8.00     1400.00
00604              -2.00     1200.00
00605              -2.00     1200.00
00606              -2.00     1200.00
00607              -8.00     1200.00
00608              -8.00     1000.00
00609              -2.00     1000.00
00610              -6.00     1000.00
00611              -6.00      800.00
00612               0.00      800.00
00613              -2.00      800.00
00614              -2.00      800.00
00615              -8.00      600.00
00616              -6.00      400.00
00617              -2.00      400.00
00618              -2.00      400.00
00619              -8.00      200.00
00620              -2.00      400.00
00621               0.00      200.00
00622               2.00      200.00
00623               0.00        0.00
00624               6.00     -200.00
00625               6.00        0.00
00626              -2.00        0.00
00627             -10.00     -200.00
00628              -4.00     -200.00
00629               6.00     -400.00
00630              38.00     -600.00
00631             140.00     -400.00
00632              86.00     -800.00
00633            -254.00     -800.00
00634            -254.00     -600.00
00635             246.00     -600.00
00636             246.00     -800.00
00637            -138.00    -1000.00
00638            -254.00     -800.00
00639              74.00    -1200.00
00640             246.00    -1000.00
00641             -88.00    -1200.00
00642            -254.00    -1000.00
00643              42.00    -1400.00
00644             246.00    -1400.00
00645              54.00    -1400.00
00646             -62.00    -1600.00
00647            -206.00    -1600.00
00648            -104.00    -1400.00
00649             246.00    -1800.00
00650             160.00    -1600.00
00651            -254.00    -1800.00
00652            -136.00    -2000.00
00653             186.00    -2000.00
00654              88.00    -2000.00
00655             -24.00    -2200.00
00656            -122.00    -2200.00
00657             -56.00    -2000.00
00658             152.00    -2400.00
00659              66.00    -2400.00
00660            -168.00    -2200.00
00661             -30.00    -2400.00
00662             114.00    -2400.00
00663               8.00    -2400.00
00664             -38.00    -2400.00
00665             -34.00    -2600.00
00666              -4.00    -2600.00
00667              42.00    -2800.00
00668              16.00    -2800.00
00669             -56.00    -2800.00
00670             -10.00    -2800.00
00671              34.00    -3000.00
00672              16.00    -2800.00
00673             -20.00    -3000.00
00674             -22.00    -3200.00
00675               6.00    -3000.00
00676              22.00    -3200.00
00677               0.00    -3200.00
00678             -26.00    -3000.00
00679               4.00    -3200.00
00680              22.00    -3200.00
00681             -10.00    -3200.00
00682             -22.00    -3200.00
00683              10.00    -3200.00
00684              14.00    -3400.00
00685               2.00    -3200.00
00686              -2.00    -3400.00
00687             -10.00    -3600.00
00688              -6.00    -3600.00
00689               6.00    -3600.00
00690               8.00    -3600.00
00691               0.00    -3600.00
00692              -6.00    -3600.00
00693              -2.00    -3600.00
00694               2.00    -3800.00
00695              -2.00    -3800.00
00696              -6.00    -3800.00
00697               8.00    -3800.00
00698               8.00    -3800.00
00699              -6.00    -3800.00
00700              -6.00    -3800.00
00701               2.00    -3800.00
00702               0.00    -3800.00
00703               0.00    -3800.00
00704               0.00    -3800.00
00705               4.00    -4000.00
00706               0.00    -4000.00
00707              -2.00    -3800.00
00708              -2.00    -3800.00
00709               2.00    -4000.00
00710               0.00    -3800.00
00711               6.00    -4000.00
00712               2.00    -4000.00
00713              -4.00    -4000.00
00714              -8.00    -4000.00
00715               0.00    -4000.00
00716               2.00    -4000.00
00717               0.00    -4000.00
00718               0.00    -4000.00
00719               0.00    -4000.00
00720              -2.00    -4000.00
00721              -2.00    -4000.00
00722              -2.00    -4000.00
00723               2.00    -4000.00
00724               0.00    -4000.00
00725               0.00    -4000.00
00726               0.00    -4000.00
00727              -6.00    -3800.00
00728              -6.00    -4000.00
00729               0.00    -3800.00
00730               2.00    -3800.00
00731               0.00    -3800.00
00732               0.00    -3800.00
00733              -6.00    -4000.00
00734              -6.00    -3800.00
00735              -2.00    -3800.00
00736               0.00    -3800.00
00737               2.00    -3800.00
00738               0.00    -3600.00
00739              -4.00    -3800.00
00740               0.00    -3600.00
00741               0.00    -3600.00
00742               2.00    -3600.00
00743               2.00    -3600.00
00744               0.00    -3600.00
00745               0.00    -3600.00
00746               0.00    -3600.00
00747              -2.00    -3400.00
00748              -2.00    -3400.00
00749              -2.00    -3400.00
00750               0.00    -3600.00
00751               2.00    -3400.00
00752               0.00    -3200.00
00753              -2.00    -3200.00
00754              -2.00    -3400.00
00755              -2.00    -3000.00
00756               0.00    -3000.00
00757               0.00    -3000.00
00758               6.00    -3000.00
00759               0.00    -3000.00
00760              -6.00    -3000.00
00761              -2.00    -3000.00
00762               0.00    -3000.00
00763              -2.00    -2800.00
00764              -4.00    -2800.00
00765               6.00    -2800.00
00766               0.00    -2800.00
00767              -6.00    -2800.00
00768              -6.00    -2800.00
00769               0.00    -2400.00
00770               2.00    -2400.00
00771               2.00    -2400.00
00772              -2.00    -2400.00
00773              -6.00    -2400.00
00774              -6.00    -2200.00
00775               6.00    -2200.00
00776               8.00    -2200.00
00777               2.00    -2200.00
00778             -10.00    -2000.00
00779             -16.00    -2200.00
00780              -6.00    -2000.00
00781               8.00    -2000.00
00782              10.00    -2000.00
00783              -2.00    -1800.00
00784             -10.00    -1600.00
00785             -10.00    -1600.00
00786              -2.00    -1600.00
00787               6.00    -1400.00
00788               2.00    -1400.00
00789              -6.00    -1400.00
00790             -14.00    -1400.00
00791             -14.00    -1000.00
00792               2.00    -1200.00
00793              18.00    -1000.00
00794              10.00    -1200.00
00795             -14.00    -1000.00
00796             -26.00    -1000.00
00797             -10.00     -800.00
00798              10.00     -800.00
00799              14.00     -800.00
00800               0.00     -600.00
00801             -10.00     -600.00
00802             -10.00     -600.00
00803              -2.00     -400.00
00804               4.00     -400.00
00805               2.00     -400.00
00806              -2.00     -200.00
00807              -6.00     -400.00
00808              -6.00     -200.00
00809              -2.00        0.00
00810              -2.00        0.00
00811              -2.00      200.00
00812               0.00      200.00
00813               2.00        0.00
00814              -2.00      400.00
00815               0.00      400.00
00816              10.00      400.00
00817               6.00      400.00
00818              -4.00      400.00
00819              -8.00      400.00
00820              -2.00      600.00
00821              24.00      800.00
00822             152.00      800.00
00823             134.00      800.00
00824            -254.00      800.00
00825            -254.00      800.00
00826             246.00     1200.00
00827             246.00     1200.00
00828            -174.00     1200.00
00829            -254.00     1000.00
00830             134.00     1600.00
00831             246.00     1600.00
00832            -230.00     1200.00
00833            -254.00     1600.00
00834             246.00     1800.00
00835             246.00     1600.00
00836            -184.00     1400.00
00837             -36.00     2000.00
00838              -2.00     1800.00
00839            -128.00     1800.00
00840             170.00     2000.00
00841             138.00     2000.00
00842            -254.00     2000.00
00843               0.00     2200.00
00844             128.00     2200.00
00845             -70.00     2000.00
00846              58.00     2400.00
00847             -18.00     2400.00
00848            -170.00     2400.00
00849             172.00     2600.00
00850              88.00     2600.00
00851            -242.00     2600.00
00852              56.00     2800.00
00853             132.00     2800.00
00854            -114.00     2600.00
00855              22.00     3000.00
00856              14.00     2800.00
00857             -80.00     2800.00
00858              78.00     3200.00
00859               2.00     3200.00
00860             -70.00     3000.00
00861              44.00     3200.00
00862             -30.00     3200.00
00863             -14.00     3200.00
00864              62.00     3400.00
00865             -58.00     3200.00
00866             -24.00     3400.00
00867              48.00     3600.00
00868             -32.00     3400.00
00869             -14.00     3400.00
00870              22.00     3600.00
00871             -24.00     3600.00
00872             -12.00     3400.00
00873              -2.00     3800.00
00874               6.00     3600.00
00875              18.00     3600.00
00876             -18.00     4000.00
00877             -18.00     3600.00
00878               8.00     3800.00
00879             -16.00     4000.00
00880             -14.00     3800.00
00881              16.00     4000.00
00882               6.00     4000.00
00883             -18.00     4000.00
00884              -2.00     4000.00
00885              -6.00     4000.00
00886             -10.00     4000.00
00887               6.00     4000.00
00888               6.00     4000.00
00889              -2.00     4000.00
00890             -14.00     4200.00
00891             -22.00     4200.00
00892               6.00     4200.00
00893               8.00     4400.00
00894             -14.00     4200.00
00895               2.00     4200.00
00896               4.00     4400.00
00897             -16.00     4200.00
00898             -10.00     4200.00
00899              -4.00     4400.00
00900              -8.00     4200.00
00901               2.00     4200.00
00902               0.00     4400.00
00903              -6.00     4400.00
00904             -10.00     4200.00
00905              -8.00     4400.00
00906               0.00     4400.00
00907               0.00     4200.00
00908             -12.00     4400.00
00909             -10.00     4400.00
00910               0.00     4400.00
00911              -4.00     4200.00
00912              -8.00     4200.00
00913              -8.00     4400.00
00914             -10.00     4200.00
00915              -6.00     4400.00
00916               2.00     4200.00
00917               0.00     4400.00
00918             -12.00     4200.00
00919             -14.00     4200.00
00920              -6.00     4200.00
00921              -2.00     4200.00
00922              -6.00     4200.00
00923              -4.00     4200.00
00924              -2.00     4200.00
00925             -10.00     4200.00
00926             -16.00     4200.00
00927              -6.00     4000.00
00928               0.00     4000.00
00929              -2.00     4000.00
00930              -8.00     4000.00
00931             -10.00     4000.00
00932              -8.00     4000.00
00933              -8.00     4000.00
00934              -6.00     4000.00
00935               0.00     4000.00
00936              -2.00     4000.00
00937              -8.00     4000.00
00938              -8.00     3800.00
00939              -8.00     3600.00
00940              -8.00     3600.00
00941               0.00     3600.00
00942               0.00     3600.00
00943              -6.00     3600.00
00944              -8.00     3600.00
00945              -8.00     3600.00
00946              -6.00     3600.00
00947              -4.00     3600.00
00948               0.00     3400.00
00949              -2.00     3400.00
00950              -4.00     3400.00
00951              -8.00     3200.00
00952              -8.00     3200.00
00953              -4.00     3400.00
00954              -4.00     3200.00
00955              -2.00     3200.00
00956               0.00     3200.00
00957              -6.00     3200.00
00958              -6.00     3000.00
00959              -2.00     2800.00
00960              -2.00     3000.00
00961              -6.00     2800.00
00962              -2.00     2800.00
00963              -2.00     2800.00
00964              -2.00     2800.00
00965              -8.00     2600.00
00966              -6.00     2600.00
00967               0.00     2600.00
00968               0.00     2400.00
00969              -4.00     2400.00
00970              -6.00     2400.00
00971              -8.00     2400.00
00972              -6.00     2200.00
00973              -2.00     2200.00
00974              -2.00     2000.00
00975              -2.00     2000.00
00976              -6.00     1800.00
00977              -4.00     1800.00
00978              -6.00     1800.00
00979              -8.00     1800.00
00980              -6.00     1600.00
00981              -2.00     1600.00
00982              -2.00     1600.00
00983              -2.00     1600.00
00984              -6.00     1400.00
00985              -6.00     1600.00
00986              -6.00     1200.00
00987              -6.00     1200.00
00988              -2.00     1200.00
00989               0.00     1200.00
00990              -2.00     1000.00
00991              -8.00     1000.00
00992              -4.00     1000.00
00993              -4.00     1000.00
00994              -6.00      800.00
00995              -2.00      800.00
00996               0.00      600.00
00997              -2.00      800.00
00998              -8.00      600.00
00999              -4.00      400.00
01000              -6.00      400.00
01001              -2.00      400.00
01002              -2.00      200.00
01003              -6.00      200.00
01004               2.00      200.00
01005               2.00      200.00
01006               0.00        0.00
01007               6.00        0.00
01008               6.00     -200.00
01009              -2.00        0.00
01010              -8.00     -200.00
01011              -2.00     -400.00
01012               2.00     -400.00
01013              32.00     -400.00
01014             138.00     -600.00
01015             100.00     -800.00
01016            -254.00     -800.00
01017            -254.00     -600.00
01018             246.00     -400.00
01019             246.00     -800.00
01020             -48.00    -1000.00
01021            -254.00     -800.00
01022              -6.00     -800.00
01023             246.00    -1200.00
01024             -20.00    -1000.00
01025            -254.00    -1200.00
01026              -2.00    -1200.00
01027             246.00    -1200.00
01028              66.00    -1400.00
01029             -56.00    -1400.00
01030            -198.00    -1600.00
01031            -122.00    -1400.00
01032             246.00    -1600.00
01033             194.00    -1800.00
01034            -254.00    -1600.00
01035            -158.00    -2000.00
01036             176.00    -2000.00
01037              98.00    -2000.00
01038             -18.00    -2000.00
01039            -118.00    -2200.00
01040             -66.00    -2000.00
01041             136.00    -2400.00
01042              84.00    -2400.00
01043            -162.00    -2200.00
01044             -42.00    -2400.00
01045             112.00    -2400.00
01046              16.00    -2400.00
01047             -38.00    -2400.00
01048             -34.00    -2800.00
01049              -6.00    -2800.00
01050              38.00    -2800.00
01051              20.00    -2800.00
01052             -54.00    -2800.00
01053             -16.00    -3000.00
01054              32.00    -3000.00
01055              18.00    -3000.00
01056             -20.00    -3000.00
01057             -22.00    -3000.00
01058               2.00    -3000.00
01059              22.00    -3200.00
01060               0.00    -3200.00
01061             -26.00    -3200.00
01062               2.00    -3200.00
01063              22.00    -3200.00
01064             -10.00    -3200.00
01065             -24.00    -3400.00
01066               8.00    -3400.00
01067              14.00    -3400.00
01068               0.00    -3200.00
01069              -4.00    -3400.00
01070             -12.00    -3600.00
01071              -6.00    -3600.00
01072               8.00    -3600.00
01073               6.00    -3600.00
01074               0.00    -3600.00
01075              -6.00    -3600.00
01076              -2.00    -3600.00
01077               6.00    -3800.00
01078              -2.00    -3600.00
01079              -8.00    -3800.00
01080               6.00    -3800.00
01081               8.00    -3600.00
01082              -4.00    -3800.00
01083              -8.00    -3800.00
01084               0.00    -3800.00
01085               2.00    -3800.00
01086               0.00    -3800.00
01087               2.00    -3800.00
01088               2.00    -4000.00
01089               0.00    -3800.00
01090              -6.00    -4000.00
01091              -2.00    -4000.00
01092               0.00    -3800.00
01093               2.00    -4000.00
01094               2.00    -4000.00
01095               6.00    -4000.00
01096              -2.00    -4000.00
01097              -6.00    -3800.00
01098               0.00    -4000.00
01099               2.00    -4000.00
01100               2.00    -4000.00
01101               0.00    -3800.00
01102               0.00    -4000.00
01103               0.00    -4000.00
01104              -6.00    -4000.00
01105              -2.00    -4000.00
01106               2.00    -3800.00
01107               0.00    -4000.00
01108              -2.00    -4000.00
01109               0.00    -4000.00
01110              -6.00    -4000.00
01111              -6.00    -4000.00
01112               0.00    -3800.00
01113               0.00    -3800.00
01114               2.00    -4000.00
01115              -2.00    -3800.00
01116              -2.00    -3800.00
01117              -6.00    -4000.00
01118              -2.00    -3800.00
01119               0.00    -3800.00
01120               0.00    -3800.00
01121               0.00    -3800.00
01122              -2.00    -3600.00
01123              -2.00    -3800.00
01124              -4.00    -3600.00
01125              -2.00    -3600.00
01126               0.00    -3600.00
01127               0.00    -3600.00
01128              -2.00    -3600.00
01129              -2.00    -3600.00
01130              -6.00    -3600.00
01131              -2.00    -3400.00
01132              -2.00    -3600.00
01133               0.00    -3600.00
01134               2.00    -3400.00
01135               0.00    -3200.00
01136              -2.00    -3200.00
01137              -2.00    -3200.00
01138              -2.00    -3200.00
01139              -2.00    -3200.00
01140               0.00    -3000.00
01141               2.00    -3000.00
01142              -2.00    -3200.00
01143              -2.00    -3000.00
01144              -2.00    -3000.00
01145               2.00    -2800.00
01146               0.00    -2800.00
01147               2.00    -2800.00
01148               0.00    -2800.00
01149              -2.00    -2800.00
01150              -6.00    -2800.00
01151              -2.00    -2800.00
01152               0.00    -2400.00
01153               0.00    -2600.00
01154               0.00    -2400.00
01155               0.00    -2400.00
01156               0.00    -2400.00
01157              -2.00    -2400.00
01158              -2.00    -2200.00
01159               0.00    -2000.00
01160               0.00    -2200.00
01161               0.00    -2200.00
01162               0.00    -2000.00
01163              -2.00    -2000.00
01164              -2.00    -2000.00
01165              -2.00    -1800.00
01166               0.00    -1600.00
01167               0.00    -1600.00
01168              -2.00    -1600.00
01169              -2.00    -1400.00
01170              -2.00    -1600.00
01171              -6.00    -1400.00
01172              -2.00    -1400.00
01173               0.00    -1400.00
01174               0.00    -1400.00
01175              -2.00    -1000.00
01176              -6.00    -1200.00
01177              -2.00    -1000.00
01178              -2.00    -1000.00
01179              -2.00    -1000.00
01180               0.00     -800.00
01181              -2.00     -800.00
01182              -4.00     -600.00
01183               0.00     -600.00
01184               0.00     -800.00
01185              -6.00     -600.00
01186             -10.00     -400.00
01187               0.00     -400.00
01188               6.00     -400.00
01189               0.00     -400.00
01190              -8.00     -200.00
01191             -16.00     -400.00
01192              -6.00        0.00
01193              14.00        0.00
01194               2.00      200.00
01195             -16.00      200.00
01196             -10.00      400.00
01197              14.00      400.00
01198              24.00      400.00
01199               6.00      400.00
01200             -22.00      400.00
01201             -14.00      600.00
01202               8.00      400.00
01203              14.00      600.00
01204              20.00      800.00
01205             130.00      800.00
01206             132.00     1000.00
01207            -254.00      800.00
01208            -254.00     1000.00
01209             246.00     1000.00
01210             246.00     1400.00
01211             -86.00     1200.00
01212            -254.00     1000.00
01213              48.00     1600.00
01214             246.00     1600.00
01215            -144.00     1200.00
01216            -254.00     1600.00
01217             208.00     1800.00
01218             246.00     1600.00
01219            -184.00     1600.00
01220             -56.00     1800.00
01221              24.00     1800.00
01222            -128.00     1800.00
01223             150.00     2000.00
01224             150.00     2000.00
01225            -254.00     2000.00
01226             -20.00     2200.00
01227             146.00     2400.00
01228             -56.00     2000.00
01229              40.00     2400.00
01230             -12.00     2200.00
01231            -178.00     2400.00
01232             166.00     2600.00
01233             126.00     2600.00
01234            -248.00     2400.00
01235              16.00     2800.00
01236             142.00     2800.00
01237            -102.00     2600.00
01238              24.00     2800.00
01239              26.00     2800.00
01240             -94.00     2800.00
01241              58.00     3200.00
01242              14.00     3000.00
01243             -64.00     3000.00
01244              50.00     3200.00
01245             -28.00     3200.00
01246             -32.00     3200.00
01247              64.00     3400.00
01248             -50.00     3400.00
01249             -32.00     3200.00
01250              48.00     3400.00
01251             -26.00     3400.00
01252             -14.00     3400.00
01253              26.00     3600.00
01254             -20.00     3400.00
01255             -16.00     3400.00
01256             -14.00     3600.00
01257              -2.00     3600.00
01258              22.00     3600.00
01259             -14.00     3800.00
01260             -22.00     3600.00
01261               2.00     3800.00
01262             -14.00     4000.00
01263             -16.00     4000.00
01264              18.00     4000.00
01265               0.00     4000.00
01266             -18.00     4000.00
01267               0.00     4200.00
01268               2.00     4000.00
01269             -16.00     4000.00
01270              -8.00     4000.00
01271               0.00     4000.00
01272               6.00     4200.00
01273              -2.00     4000.00
01274             -16.00     4000.00
01275              -6.00     4200.00
01276               2.00     4200.00
01277             -18.00     4200.00
01278               0.00     4400.00
01279               6.00     4200.00
01280             -10.00     4200.00
01281              -8.00     4400.00
01282              -8.00     4200.00
01283             -16.00     4200.00
01284              -8.00     4200.00
01285               6.00     4400.00
01286               8.00     4400.00
01287               0.00     4400.00
01288             -16.00     4200.00
01289             -16.00     4200.00
01290              -2.00     4200.00
01291              -4.00     4400.00
01292              -4.00     4400.00
01293               6.00     4400.00
01294              -2.00     4400.00
01295             -10.00     4200.00
01296              -8.00     4400.00
01297              -8.00     4400.00
01298              -2.00     4200.00
01299               6.00     4400.00
01300             -10.00     4200.00
01301             -18.00     4200.00
01302             -10.00     4200.00
01303               0.00     4200.00
01304               0.00     4200.00
01305              -8.00     4200.00
01306              -8.00     4200.00
01307              -2.00     4200.00
01308             -10.00     4000.00
01309             -10.00     4200.00
01310               0.00     4000.00
01311               0.00     4000.00
01312              -6.00     4000.00
01313             -10.00     4000.00
01314              -4.00     4000.00
01315              -6.00     4000.00
01316             -12.00     4000.00
01317              -8.00     4000.00
01318               0.00     4000.00
01319               0.00     4000.00
01320              -8.00     3800.00
01321             -10.00     4000.00
01322             -10.00     3600.00
01323              -6.00     3600.00
01324               2.00     3600.00
01325               0.00     3800.00
01326              -8.00     3600.00
01327             -10.00     3600.00
01328              -6.00     3600.00
01329              -2.00     3400.00
01330              -6.00     3400.00
01331              -2.00     3600.00
01332              -2.00     3400.00
01333              -4.00     3200.00
01334             -10.00     3400.00
01335             -10.00     3200.00
01336              -8.00     3200.00
01337              -2.00     3200.00
01338               0.00     3000.00
01339               0.00     3200.00
01340              -8.00     3200.00
01341              -8.00     3000.00
01342              -6.00     3000.00
01343              -2.00     3000.00
01344              -4.00     2800.00
01345              -6.00     2800.00
01346              -2.00     2800.00
01347              -4.00     2600.00
01348              -8.00     2600.00
01349              -2.00     2600.00
01350              -2.00     2600.00
01351              -2.00     2400.00
01352              -6.00     2400.00
01353               0.00     2400.00
01354              -6.00     2400.00
01355              -8.00     2200.00
01356              -6.00     2000.00
01357               0.00     2000.00
01358              -2.00     2000.00
01359              -2.00     2000.00
01360              -2.00     2000.00
01361              -2.00     1800.00
01362              -8.00     1800.00
01363              -6.00     1800.00
01364              -2.00     1600.00
01365              -2.00     1600.00
01366              -6.00     1600.00
01367              -6.00     1400.00
01368              -4.00     1400.00
01369              -8.00     1400.00
01370              -6.00     1200.00
01371              -2.00     1200.00
01372              -2.00     1000.00
01373              -6.00     1200.00
01374              -2.00     1200.00
01375              -2.00     1000.00
01376              -2.00      800.00
01377              -6.00      800.00
01378              -2.00      800.00
01379               0.00      800.00
01380              -2.00      800.00
01381              -8.00      600.00
01382              -6.00      600.00
01383              -2.00      400.00
01384              -2.00      200.00
01385              -2.00      400.00
01386              -6.00      200.00
01387               0.00      200.00
01388               0.00      200.00
01389              -2.00        0.00
01390               2.00        0.00
01391               2.00        0.00
01392              -2.00        0.00
01393             -10.00        0.00
01394              -6.00     -400.00
01395               6.00     -200.00
01396              32.00     -200.00
01397             126.00     -400.00
01398             110.00     -800.00
01399            -254.00    -1000.00
01400            -254.00     -600.00
01401             224.00     -600.00
01402             246.00     -800.00
01403              40.00    -1000.00
01404            -254.00     -800.00
01405             -82.00     -800.00
01406             246.00    -1200.00
01407              52.00    -1000.00
01408            -254.00    -1200.00
01409             -50.00    -1200.00
01410             246.00    -1400.00
01411              78.00    -1200.00
01412             -50.00    -1600.00
01413            -190.00    -1600.00
01414            -142.00    -1400.00
01415             246.00    -1600.00
01416             222.00    -1600.00
01417            -254.00    -1600.00
01418            -178.00    -2000.00
01419             166.00    -1800.00
01420             112.00    -2000.00
01421             -10.00    -2200.00
01422            -114.00    -2200.00
01423             -78.00    -2000.00
01424             130.00    -2200.00
01425             102.00    -2400.00
01426            -158.00    -2200.00
01427             -58.00    -2400.00
01428             112.00    -2400.00
01429              24.00    -2400.00
01430             -38.00    -2600.00
01431             -34.00    -2400.00
01432             -10.00    -2600.00
01433              38.00    -2800.00
01434              26.00    -2800.00
01435             -54.00    -2800.00
01436             -18.00    -2800.00
01437              32.00    -2800.00
01438              20.00    -3000.00
01439             -18.00    -3000.00
01440             -24.00    -3000.00
01441              -2.00    -3000.00
01442              22.00    -3000.00
01443               6.00    -3200.00
01444             -28.00    -3000.00
01445               0.00    -3400.00
01446              22.00    -3200.00
01447              -8.00    -3200.00
01448             -26.00    -3200.00
01449               8.00    -3600.00
01450              10.00    -3400.00
01451               0.00    -3400.00
01452              -6.00    -3400.00
01453             -10.00    -3600.00
01454              -8.00    -3600.00
01455               6.00    -3400.00
01456               8.00    -3600.00
01457               0.00    -3600.00
01458              -8.00    -3800.00
01459              -6.00    -3600.00
01460               6.00    -3800.00
01461              -2.00    -3600.00
01462              -8.00    -3800.00
01463               6.00    -3800.00
01464               8.00    -3800.00
01465              -8.00    -3800.00
01466             -10.00    -3800.00
01467               0.00    -4000.00
01468               2.00    -3800.00
01469               0.00    -3800.00
01470               0.00    -3800.00
01471               2.00    -4000.00
01472               0.00    -3800.00
01473              -4.00    -3800.00
01474              -2.00    -4000.00
01475               0.00    -4000.00
01476               0.00    -3800.00
01477               2.00    -4000.00
01478               2.00    -4000.00
01479              -2.00    -4000.00
01480              -6.00    -4000.00
01481              -2.00    -4000.00
01482               6.00    -3800.00
01483               0.00    -4000.00
01484               2.00    -3800.00
01485               0.00    -4000.00
01486              -2.00    -4000.00
01487              -2.00    -3800.00
01488               0.00    -4000.00
01489               2.00    -3800.00
01490               2.00    -4000.00
01491               0.00    -3800.00
01492               0.00    -3800.00
01493              -2.00    -4000.00
01494              -2.00    -3800.00
01495              -2.00    -3800.00
01496               2.00    -4000.00
01497               2.00    -3800.00
01498              -2.00    -3800.00
01499              -6.00    -4000.00
01500              -2.00    -3800.00
01501              -2.00    -3800.00
01502               2.00    -3600.00
01503               2.00    -3600.00
01504               0.00    -3800.00
01505              -2.00    -3600.00
01506              -2.00    -3600.00
01507              -2.00    -3800.00
01508              -4.00    -3600.00
01509               0.00    -3600.00
01510               2.00    -3600.00
01511               0.00    -3600.00
01512              -2.00    -3600.00
01513              -4.00    -3600.00
01514              -2.00    -3600.00
01515               0.00    -3400.00
01516               2.00    -3400.00
01517               0.00    -3400.00
01518              -2.00    -3200.00
01519              -2.00    -3200.00
01520               0.00    -3200.00
01521              -2.00    -3200.00
01522               0.00    -3200.00
01523               0.00    -3200.00
01524               0.00    -3000.00
01525               0.00    -3000.00
01526              -2.00    -3000.00
01527              -2.00    -2800.00
01528               0.00    -3000.00
01529               0.00    -2800.00
01530               2.00    -2800.00
01531               0.00    -2800.00
01532              -4.00    -2800.00
01533              -6.00    -2800.00
01534              -2.00    -2800.00
01535               2.00    -2600.00
01536               2.00    -2600.00
01537               0.00    -2400.00
01538               0.00    -2400.00
01539              -2.00    -2400.00
01540              -2.00    -2200.00
01541              -2.00    -2200.00
01542               2.00    -2200.00
01543               0.00    -2200.00
01544               0.00    -2000.00
01545              -2.00    -2000.00
01546              -2.00    -2000.00
01547              -2.00    -1800.00
01548              -2.00    -1800.00
01549               0.00    -2000.00
01550              -2.00    -1600.00
01551               0.00    -1600.00
01552               0.00    -1600.00
01553              -2.00    -1400.00
01554              -2.00    -1400.00
01555               0.00    -1400.00
01556               0.00    -1200.00
01557               0.00    -1000.00
01558              -2.00    -1200.00
01559              -2.00    -1000.00
01560              -2.00    -1200.00
01561              -6.00    -1000.00
01562              -2.00     -800.00
01563              -2.00     -800.00
01564               0.00     -800.00
01565              -2.00     -800.00
01566              -2.00     -600.00
01567              -2.00     -800.00
01568              -2.00     -400.00
01569              -4.00     -600.00
01570               0.00     -400.00
01571              -2.00     -400.00
01572              -2.00     -400.00
01573              -6.00        0.00
01574              -8.00        0.00
01575              -6.00        0.00
01576              -2.00        0.00
01577              -8.00        0.00
01578               0.00      200.00
01579               0.00      200.00
01580              -4.00      200.00
01581               0.00      200.00
01582              10.00      400.00
01583               2.00      400.00
01584              -2.00      600.00
01585             -10.00      600.00
01586              -2.00      800.00
01587              18.00      800.00
01588             130.00      800.00
01589             158.00     1000.00
01590            -254.00     1000.00
01591            -254.00      800.00
01592             238.00     1200.00
01593             246.00     1200.00
01594              30.00     1200.00
01595            -254.00      800.00
01596             -42.00     1600.00
01597             246.00     1600.00
01598             -58.00     1200.00
01599            -254.00     1400.00
01600             146.00     1800.00
01601             246.00     1600.00
01602            -152.00     1600.00
01603             -74.00     1800.00
01604              30.00     2000.00
01605            -150.00     1800.00
01606             130.00     2000.00
01607             186.00     2000.00
01608            -248.00     2000.00
01609             -42.00     2000.00
01610             144.00     2400.00
01611             -58.00     2200.00
01612              38.00     2400.00
01613              16.00     2400.00
01614            -184.00     2200.00
01615             136.00     2600.00
01616             138.00     2800.00
01617            -238.00     2600.00
01618               6.00     2800.00
01619             158.00     2800.00
01620            -100.00     2600.00
01621               0.00     3000.00
01622              32.00     3000.00
01623             -82.00     2800.00
01624              62.00     3200.00
01625              26.00     3000.00
01626             -80.00     3200.00
01627              34.00     3200.00
01628             -18.00     3200.00
01629             -26.00     3200.00
01630              70.00     3400.00
01631             -42.00     3200.00
01632             -46.00     3200.00
01633              38.00     3400.00
01634             -28.00     3400.00
01635             -16.00     3400.00
01636              38.00     3600.00
01637             -16.00     3600.00
01638             -22.00     3600.00
01639             -16.00     3600.00
01640              -8.00     3600.00
01641              22.00     3600.00
01642             -10.00     3800.00
01643             -22.00     3600.00
01644               8.00     3800.00
01645             -12.00     4000.00
01646             -18.00     3800.00
01647              14.00     4000.00
01648              -2.00     4000.00
01649             -22.00     4000.00
01650               0.00     4000.00
01651               6.00     4000.00
01652             -14.00     4000.00
01653             -10.00     4200.00
01654              -6.00     4200.00
01655               0.00     4000.00
01656              -2.00     4200.00
01657             -14.00     4200.00
01658               0.00     4200.00
01659               2.00     4200.00
01660             -22.00     4200.00
01661              -2.00     4200.00
01662               8.00     4200.00
01663              -8.00     4200.00
01664              -4.00     4200.00
01665              -8.00     4200.00
01666             -10.00     4400.00
01667              -6.00     4200.00
01668               0.00     4400.00
01669               2.00     4200.00
01670              -2.00     4400.00
01671             -14.00     4400.00
01672             -10.00     4200.00
01673               0.00     4400.00
01674              -2.00     4400.00
01675               0.00     4400.00
01676               2.00     4400.00
01677              -8.00     4200.00
01678             -10.00     4200.00
01679              -8.00     4200.00
01680              -6.00     4400.00
01681               0.00     4400.00
01682               6.00     4200.00
01683              -6.00     4200.00
01684             -16.00     4200.00
01685             -14.00     4400.00
01686               0.00     4200.00
01687               6.00     4400.00
01688              -2.00     4200.00
01689              -8.00     4200.00
01690              -6.00     4200.00
01691             -10.00     4200.00
01692             -10.00     4000.00
01693              -2.00     4000.00
01694               0.00     4000.00
01695              -6.00     4200.00
01696              -6.00     4000.00
01697              -2.00     4000.00
01698              -8.00     4000.00
01699             -10.00     4000.00
01700              -6.00     4000.00
01701               0.00     3800.00
01702               0.00     3800.00
01703             -10.00     3600.00
01704             -10.00     4000.00
01705             -10.00     3800.00
01706              -8.00     3600.00
01707              -2.00     3600.00
01708               0.00     3600.00
01709              -6.00     3600.00
01710              -8.00     3600.00
01711              -8.00     3600.00
01712              -8.00     3600.00
01713              -8.00     3400.00
01714              -4.00     3400.00
01715              -2.00     3400.00
01716              -4.00     3400.00
01717              -8.00     3200.00
01718              -6.00     3400.00
01719              -6.00     3200.00
01720              -6.00     3200.00
01721              -2.00     3200.00
01722               0.00     3200.00
01723              -6.00     3200.00
01724              -8.00     3200.00
01725             -10.00     2800.00
01726              -2.00     2800.00
01727              -6.00     2800.00
01728              -2.00     2800.00
01729               0.00     2800.00
01730              -2.00     2600.00
01731             -10.00     2600.00
01732              -6.00     2600.00
01733              -2.00     2600.00
01734               0.00     2400.00
01735              -2.00     2600.00
01736              -2.00     2600.00
01737              -6.00     2400.00
01738              -8.00     2200.00
01739              -6.00     2200.00
01740              -2.00     2000.00
01741               0.00     2000.00
01742              -2.00     2000.00
01743              -2.00     2000.00
01744              -2.00     1800.00
01745              -8.00     1800.00
01746              -4.00     1800.00
01747              -2.00     1600.00
01748              -2.00     1600.00
01749              -2.00     1600.00
01750              -2.00     1600.00
01751              -2.00     1600.00
01752              -6.00     1400.00
01753              -6.00     1200.00
01754              -2.00     1200.00
01755               0.00     1000.00
01756              -6.00     1200.00
01757              -6.00     1200.00
01758              -4.00     1000.00
01759              -6.00     1000.00
01760              -6.00      800.00
01761              -2.00      600.00
01762               0.00      800.00
01763              -4.00      600.00
01764              -8.00      400.00
01765              -6.00      400.00
01766              -2.00      400.00
01767               0.00      400.00
01768              -6.00      400.00
01769              -8.00      400.00
01770              -2.00      200.00
01771               0.00      200.00
01772              -2.00      200.00
01773               6.00        0.00
01774               2.00     -200.00
01775              -2.00        0.00
01776             -10.00        0.00
01777              -8.00        0.00
01778               0.00     -400.00
01779              26.00     -400.00
01780             122.00     -400.00
01781             122.00     -600.00
01782            -240.00    -1000.00
01783            -254.00     -600.00
01784             162.00     -400.00
01785             246.00     -800.00
01786             138.00    -1200.00
01787            -254.00     -800.00
01788            -168.00     -800.00
01789             246.00    -1200.00
01790             128.00    -1000.00
01791            -254.00    -1200.00
01792             -96.00    -1200.00
01793             246.00    -1400.00
01794              88.00    -1400.00
01795             -46.00    -1600.00
01796            -178.00    -1600.00
01797            -160.00    -1400.00
01798             240.00    -1600.00
01799             246.00    -1600.00
01800            -254.00    -1600.00
01801            -200.00    -2000.00
01802             152.00    -2000.00
01803             120.00    -2000.00
01804              -2.00    -2000.00
01805            -110.00    -2200.00
01806             -88.00    -2000.00
01807             116.00    -2200.00
01808             118.00    -2400.00
01809            -152.00    -2200.00
01810             -68.00    -2200.00
01811             102.00    -2400.00
01812              38.00    -2400.00
01813             -40.00    -2400.00
01814             -32.00    -2600.00
01815             -10.00    -2400.00
01816              36.00    -2800.00
01817              32.00    -2600.00
01818             -48.00    -2800.00
01819             -24.00    -2800.00
01820              28.00    -3000.00
01821              22.00    -3000.00
01822             -14.00    -3000.00
01823             -26.00    -3000.00
01824              -4.00    -3000.00
01825              22.00    -3000.00
01826               6.00    -3200.00
01827             -26.00    -3200.00
01828              -4.00    -3200.00
01829              22.00    -3400.00
01830              -4.00    -3400.00
01831             -26.00    -3200.00
01832               6.00    -3200.00
01833              14.00    -3400.00
01834               0.00    -3400.00
01835              -6.00    -3600.00
01836             -10.00    -3400.00
01837              -8.00    -3600.00
01838               8.00    -3600.00
01839               8.00    -3600.00
01840              -2.00    -3800.00
01841             -10.00    -3600.00
01842              -6.00    -3800.00
01843               2.00    -3600.00
01844              -2.00    -3600.00
01845              -8.00    -3800.00
01846               6.00    -3800.00
01847               8.00    -3800.00
01848              -6.00    -3800.00
01849              -8.00    -3800.00
01850               0.00    -3800.00
01851               2.00    -3800.00
01852               0.00    -4000.00
01853               0.00    -4000.00
01854               0.00    -4000.00
01855               0.00    -3800.00
01856              -2.00    -4000.00
01857              -2.00    -4000.00
01858               0.00    -3800.00
01859               0.00    -4000.00
01860               2.00    -3800.00
01861               6.00    -4000.00
01862              -2.00    -4000.00
01863              -6.00    -3800.00
01864               0.00    -3800.00
01865               0.00    -4000.00
01866               2.00    -4000.00
01867               2.00    -4000.00
01868               0.00    -4000.00
01869              -2.00    -4000.00
01870              -2.00    -4000.00
01871              -2.00    -3800.00
01872               6.00    -4000.00
01873               6.00    -3800.00
01874               0.00    -4000.00
01875               0.00    -4000.00
01876              -2.00    -4000.00
01877              -6.00    -3800.00
01878               0.00    -3800.00
01879               4.00    -3800.00
01880               6.00    -3800.00
01881               0.00    -3800.00
01882              -2.00    -3800.00
01883              -2.00    -3800.00
01884               0.00    -3800.00
01885               0.00    -3800.00
01886               2.00    -3800.00
01887               2.00    -3800.00
01888              -2.00    -3800.00
01889              -2.00    -3800.00
01890              -2.00    -3600.00
01891              -2.00    -3600.00
01892               0.00    -3800.00
01893               2.00    -3600.00
01894              -2.00    -3600.00
01895              -2.00    -3400.00
01896              -6.00    -3600.00
01897              -2.00    -3600.00
01898              -4.00    -3600.00
01899               0.00    -3400.00
01900               0.00    -3200.00
01901              -2.00    -3400.00
01902              -6.00    -3200.00
01903              -4.00    -3200.00
01904              -2.00    -3200.00
01905               0.00    -3200.00
01906               0.00    -3200.00
01907               0.00    -3200.00
01908              -2.00    -3000.00
01909              -2.00    -3000.00
01910              -2.00    -3000.00
01911              -2.00    -3000.00
01912               0.00    -2800.00
01913               0.00    -2800.00
01914               2.00    -2800.00
01915               0.00    -2800.00
01916              -6.00    -2800.00
01917              -6.00    -2800.00
01918              -2.00    -2400.00
01919               0.00    -2400.00
01920               2.00    -2400.00
01921               0.00    -2400.00
01922              -2.00    -2400.00
01923               0.00    -2400.00
01924              -2.00    -2200.00
01925              -2.00    -2200.00
01926               0.00    -2000.00
01927               0.00    -2000.00
01928               2.00    -2000.00
01929              -2.00    -2000.00
01930              -6.00    -2000.00
01931               2.00    -1800.00
01932               4.00    -1800.00
01933               0.00    -1600.00
01934              -8.00    -1600.00
01935              -8.00    -1600.00
01936               0.00    -1400.00
01937               6.00    -1400.00
01938               0.00    -1400.00
01939              -8.00    -1400.00
01940              -6.00    -1200.00
01941               2.00    -1000.00
01942              10.00    -1000.00
01943               0.00    -1000.00
01944             -14.00     -800.00
01945             -16.00     -800.00
01946               0.00     -800.00
01947              14.00     -800.00
01948               6.00     -800.00
01949              -8.00     -600.00
01950             -10.00     -600.00
01951              -6.00     -600.00
01952               2.00     -400.00
01953               4.00     -200.00
01954               0.00     -400.00
01955              -6.00     -400.00
01956              -6.00     -200.00
01957             -10.00     -200.00
01958              -8.00        0.00
01959               2.00        0.00
01960               6.00        0.00
01961              -2.00      200.00
01962              -8.00      200.00
01963              -6.00      200.00
01964               4.00      400.00
01965              16.00      400.00
01966               0.00      400.00
01967             -14.00      400.00
01968             -10.00      400.00
01969               0.00      600.00
01970              20.00      800.00
01971             112.00      800.00
01972             160.00     1000.00
01973            -242.00      800.00
01974            -254.00      800.00
01975             182.00     1200.00
01976             246.00     1400.00
01977             122.00     1200.00
01978            -254.00      800.00
01979            -134.00     1600.00
01980             246.00     1600.00
01981              38.00     1200.00
01982            -254.00     1400.00
01983              88.00     1800.00
01984             246.00     1600.00
01985            -138.00     1400.00
01986             -98.00     1800.00
01987              38.00     1800.00
01988            -146.00     1800.00
01989             112.00     1800.00
01990             208.00     2200.00
01991            -234.00     2000.00
01992             -72.00     2200.00
01993             144.00     2000.00
01994             -50.00     2200.00
01995              30.00     2400.00
01996              34.00     2400.00
01997            -182.00     2400.00
01998             112.00     2600.00
01999             160.00     2600.00
02000            -234.00     2600.00
02001             -24.00     2800.00
02002             174.00     2800.00
02003             -84.00     2400.00
02004              -8.00     2800.00
02005              42.00     2800.00
02006             -94.00     3000.00
02007              48.00     3000.00
02008              34.00     3200.00
02009             -78.00     3000.00
02010              46.00     3200.00
02011              -2.00     3200.00
02012             -42.00     3200.00
02013              54.00     3400.00
02014             -36.00     3400.00
02015             -42.00     3400.00
02016              56.00     3400.00
02017             -16.00     3600.00
02018             -32.00     3400.00
02019              24.00     3600.00
02020             -14.00     3600.00
02021             -14.00     3600.00
02022             -10.00     3600.00
02023              -8.00     3600.00
02024              22.00     3600.00
02025              -8.00     3600.00
02026             -26.00     3800.00
02027               8.00     3800.00
02028              -8.00     3800.00
02029             -16.00     4000.00
02030              14.00     4000.00
02031               0.00     4000.00
02032             -26.00     4000.00
02033              -2.00     4000.00
02034               8.00     4000.00
02035              -8.00     4000.00
02036              -8.00     4200.00
02037              -6.00     4000.00
02038              -2.00     4000.00
02039               0.00     4200.00
02040             -10.00     4200.00
02041              -6.00     4200.00
02042               0.00     4200.00
02043             -24.00     4000.00
02044              -2.00     4200.00
02045              12.00     4200.00
02046             -10.00     4200.00
02047             -14.00     4200.00
02048              -6.00     4400.00
02049              -6.00     4200.00
02050               0.00     4400.00
02051               2.00     4400.00
02052               0.00     4200.00
02053              -8.00     4400.00
02054             -16.00     4400.00
02055             -12.00     4400.00
02056               2.00     4400.00
02057               4.00     4400.00
02058              -2.00     4200.00
02059              -8.00     4200.00
02060             -10.00     4200.00
02061              -8.00     4400.00
02062               6.00     4400.00
02063              -2.00     4200.00
02064             -10.00     4400.00
02065              -6.00     4200.00
02066              -2.00     4200.00
02067              -6.00     4200.00
02068              -6.00     4400.00
02069              -2.00     4200.00
02070              -2.00     4200.00
02071              -2.00     4200.00
02072              -8.00     4200.00
02073               0.00     4000.00
02074              -6.00     4200.00
02075             -10.00     4200.00
02076              -4.00     4000.00
02077               0.00     4200.00
02078              -2.00     4000.00
02079              -2.00     4000.00
02080              -6.00     4000.00
02081              -6.00     4000.00
02082              -8.00     4000.00
02083              -8.00     4000.00
02084              -6.00     4000.00
02085              -4.00     3800.00
02086              -6.00     3600.00
02087              -8.00     3600.00
02088             -10.00     4000.00
02089              -6.00     3800.00
02090               0.00     3600.00
02091              -2.00     3600.00
02092             -10.00     3400.00
02093             -10.00     3600.00
02094              -4.00     3400.00
02095              -2.00     3600.00
02096              -8.00     3600.00
02097              -8.00     3400.00
02098              -6.00     3200.00
02099               0.00     3400.00
02100              -6.00     3400.00
02101             -10.00     3400.00
02102              -8.00     3200.00
02103             -10.00     3200.00
02104              -2.00     3200.00
02105               0.00     3200.00
02106              -6.00     3000.00
02107             -10.00     3000.00
02108              -8.00     2800.00
02109              -2.00     2800.00
02110              -6.00     3000.00
02111              -6.00     2800.00
02112              -6.00     2800.00
02113              -2.00     2800.00
02114              -8.00     2800.00
02115              -2.00     2600.00
02116              -6.00     2400.00
02117              -6.00     2600.00
02118              -8.00     2400.00
02119              -2.00     2400.00
02120              -2.00     2400.00
02121              -6.00     2200.00
02122              -8.00     2200.00
02123              -2.00     2000.00
02124               0.00     2000.00
02125               0.00     2000.00
02126              -2.00     2000.00
02127              -6.00     2000.00
02128              -8.00     1800.00
02129              -6.00     1800.00
02130               0.00     1800.00
02131              -2.00     1800.00
02132              -6.00     1600.00
02133              -8.00     1600.00
02134              -2.00     1400.00
02135              -2.00     1200.00
02136               0.00     1200.00
02137               0.00     1200.00
02138              -2.00     1200.00
02139              -6.00     1200.00
02140              -8.00     1000.00
02141              -2.00     1200.00
02142               0.00     1000.00
02143              -4.00      800.00
02144              -6.00      800.00
02145               0.00      800.00
02146              -4.00      800.00
02147              -6.00      400.00
02148              -6.00      600.00
02149               0.00      400.00
02150               0.00      400.00
02151              -8.00      400.00
02152             -10.00      200.00
02153              -2.00      200.00
02154               2.00      200.00
02155               2.00      200.00
02156               2.00        0.00
02157               2.00        0.00
02158              -8.00        0.00
02159             -10.00        0.00
02160              -2.00     -200.00
02161               2.00     -400.00
02162              22.00     -400.00
02163             110.00     -400.00
02164             130.00     -800.00
02165            -208.00     -800.00
02166            -254.00     -600.00
02167             106.00     -600.00
02168             246.00     -800.00
02169             224.00    -1000.00
02170            -254.00     -800.00
02171            -248.00     -800.00
02172             246.00    -1200.00
02173             202.00    -1200.00
02174            -254.00    -1000.00
02175            -146.00    -1200.00
02176             246.00    -1400.00
02177             102.00    -1400.00
02178             -42.00    -1600.00
02179            -170.00    -1400.00
02180            -176.00    -1400.00
02181             214.00    -1600.00
02182             246.00    -1600.00
02183            -232.00    -1600.00
02184            -218.00    -1800.00
02185             130.00    -2000.00
02186             130.00    -2000.00
02187               0.00    -2000.00
02188            -102.00    -2200.00
02189             -90.00    -2000.00
02190             102.00    -2200.00
02191             130.00    -2400.00
02192            -144.00    -2400.00
02193             -80.00    -2200.00
02194             104.00    -2400.00
02195              48.00    -2400.00
02196             -38.00    -2400.00
02197             -38.00    -2800.00
02198             -16.00    -2600.00
02199              34.00    -2800.00
02200              38.00    -2800.00
02201             -42.00    -2800.00
02202             -26.00    -2800.00
02203              30.00    -2800.00
02204              26.00    -2800.00
02205             -14.00    -3000.00
02206             -22.00    -3000.00
02207              -2.00    -3200.00
02208              22.00    -3000.00
02209               8.00    -3200.00
02210             -24.00    -3000.00
02211              -6.00    -3200.00
02212              26.00    -3200.00
02213               0.00    -3200.00
02214             -26.00    -3200.00
02215               0.00    -3200.00
02216              14.00    -3200.00
02217               8.00    -3600.00
02218              -2.00    -3600.00
02219             -14.00    -3600.00
02220             -10.00    -3400.00
02221               8.00    -3600.00
02222              10.00    -3600.00
02223              -2.00    -3600.00
02224             -10.00    -3600.00
02225              -6.00    -3800.00
02226               6.00    -3800.00
02227               0.00    -3800.00
02228             -10.00    -3800.00
02229               2.00    -3800.00
02230              10.00    -3800.00
02231              -4.00    -4000.00
02232             -10.00    -3800.00
02233               0.00    -3800.00
02234               0.00    -4000.00
02235               0.00    -3800.00
02236               0.00    -3800.00
02237               0.00    -4000.00
02238               0.00    -4000.00
02239              -6.00    -3800.00
02240              -6.00    -3800.00
02241               2.00    -4000.00
02242               2.00    -4000.00
02243               2.00    -4000.00
02244               4.00    -3800.00
02245              -2.00    -4000.00
02246              -8.00    -4000.00
02247              -2.00    -3800.00
02248               0.00    -4000.00
02249               0.00    -4000.00
02250               0.00    -4000.00
02251               0.00    -4000.00
02252               0.00    -4000.00
02253               0.00    -4000.00
02254               0.00    -4000.00
02255               6.00    -4000.00
02256               4.00    -3800.00
02257              -2.00    -4000.00
02258               0.00    -4000.00
02259               0.00    -3800.00
02260               0.00    -3800.00
02261               0.00    -3800.00
02262               2.00    -3800.00
02263               0.00    -3800.00
02264              -2.00    -3800.00
02265              -2.00    -3800.00
02266               0.00    -3800.00
02267               0.00    -3800.00
02268               4.00    -3800.00
02269              -2.00    -3800.00
02270              -2.00    -3800.00
02271              -2.00    -3600.00
02272               0.00    -3800.00
02273               4.00    -3600.00
02274               0.00    -3600.00
02275               0.00    -3600.00
02276               2.00    -3400.00
02277               0.00    -3600.00
02278               0.00    -3600.00
02279              -2.00    -3600.00
02280              -2.00    -3400.00
02281              -2.00    -3600.00
02282               2.00    -3400.00
02283               0.00    -3400.00
02284               0.00    -3200.00
02285               0.00    -3200.00
02286              -8.00    -3200.00
02287              -2.00    -3000.00
02288               0.00    -3200.00
02289               2.00    -3200.00
02290              -2.00    -3000.00
02291              -6.00    -3000.00
02292              -6.00    -3000.00
02293               0.00    -3000.00
02294              -2.00    -2800.00
02295              -8.00    -2800.00
02296               0.00    -2800.00
02297               6.00    -2800.00
02298               2.00    -2800.00
02299             -10.00    -2800.00
02300             -14.00    -2400.00
02301               0.00    -2400.00
02302              10.00    -2400.00
02303              -4.00    -2400.00
02304             -10.00    -2400.00
02305              -2.00    -2400.00
02306               0.00    -2400.00
02307               0.00    -2200.00
02308              -4.00    -2200.00
02309              -2.00    -2000.00
02310               2.00    -2000.00
02311              -2.00    -2000.00
02312              -6.00    -2000.00
02313              -2.00    -1800.00
02314              -4.00    -1800.00
02315               0.00    -1800.00
02316               6.00    -2000.00
02317               0.00    -1600.00
02318              -2.00    -1600.00
02319              -8.00    -1600.00
02320              -4.00    -1400.00
02321               0.00    -1400.00
02322               2.00    -1200.00
02323               0.00    -1200.00
02324               0.00    -1000.00
02325              -2.00    -1000.00
02326              -8.00    -1000.00
02327              -2.00    -1000.00
02328               0.00     -800.00
02329               2.00     -800.00
02330               2.00     -800.00
02331              -2.00     -800.00
02332              -6.00     -800.00
02333              -8.00     -600.00
02334               0.00     -600.00
02335               0.00     -400.00
02336               0.00     -400.00
02337              -2.00     -200.00
02338               0.00     -400.00
02339              -6.00     -400.00
02340              -2.00        0.00
02341               2.00        0.00
02342               2.00        0.00
02343             -10.00        0.00
02344             -10.00      200.00
02345               0.00      200.00
02346               8.00      200.00
02347               6.00      400.00
02348               0.00      200.00
02349              -2.00      400.00
02350              -4.00      600.00
02351              -2.00      400.00
02352               4.00      600.00
02353              18.00      600.00
02354              96.00      800.00
02355             158.00     1000.00
02356            -204.00      800.00
02357            -254.00      800.00
02358             122.00     1000.00
02359             246.00     1400.00
02360             224.00     1200.00
02361            -254.00      800.00
02362            -232.00     1400.00
02363             246.00     1400.00
02364             136.00     1200.00
02365            -254.00     1200.00
02366              38.00     1800.00
02367             246.00     1600.00
02368            -130.00     1200.00
02369            -136.00     1800.00
02370              58.00     2000.00
02371            -118.00     1800.00
02372             102.00     1800.00
02373             204.00     2000.00
02374            -234.00     1800.00
02375             -96.00     2000.00
02376             158.00     2400.00
02377             -32.00     2000.00
02378              14.00     2400.00
02379              42.00     2400.00
02380            -182.00     2400.00
02381              86.00     2600.00
02382             178.00     2600.00
02383            -216.00     2400.00
02384             -44.00     2800.00
02385             176.00     2800.00
02386             -82.00     2600.00
02387             -26.00     3000.00
02388              54.00     2800.00
02389             -80.00     2800.00
02390              34.00     3200.00
02391              38.00     3200.00
02392             -84.00     3000.00
02393              40.00     3200.00
02394              10.00     3200.00
02395             -42.00     3200.00
02396              52.00     3400.00
02397             -26.00     3200.00
02398             -46.00     3400.00
02399              56.00     3400.00
02400             -14.00     3400.00
02401             -42.00     3400.00
02402              26.00     3600.00
02403               4.00     3600.00
02404              -4.00     3400.00
02405             -10.00     3600.00
02406             -22.00     3400.00
02407              14.00     3600.00
02408               6.00     4000.00
02409             -14.00     4000.00
02410              10.00     3800.00
02411             -12.00     3800.00
02412             -32.00     3800.00
02413               8.00     4000.00
02414              12.00     3800.00
02415             -14.00     4000.00
02416              -2.00     4000.00
02417               0.00     4000.00
02418             -16.00     4000.00
02419             -10.00     4000.00
02420              -2.00     4000.00
02421               0.00     4000.00
02422               0.00     4200.00
02423             -14.00     4200.00
02424              -2.00     4000.00
02425               0.00     4200.00
02426             -18.00     4200.00
02427              -8.00     4200.00
02428               6.00     4200.00
02429              -8.00     4200.00
02430              -8.00     4400.00
02431              -2.00     4200.00
02432             -10.00     4200.00
02433              -8.00     4200.00
02434              -2.00     4200.00
02435               0.00     4200.00
02436              -2.00     4400.00
02437             -14.00     4400.00
02438             -10.00     4200.00
02439               2.00     4400.00
02440               0.00     4400.00
02441              -4.00     4200.00
02442              -6.00     4800.00
02443             -10.00     4200.00
02444              -6.00     4400.00
02445               2.00     4400.00
02446               0.00     4400.00
02447              -6.00     4400.00
02448              -6.00     4400.00
02449              -6.00     4200.00
02450             -10.00     4400.00
02451              -8.00     4200.00
02452               0.00     4200.00
02453               4.00     4200.00
02454              -8.00     4400.00
02455             -10.00     4200.00
02456              -2.00     4000.00
02457              -2.00     4200.00
02458              -8.00     4200.00
02459              -2.00     4200.00
02460               0.00     4200.00
02461              -6.00     4000.00
02462              -8.00     4000.00
02463              -8.00     4200.00
02464              -6.00     4000.00
02465              -6.00     4000.00
02466              -2.00     4000.00
02467               0.00     4000.00
02468              -6.00     3600.00
02469             -10.00     3800.00
02470              -6.00     3800.00
02471              -2.00     3800.00
02472              -6.00     3800.00
02473              -6.00     3600.00
02474              -2.00     3600.00
02475              -6.00     3600.00
02476              -6.00     3600.00
02477              -6.00     3600.00
02478              -6.00     3400.00
02479              -8.00     3400.00
02480              -8.00     3400.00
02481              -2.00     3400.00
02482              -2.00     3400.00
02483              -8.00     3400.00
02484              -8.00     3200.00
02485              -8.00     3200.00
02486              -8.00     3400.00
02487              -2.00     3200.00
02488               0.00     3200.00
02489              -8.00     3200.00
02490              -8.00     3000.00
02491              -6.00     3000.00
02492              -6.00     2800.00
02493              -8.00     2800.00
02494              -6.00     2800.00
02495              -2.00     2800.00
02496              -6.00     2800.00
02497             -10.00     2800.00
02498              -6.00     2600.00
02499              -2.00     2400.00
02500              -6.00     2600.00
02501              -6.00     2400.00
02502              -2.00     2400.00
02503              -4.00     2200.00
02504              -6.00     2400.00
02505              -6.00     2200.00
02506              -4.00     2000.00
02507              -2.00     2000.00
02508              -6.00     2000.00
02509              -2.00     1800.00
02510              -4.00     1800.00
02511              -6.00     1800.00
02512              -6.00     1600.00
02513              -2.00     1600.00
02514              -2.00     1600.00
02515              -2.00     1600.00
02516              -2.00     1600.00
02517              -6.00     1400.00
02518              -6.00     1400.00
02519              -4.00     1400.00
02520               0.00     1200.00
02521              -2.00     1200.00
02522              -2.00     1200.00
02523              -8.00     1200.00
02524              -4.00     1000.00
02525              -2.00     1000.00
02526              -2.00      800.00
02527              -2.00      800.00
02528               0.00      800.00
02529              -4.00      800.00
02530              -6.00      800.00
02531              -6.00      400.00
02532              -2.00      400.00
02533               0.00      400.00
02534              -2.00      400.00
02535              -6.00      400.00
02536              -2.00      200.00
02537               0.00      200.00
02538               0.00        0.00
02539               4.00        0.00
02540               8.00        0.00
02541              -6.00        0.00
02542             -10.00        0.00
02543              -6.00     -400.00
02544               2.00     -400.00
02545              22.00     -400.00
02546             104.00     -400.00
02547             138.00     -600.00
02548            -176.00     -800.00
02549            -254.00     -800.00
02550              42.00     -600.00
02551             246.00     -600.00
02552             246.00     -800.00
02553            -254.00    -1000.00
02554            -254.00     -800.00
02555             246.00    -1200.00
02556             246.00    -1000.00
02557            -254.00    -1200.00
02558            -198.00    -1200.00
02559             246.00    -1400.00
02560             116.00    -1400.00
02561             -32.00    -1600.00
02562            -150.00    -1600.00
02563            -182.00    -1400.00
02564             186.00    -1800.00
02565             246.00    -1600.00
02566            -224.00    -1600.00
02567            -234.00    -2000.00
02568             134.00    -2000.00
02569             152.00    -2000.00
02570               2.00    -2000.00
02571            -110.00    -2200.00
02572            -110.00    -2000.00
02573              96.00    -2200.00
02574             156.00    -2200.00
02575            -128.00    -2400.00
02576            -102.00    -2400.00
02577              80.00    -2400.00
02578              48.00    -2400.00
02579             -26.00    -2400.00
02580             -10.00    -2400.00
02581              -8.00    -2600.00
02582              16.00    -2800.00
02583              16.00    -2800.00
02584             -46.00    -2800.00
02585             -16.00    -3000.00
02586              38.00    -2800.00
02587              28.00    -3000.00
02588             -18.00    -3000.00
02589             -26.00    -3000.00
02590              -6.00    -3000.00
02591              26.00    -3200.00
02592              10.00    -3200.00
02593             -24.00    -3000.00
02594             -12.00    -3000.00
02595              22.00    -3600.00
02596               2.00    -3200.00
02597             -26.00    -3400.00
02598               4.00    -3200.00
02599              22.00    -3600.00
02600               0.00    -3400.00
02601              -8.00    -3600.00
02602              -8.00    -3600.00
02603              -8.00    -3600.00
02604               6.00    -3600.00
02605               8.00    -3600.00
02606               0.00    -3800.00
02607              -8.00    -3600.00
02608              -2.00    -3600.00
02609               2.00    -3800.00
02610               0.00    -3800.00
02611             -10.00    -3600.00
02612               0.00    -3800.00
02613               8.00    -3800.00
02614               0.00    -3800.00
02615              -4.00    -3800.00
02616              -2.00    -3800.00
02617               0.00    -3800.00
02618              -2.00    -3800.00
02619               0.00    -3800.00
02620               0.00    -4000.00
02621               0.00    -3800.00
02622              -6.00    -3800.00
02623              -6.00    -4000.00
02624               0.00    -4000.00
02625               0.00    -4000.00
02626              -2.00    -4000.00
02627               2.00    -4000.00
02628               0.00    -4000.00
02629              -6.00    -4000.00
02630               0.00    -4000.00
02631               0.00    -4000.00
02632              -2.00    -4000.00
02633               0.00    -4000.00
02634               4.00    -4000.00
02635               0.00    -4000.00
02636              -4.00    -4000.00
02637              -6.00    -4000.00
02638               2.00    -4000.00
02639               6.00    -4000.00
02640               0.00    -4000.00
02641              -2.00    -4000.00
02642              -4.00    -3800.00
02643              -2.00    -4000.00
02644               0.00    -4000.00
02645               8.00    -4000.00
02646               2.00    -4000.00
02647               0.00    -3800.00
02648              -2.00    -3800.00
02649              -2.00    -3800.00
02650              -2.00    -3800.00
02651               2.00    -3800.00
02652               4.00    -3800.00
02653               0.00    -3800.00
02654              -2.00    -3600.00
02655               0.00    -3800.00
02656              -2.00    -3600.00
02657              -2.00    -3600.00
02658               2.00    -3600.00
02659               4.00    -3600.00
02660               6.00    -3600.00
02661               0.00    -3600.00
02662              -2.00    -3400.00
02663               0.00    -3600.00
02664              -2.00    -3400.00
02665               0.00    -3200.00
02666               4.00    -3200.00
02667               0.00    -3200.00
02668              -2.00    -3200.00
02669              -2.00    -3200.00
02670              -2.00    -3200.00
02671               0.00    -3200.00
02672               2.00    -3200.00
02673               2.00    -3000.00
02674               0.00    -3000.00
02675              -8.00    -3000.00
02676              -6.00    -3000.00
02677              -2.00    -3000.00
02678               0.00    -2800.00
02679               0.00    -2800.00
02680               0.00    -2800.00
02681              -2.00    -2800.00
02682              -6.00    -2800.00
02683              -2.00    -2800.00
02684              -2.00    -2600.00
02685               0.00    -2600.00
02686              -2.00    -2600.00
02687              -2.00    -2400.00
02688               0.00    -2400.00
02689              -4.00    -2200.00
02690              -2.00    -2400.00
02691               0.00    -2200.00
02692               0.00    -2000.00
02693               0.00    -2200.00
02694              -2.00    -2000.00
02695              -4.00    -2000.00
02696              -6.00    -2000.00
02697              -4.00    -2000.00
02698               0.00    -1800.00
02699               0.00    -1800.00
02700               0.00    -1600.00
02701               0.00    -1600.00
02702              -2.00    -1400.00
02703              -2.00    -1400.00
02704              -2.00    -1000.00
02705               0.00    -1400.00
02706               0.00    -1200.00
02707              -2.00    -1000.00
02708              -2.00    -1200.00
02709              -2.00    -1000.00
02710              -2.00    -1000.00
02711              -2.00     -800.00
02712               0.00     -800.00
02713               2.00     -800.00
02714              -2.00     -800.00
02715              -2.00     -600.00
02716              -2.00     -600.00
02717              -2.00     -600.00
02718              -2.00     -400.00
02719              -4.00     -400.00
02720               2.00     -400.00
02721               0.00     -200.00
02722              -2.00        0.00
02723              -2.00     -200.00
02724              -2.00        0.00
02725              -2.00        0.00
02726              -6.00        0.00
02727               0.00      200.00
02728               6.00      200.00
02729               6.00      400.00
02730               0.00      200.00
02731               0.00      400.00
02732               2.00      400.00
02733              -2.00      400.00
02734              -2.00      600.00
02735               0.00      800.00
02736              10.00      800.00
02737              96.00      800.00
02738             182.00     1000.00
02739            -166.00      800.00
02740            -254.00     1000.00
02741              48.00     1000.00
02742             246.00     1200.00
02743             246.00     1400.00
02744            -254.00      800.00
02745            -254.00     1400.00
02746             246.00     1600.00
02747             230.00     1400.00
02748            -254.00     1200.00
02749             -34.00     1800.00
02750             246.00     1600.00
02751             -86.00     1600.00
02752            -138.00     1800.00
02753              56.00     2000.00
02754            -146.00     1600.00
02755              70.00     2000.00
02756             234.00     2000.00
02757            -200.00     2000.00
02758            -122.00     2000.00
02759             150.00     2400.00
02760             -24.00     2000.00
02761               4.00     2400.00
02762              56.00     2400.00
02763            -182.00     2400.00
02764              62.00     2600.00
02765             200.00     2600.00
02766            -200.00     2400.00
02767             -74.00     2800.00
02768             178.00     2800.00
02769             -62.00     2600.00
02770             -32.00     2800.00
02771              54.00     2800.00
02772             -88.00     3000.00
02773              26.00     3200.00
02774              62.00     3200.00
02775             -76.00     3200.00
02776              24.00     3200.00
02777               2.00     3200.00
02778             -48.00     3200.00
02779              58.00     3400.00
02780             -14.00     3400.00
02781             -56.00     3200.00
02782              48.00     3600.00
02783              -8.00     3400.00
02784             -34.00     3400.00
02785              26.00     3600.00
02786              -8.00     3600.00
02787             -16.00     3400.00
02788              -4.00     3800.00
02789              -4.00     3600.00
02790              18.00     3800.00
02791              -6.00     4000.00
02792             -26.00     3800.00
02793              10.00     3800.00
02794              -2.00     3800.00
02795             -22.00     3800.00
02796               6.00     4000.00
02797               8.00     4000.00
02798             -22.00     4000.00
02799              -2.00     4000.00
02800               8.00     4000.00
02801             -10.00     4000.00
02802             -10.00     4200.00
02803               0.00     4200.00
02804               2.00     4000.00
02805               0.00     4200.00
02806             -24.00     4000.00
02807             -10.00     4200.00
02808               6.00     4200.00
02809              -8.00     4200.00
02810               0.00     4000.00
02811               8.00     4200.00
02812             -14.00     4000.00
02813             -14.00     4200.00
02814              -6.00     4200.00
02815              -8.00     4200.00
02816              -2.00     4400.00
02817              -2.00     4400.00
02818              -8.00     4400.00
02819              -6.00     4200.00
02820             -10.00     4200.00
02821             -10.00     4400.00
02822               0.00     4400.00
02823              -2.00     4400.00
02824              -8.00     4400.00
02825              -4.00     4200.00
02826              -8.00     4200.00
02827              -8.00     4400.00
02828               0.00     4400.00
02829              -2.00     4200.00
02830              -8.00     4200.00
02831              -2.00     4200.00
02832              -2.00     4200.00
02833              -6.00     4200.00
02834             -10.00     4400.00
02835              -6.00     4400.00
02836               0.00     4200.00
02837              -8.00     4200.00
02838              -8.00     4200.00
02839              -2.00     4200.00
02840              -2.00     4200.00
02841             -10.00     4000.00
02842              -6.00     4200.00
02843              -2.00     4000.00
02844              -2.00     4000.00
02845              -8.00     4000.00
02846              -8.00     4000.00
02847              -6.00     4000.00
02848              -6.00     4000.00
02849              -6.00     4000.00
02850               0.00     4000.00
02851              -2.00     4000.00
02852              -8.00     3800.00
02853              -6.00     4000.00
02854              -6.00     3600.00
02855              -6.00     3600.00
02856              -2.00     3600.00
02857               0.00     3600.00
02858              -8.00     3600.00
02859              -6.00     3600.00
02860              -6.00     3600.00
02861              -6.00     3600.00
02862              -2.00     3600.00
02863              -2.00     3600.00
02864              -4.00     3400.00
02865              -8.00     3400.00
02866             -10.00     3200.00
02867              -8.00     3200.00
02868              -2.00     3400.00
02869              -8.00     3200.00
02870              -4.00     3200.00
02871              -2.00     3200.00
02872              -6.00     3200.00
02873             -10.00     3000.00
02874              -6.00     3000.00
02875              -8.00     2800.00
02876              -2.00     2800.00
02877              -6.00     2800.00
02878              -6.00     2800.00
02879              -2.00     2600.00
02880             -10.00     2600.00
02881              -8.00     2600.00
02882              -2.00     2600.00
02883              -2.00     2400.00
02884              -2.00     2400.00
02885              -6.00     2400.00
02886              -8.00     2400.00
02887             -10.00     2200.00
02888              -8.00     2000.00
02889              -2.00     2200.00
02890              -2.00     2000.00
02891              -2.00     2000.00
02892              -6.00     2000.00
02893              -6.00     1800.00
02894              -8.00     1800.00
02895              -2.00     1800.00
02896               0.00     1600.00
02897               0.00     1600.00
02898              -4.00     1600.00
02899              -8.00     1400.00
02900              -6.00     1400.00
02901              -6.00     1200.00
02902              -6.00     1200.00
02903              -2.00     1200.00
02904               0.00     1200.00
02905              -2.00     1200.00
02906              -6.00     1000.00
02907              -2.00     1000.00
02908              -2.00     1000.00
02909              -4.00      800.00
02910               0.00     1000.00
02911               0.00      800.00
02912              -2.00      800.00
02913              -6.00      600.00
02914              -2.00      400.00
02915              -2.00      600.00
02916               0.00      400.00
02917              -2.00      200.00
02918              -6.00      200.00
02919               0.00      200.00
02920               2.00      200.00
02921               0.00      200.00
02922               6.00        0.00
02923               8.00        0.00
02924               0.00        0.00
02925              -6.00     -400.00
02926              -8.00     -200.00
02927               0.00     -400.00
02928              20.00     -400.00
02929              96.00     -400.00
02930             150.00     -600.00
02931            -144.00     -800.00
02932            -254.00     -800.00
02933             -12.00     -600.00
02934             246.00     -800.00
02935             246.00    -1000.00
02936            -254.00    -1000.00
02937            -254.00     -800.00
02938             246.00    -1200.00
02939             246.00    -1200.00
02940            -254.00    -1000.00
02941            -244.00    -1200.00
02942             246.00    -1400.00
02943             136.00    -1400.00
02944             -26.00    -1600.00
02945            -146.00    -1600.00
02946            -202.00    -1600.00
02947             158.00    -1600.00
02948             246.00    -1600.00
02949            -182.00    -1600.00
02950            -254.00    -2000.00
02951              96.00    -2000.00
02952             154.00    -1800.00
02953              14.00    -2000.00
02954             -94.00    -2200.00
02955            -110.00    -2000.00
02956              78.00    -2200.00
02957             154.00    -2400.00
02958            -120.00    -2400.00
02959            -106.00    -2200.00
02960              82.00    -2600.00
02961              64.00    -2400.00
02962             -38.00    -2400.00
02963             -32.00    -2400.00
02964             -22.00    -2400.00
02965              30.00    -2800.00
02966              40.00    -2600.00
02967             -40.00    -2800.00
02968             -34.00    -2800.00
02969              22.00    -3000.00
02970              32.00    -3000.00
02971             -10.00    -3000.00
02972             -22.00    -3200.00
02973             -10.00    -3000.00
02974              22.00    -3200.00
02975              14.00    -3200.00
02976             -20.00    -3000.00
02977             -10.00    -3200.00
02978              24.00    -3200.00
02979               2.00    -3200.00
02980             -26.00    -3200.00
02981              -2.00    -3200.00
02982              16.00    -3200.00
02983               2.00    -3400.00
02984              -2.00    -3400.00
02985              -8.00    -3600.00
02986             -10.00    -3600.00
02987               2.00    -3600.00
02988              10.00    -3600.00
02989               0.00    -3600.00
02990              -2.00    -3600.00
02991              -4.00    -3800.00
02992               0.00    -3600.00
02993               2.00    -3600.00
02994             -10.00    -3600.00
02995               2.00    -3800.00
02996              10.00    -3800.00
02997              -2.00    -4000.00
02998             -10.00    -4000.00
02999              -2.00    -3800.00
03000               0.00    -3800.00
03001               0.00    -4000.00
03002               0.00    -4000.00
03003               2.00    -3800.00
03004               0.00    -3800.00
03005              -6.00    -4000.00
03006              -8.00    -4000.00
03007               0.00    -4000.00
03008              -2.00    -4000.00
03009               0.00    -4000.00
03010               6.00    -4000.00
03011               0.00    -4000.00
03012             -10.00    -4000.00
03013              -2.00    -4200.00
03014               0.00    -4000.00
03015               2.00    -4000.00
03016               0.00    -4000.00
03017               0.00    -4000.00
03018              -2.00    -4000.00
03019              -2.00    -3800.00
03020              -6.00    -4000.00
03021               0.00    -3800.00
03022               2.00    -4000.00
03023               0.00    -3800.00
03024               0.00    -3800.00
03025               0.00    -3800.00
03026              -6.00    -4000.00
03027               0.00    -3800.00
03028               6.00    -3800.00
03029               0.00    -3800.00
03030               0.00    -3800.00
03031              -2.00    -3800.00
03032              -4.00    -3800.00
03033              -2.00    -3800.00
03034              -2.00    -3800.00
03035               2.00    -3800.00
03036               0.00    -3800.00
03037               0.00    -3800.00
03038               0.00    -3800.00
03039              -2.00    -3600.00
03040              -2.00    -3600.00
03041               2.00    -3600.00
03042               2.00    -3600.00
03043               0.00    -3600.00
03044              -2.00    -3600.00
03045              -2.00    -3600.00
03046               0.00    -3400.00
03047              -2.00    -3600.00
03048               0.00    -3400.00
03049               2.00    -3400.00
03050               0.00    -3200.00
03051              -2.00    -3400.00
03052              -2.00    -3200.00
03053              -4.00    -3200.00
03054               0.00    -3200.00
03055               2.00    -3200.00
03056               0.00    -3000.00
03057               0.00    -3200.00
03058              -2.00    -3000.00
03059              -2.00    -2800.00
03060               0.00    -3000.00
03061               0.00    -2800.00
03062               2.00    -3000.00
03063               0.00    -3000.00
03064              -2.00    -2800.00
03065              -6.00    -2800.00
03066              -6.00    -2800.00
03067               0.00    -2400.00
03068               0.00    -2600.00
03069               0.00    -2400.00
03070              -2.00    -2400.00
03071              -2.00    -2400.00
03072               0.00    -2400.00
03073              -2.00    -2200.00
03074              -8.00    -2200.00
03075              -6.00    -2200.00
03076               2.00    -2000.00
03077               6.00    -2200.00
03078               0.00    -2000.00
03079              -8.00    -2000.00
03080             -16.00    -2000.00
03081               0.00    -2000.00
03082              14.00    -1600.00
03083               0.00    -1600.00
03084             -18.00    -1600.00
03085             -14.00    -1600.00
03086              10.00    -1400.00
03087              16.00    -1400.00
03088             -10.00    -1400.00
03089             -22.00    -1200.00
03090              -2.00    -1200.00
03091              14.00    -1000.00
03092               8.00    -1200.00
03093              -6.00    -1000.00
03094             -10.00    -1200.00
03095             -14.00     -800.00
03096               0.00     -800.00
03097               8.00     -600.00
03098              10.00     -600.00
03099              -6.00     -600.00
03100             -14.00     -600.00
03101              -8.00     -600.00
03102               2.00     -400.00
03103               0.00     -200.00
03104               0.00     -400.00
03105               8.00     -400.00
03106              -2.00     -200.00
03107             -10.00        0.00
03108              -8.00        0.00
03109               2.00        0.00
03110               8.00        0.00
03111               2.00      200.00
03112              -8.00      400.00
03113              -8.00      200.00
03114               6.00      400.00
03115              14.00      400.00
03116               8.00      400.00
03117              -4.00      400.00
03118             -10.00      400.00
03119              -2.00      800.00
03120              94.00      800.00
03121             200.00     1000.00
03122            -118.00      800.00
03123            -254.00      800.00
03124             -26.00     1000.00
03125             246.00     1200.00
03126             246.00     1400.00
03127            -254.00      800.00
03128            -254.00     1200.00
03129             246.00     1600.00
03130             246.00     1200.00
03131            -254.00     1200.00
03132            -102.00     1600.00
03133             246.00     1600.00
03134             -54.00     1400.00
03135            -150.00     1800.00
03136              64.00     1800.00
03137            -150.00     1800.00
03138              40.00     1800.00
03139             246.00     2000.00
03140            -166.00     1800.00
03141            -142.00     2000.00
03142             138.00     2400.00
03143             -16.00     2200.00
03144             -16.00     2200.00
03145              70.00     2600.00
03146            -170.00     2200.00
03147              36.00     2400.00
03148             206.00     2600.00
03149            -192.00     2400.00
03150             -98.00     2800.00
03151             186.00     2800.00
03152             -48.00     2600.00
03153             -54.00     2800.00
03154              58.00     3000.00
03155             -74.00     2800.00
03156              16.00     3200.00
03157              64.00     3200.00
03158             -86.00     3200.00
03159              14.00     3200.00
03160              16.00     3200.00
03161             -50.00     3200.00
03162              54.00     3400.00
03163              -8.00     3400.00
03164             -66.00     3400.00
03165              38.00     3400.00
03166               0.00     3600.00
03167             -34.00     3400.00
03168              30.00     3600.00
03169              -2.00     3600.00
03170             -20.00     3600.00
03171             -10.00     3600.00
03172             -10.00     3600.00
03173              16.00     3600.00
03174               4.00     3600.00
03175             -24.00     3600.00
03176               4.00     3800.00
03177              -2.00     3800.00
03178             -22.00     3800.00
03179               6.00     4000.00
03180               6.00     4000.00
03181             -22.00     4000.00
03182               0.00     4000.00
03183              14.00     4000.00
03184             -16.00     3800.00
03185             -22.00     4200.00
03186              -2.00     4200.00
03187               8.00     4000.00
03188               8.00     4200.00
03189             -16.00     4200.00
03190             -16.00     4000.00
03191               0.00     4200.00
03192             -10.00     4200.00
03193             -10.00     4200.00
03194               8.00     4400.00
03195              -6.00     4200.00
03196             -10.00     4200.00
03197              -4.00     4200.00
03198              -8.00     4200.00
03199              -8.00     4400.00
03200              -2.00     4200.00
03201              -2.00     4400.00
03202              -2.00     4200.00
03203              -6.00     4200.00
03204             -10.00     4200.00
03205              -2.00     4200.00
03206              -6.00     4200.00
03207             -10.00     4200.00
03208              -2.00     4400.00
03209             -10.00     4200.00
03210             -14.00     4200.00
03211              -2.00     4400.00
03212              -2.00     4400.00
03213              -6.00     4200.00
03214              -8.00     4400.00
03215              -2.00     4200.00
03216              -8.00     4200.00
03217             -16.00     4200.00
03218             -12.00     4400.00
03219              -2.00     4200.00
03220               0.00     4200.00
03221              -2.00     4200.00
03222              -6.00     4200.00
03223              -6.00     4200.00
03224             -14.00     4200.00
03225              -6.00     4200.00
03226               2.00     4000.00
03227              -2.00     4200.00
03228              -6.00     4000.00
03229             -10.00     4000.00
03230             -10.00     4000.00
03231              -2.00     4000.00
03232              -2.00     4000.00
03233              -2.00     4000.00
03234              -2.00     4000.00
03235              -6.00     3800.00
03236              -6.00     3800.00
03237              -6.00     3800.00
03238              -8.00     3800.00
03239              -6.00     3600.00
03240               0.00     3800.00
03241               0.00     3600.00
03242              -6.00     3600.00
03243              -6.00     3600.00
03244             -10.00     3600.00
03245              -8.00     3600.00
03246              -2.00     3400.00
03247               0.00     3600.00
03248              -2.00     3400.00
03249              -6.00     3400.00
03250              -8.00     3200.00
03251              -6.00     3400.00
03252              -6.00     3200.00
03253              -2.00     3200.00
03254              -2.00     3200.00
03255              -6.00     3200.00
03256              -6.00     3200.00
03257              -4.00     2800.00
03258              -4.00     3000.00
03259              -8.00     2800.00
03260              -6.00     2800.00
03261              -4.00     2600.00
03262              -2.00     2800.00
03263              -8.00     2600.00
03264              -6.00     2600.00
03265              -2.00     2600.00
03266               0.00     2400.00
03267              -6.00     2400.00
03268              -2.00     2200.00
03269              -6.00     2000.00
03270              -8.00     2200.00
03271              -6.00     2000.00
03272              -4.00     2000.00
03273              -6.00     2000.00
03274              -6.00     2000.00
03275              -2.00     1800.00
03276              -4.00     1600.00
03277              -6.00     1800.00
03278              -6.00     1800.00
03279              -4.00     1600.00
03280              -2.00     1600.00
03281              -4.00     1600.00
03282              -6.00     1600.00
03283              -4.00     1400.00
03284              -6.00     1600.00
03285              -4.00     1200.00
03286              -2.00     1200.00
03287               0.00     1200.00
03288              -2.00     1000.00
03289              -6.00     1000.00
03290              -6.00     1000.00
03291              -2.00     1000.00
03292              -2.00      800.00
03293              -2.00      800.00
03294              -2.00      800.00
03295              -2.00      800.00
03296              -6.00      600.00
03297              -4.00      600.00
03298               0.00      400.00
03299               0.00      400.00
03300              -8.00      400.00
03301              -8.00      400.00
03302               0.00      200.00
03303               6.00      200.00
03304               0.00      200.00
03305               0.00        0.00
03306               6.00        0.00
03307               0.00        0.00
03308              -8.00     -200.00
03309              -6.00     -400.00
03310               0.00     -400.00
03311              18.00     -200.00
03312              90.00     -400.00
03313             152.00     -600.00
03314            -114.00     -800.00
03315            -254.00     -800.00
03316             -74.00     -400.00
03317             246.00     -600.00
03318             246.00    -1000.00
03319            -254.00     -800.00
03320            -254.00     -600.00
03321             246.00    -1200.00
03322             246.00    -1000.00
03323            -254.00    -1200.00
03324            -254.00    -1200.00
03325             246.00    -1400.00
03326             152.00    -1400.00
03327             -18.00    -1600.00
03328            -136.00    -1600.00
03329            -214.00    -1400.00
03330             128.00    -1600.00
03331             246.00    -1800.00
03332            -154.00    -1600.00
03333            -254.00    -1600.00
03334              76.00    -2000.00
03335             162.00    -1800.00
03336              20.00    -2000.00
03337             -86.00    -2200.00
03338            -116.00    -2200.00
03339              64.00    -2200.00
03340             162.00    -2400.00
03341            -104.00    -2400.00
03342            -120.00    -2200.00
03343              72.00    -2600.00
03344              74.00    -2400.00
03345             -38.00    -2400.00
03346             -38.00    -2600.00
03347             -24.00    -2400.00
03348              26.00    -2800.00
03349              42.00    -2800.00
03350             -34.00    -2800.00
03351             -42.00    -3000.00
03352              18.00    -2800.00
03353              32.00    -2800.00
03354              -8.00    -3000.00
03355             -22.00    -3000.00
03356             -10.00    -3000.00
03357              16.00    -3200.00
03358              14.00    -3200.00
03359             -18.00    -3200.00
03360             -16.00    -3200.00
03361              22.00    -3400.00
03362               8.00    -3200.00
03363             -26.00    -3200.00
03364              -4.00    -3400.00
03365              16.00    -3200.00
03366               6.00    -3600.00
03367              -4.00    -3600.00
03368              -8.00    -3600.00
03369             -10.00    -3600.00
03370               2.00    -3600.00
03371               8.00    -3600.00
03372               2.00    -3600.00
03373              -2.00    -3600.00
03374              -2.00    -3600.00
03375               2.00    -3600.00
03376               0.00    -3600.00
03377             -10.00    -3800.00
03378               0.00    -3800.00
03379              14.00    -3800.00
03380               0.00    -3800.00
03381             -10.00    -3800.00
03382              -6.00    -3800.00
03383               0.00    -4000.00
03384               0.00    -3800.00
03385               4.00    -3800.00
03386               2.00    -3800.00
03387               0.00    -4000.00
03388              -4.00    -4000.00
03389              -8.00    -4000.00
03390               0.00    -4000.00
03391               2.00    -4000.00
03392               0.00    -4000.00
03393               2.00    -4000.00
03394               0.00    -4000.00
03395              -8.00    -4000.00
03396              -4.00    -4000.00
03397               2.00    -4000.00
03398               0.00    -3800.00
03399               0.00    -4000.00
03400               0.00    -4000.00
03401              -2.00    -4000.00
03402              -2.00    -4000.00
03403              -2.00    -4000.00
03404               0.00    -3800.00
03405               2.00    -4000.00
03406               0.00    -3800.00
03407              -2.00    -4000.00
03408              -2.00    -4000.00
03409              -6.00    -4000.00
03410               0.00    -3800.00
03411               0.00    -3800.00
03412               0.00    -3800.00
03413               0.00    -4000.00
03414              -2.00    -3800.00
03415              -4.00    -3800.00
03416               0.00    -3800.00
03417               0.00    -3800.00
03418               0.00    -3800.00
03419               0.00    -3600.00
03420               0.00    -3600.00
03421               0.00    -3600.00
03422               0.00    -3800.00
03423              -2.00    -3600.00
03424               0.00    -3600.00
03425               2.00    -3600.00
03426               6.00    -3600.00
03427               2.00    -3600.00
03428               0.00    -3600.00
03429              -4.00    -3400.00
03430              -2.00    -3600.00
03431               0.00    -3200.00
03432               4.00    -3400.00
03433               0.00    -3200.00
03434               0.00    -3200.00
03435               0.00    -3200.00
03436              -2.00    -3200.00
03437               0.00    -3200.00
03438               0.00    -3200.00
03439               0.00    -3000.00
03440               0.00    -3000.00
03441               0.00    -3000.00
03442              -2.00    -3000.00
03443               0.00    -3000.00
03444              -2.00    -2800.00
03445               0.00    -2800.00
03446               2.00    -2800.00
03447               0.00    -2800.00
03448               0.00    -2800.00
03449              -2.00    -2600.00
03450               0.00    -2600.00
03451              -2.00    -2400.00
03452               0.00    -2400.00
03453               2.00    -2400.00
03454               0.00    -2400.00
03455              -2.00    -2400.00
03456              -6.00    -2400.00
03457              -2.00    -2200.00
03458               0.00    -2200.00
03459               0.00    -2200.00
03460              -2.00    -2000.00
03461               0.00    -2000.00
03462              -4.00    -2000.00
03463              -2.00    -1800.00
03464              -2.00    -2000.00
03465               2.00    -1600.00
03466               0.00    -1600.00
03467              -2.00    -1600.00
03468              -6.00    -1600.00
03469              -4.00    -1600.00
03470              -2.00    -1400.00
03471               0.00    -1400.00
03472               0.00    -1200.00
03473              -2.00    -1400.00
03474              -2.00    -1200.00
03475              -2.00    -1000.00
03476              -4.00    -1200.00
03477              -2.00     -800.00
03478              -2.00    -1000.00
03479               0.00     -800.00
03480              -2.00     -800.00
03481              -2.00     -600.00
03482              -2.00     -800.00
03483              -2.00     -600.00
03484              -2.00     -600.00
03485               0.00     -400.00
03486              -2.00     -400.00
03487               0.00     -400.00
03488              -2.00     -200.00
03489              -6.00     -400.00
03490              -2.00        0.00
03491               0.00        0.00
03492              -6.00      200.00
03493              -2.00        0.00
03494               6.00      200.00
03495               0.00      200.00
03496               2.00      400.00
03497               2.00      400.00
03498               2.00      400.00
03499               0.00      600.00
03500              -8.00      400.00
03501              -2.00      800.00
03502               8.00      800.00
03503              78.00      800.00
03504             192.00     1000.00
03505             -86.00      800.00
03506            -254.00     1000.00
03507             -84.00     1000.00
03508             246.00     1200.00
03509             246.00     1400.00
03510            -254.00     1000.00
03511            -254.00     1200.00
03512             246.00     1600.00
03513             246.00     1400.00
03514            -254.00     1200.00
03515            -166.00     1800.00
03516             246.00     1600.00
03517             -30.00     1200.00
03518            -170.00     1800.00
03519              66.00     2000.00
03520            -130.00     1800.00
03521              30.00     1800.00
03522             246.00     2000.00
03523            -152.00     2000.00
03524            -170.00     2000.00
03525             140.00     2400.00
03526               6.00     2000.00
03527             -22.00     2400.00
03528              72.00     2200.00
03529            -170.00     2400.00
03530               2.00     2600.00
03531             224.00     2600.00
03532            -154.00     2400.00
03533            -126.00     2800.00
03534             178.00     2800.00
03535             -32.00     2600.00
03536             -64.00     2800.00
03537              64.00     2800.00
03538             -76.00     2800.00
03539               0.00     3000.00
03540              74.00     3200.00
03541             -78.00     3000.00
03542              14.00     3200.00
03543              20.00     3200.00
03544             -58.00     3200.00
03545              46.00     3400.00
03546               2.00     3400.00
03547             -68.00     3200.00
03548              42.00     3400.00
03549              10.00     3400.00
03550             -40.00     3400.00
03551              18.00     3600.00
03552              -8.00     3600.00
03553             -22.00     3600.00
03554              -2.00     3800.00
03555              -2.00     3600.00
03556              16.00     3600.00
03557              -8.00     3800.00
03558             -38.00     3800.00
03559               0.00     3600.00
03560              10.00     4000.00
03561             -14.00     3800.00
03562               6.00     4000.00
03563               6.00     4000.00
03564             -22.00     4000.00
03565             -10.00     4000.00
03566               6.00     4200.00
03567             -10.00     4000.00
03568              -8.00     4200.00
03569               0.00     4200.00
03570               0.00     4200.00
03571              -2.00     4200.00
03572             -18.00     4200.00
03573             -10.00     4200.00
03574               8.00     4200.00
03575              -8.00     4400.00
03576              -8.00     4000.00
03577               8.00     4200.00
03578             -10.00     4400.00
03579             -16.00     4200.00
03580               0.00     4200.00
03581               0.00     4400.00
03582               0.00     4200.00
03583              -6.00     4400.00
03584             -10.00     4400.00
03585              -6.00     4200.00
03586              -8.00     4400.00
03587             -10.00     4200.00
03588              -2.00     4400.00
03589              -2.00     4400.00
03590             -10.00     4200.00
03591              -2.00     4200.00
03592              -6.00     4400.00
03593              -8.00     4200.00
03594               0.00     4400.00
03595              -8.00     4200.00
03596             -16.00     4200.00
03597              -8.00     4400.00
03598               4.00     4400.00
03599               2.00     4200.00
03600             -10.00     4200.00
03601             -18.00     4200.00
03602              -6.00     4200.00
03603               0.00     4200.00
03604              -2.00     4200.00
03605               0.00     4200.00
03606              -4.00     4200.00
03607             -14.00     4000.00
03608             -10.00     4000.00
03609               0.00     4200.00
03610               0.00     4000.00
03611              -4.00     4000.00
03612              -8.00     4000.00
03613              -8.00     4000.00
03614              -6.00     4000.00
03615              -2.00     4000.00
03616              -6.00     4000.00
03617              -2.00     4000.00
03618              -6.00     4000.00
03619              -2.00     4000.00
03620              -4.00     3800.00
03621             -10.00     3800.00
03622              -8.00     3800.00
03623               0.00     3800.00
03624              -2.00     3600.00
03625              -6.00     3600.00
03626              -6.00     3600.00
03627              -6.00     3400.00
03628              -2.00     3600.00
03629              -2.00     3400.00
03630               0.00     3400.00
03631              -2.00     3400.00
03632              -8.00     3200.00
03633              -8.00     3200.00
03634               0.00     3400.00
03635              -2.00     3400.00
03636              -6.00     3200.00
03637              -2.00     3200.00
03638              -6.00     3200.00
03639              -8.00     3200.00
03640              -2.00     3000.00
03641              -6.00     3000.00
03642              -4.00     2800.00
03643              -6.00     2800.00
03644              -6.00     2800.00
03645              -4.00     2800.00
03646              -2.00     2800.00
03647              -6.00     2600.00
03648              -2.00     2600.00
03649              -4.00     2400.00
03650              -8.00     2400.00
03651              -2.00     2400.00
03652              -2.00     2400.00
03653              -8.00     2200.00
03654              -8.00     2200.00
03655              -2.00     2200.00
03656              -2.00     2000.00
03657              -2.00     2000.00
03658              -6.00     2000.00
03659              -2.00     1800.00
03660              -6.00     2000.00
03661              -6.00     1800.00
03662              -2.00     1800.00
03663              -2.00     1600.00
03664              -8.00     1600.00
03665              -6.00     1400.00
03666              -6.00     1400.00
03667              -6.00     1400.00
03668              -2.00     1200.00
03669              -2.00     1200.00
03670              -2.00     1200.00
03671              -6.00     1200.00
03672             -10.00     1000.00
03673              -6.00     1000.00
03674              -2.00     1000.00
03675              -2.00      800.00
03676              -2.00      800.00
03677              -2.00      800.00
03678              -4.00      600.00
03679              -6.00      600.00
03680              -6.00      400.00
03681              -2.00      400.00
03682               0.00      400.00
03683              -6.00      200.00
03684              -6.00      400.00
03685               0.00      200.00
03686               6.00        0.00
03687               0.00        0.00
03688               2.00        0.00
03689               6.00        0.00
03690               0.00        0.00
03691              -6.00        0.00
03692              -6.00     -200.00
03693               0.00     -200.00
03694              16.00     -400.00
03695              80.00     -400.00
03696             158.00     -400.00
03697             -82.00     -800.00
03698            -254.00     -800.00
03699            -130.00     -600.00
03700             246.00     -600.00
03701             246.00     -800.00
03702            -254.00    -1000.00
03703            -254.00     -800.00
03704             246.00    -1200.00
03705             246.00    -1000.00
03706            -254.00    -1200.00
03707            -254.00    -1000.00
03708             246.00    -1200.00
03709             174.00    -1400.00
03710             -10.00    -1400.00
03711            -122.00    -1600.00
03712            -218.00    -1400.00
03713             102.00    -1600.00
03714             246.00    -1800.00
03715            -120.00    -1600.00
03716            -254.00    -2000.00
03717              50.00    -2000.00
03718             172.00    -2000.00
03719              26.00    -2000.00
03720             -78.00    -2200.00
03721            -120.00    -2000.00
03722              48.00    -2200.00
03723             168.00    -2400.00
03724             -86.00    -2400.00
03725            -130.00    -2400.00
03726              62.00    -2600.00
03727              82.00    -2400.00
03728             -32.00    -2400.00
03729             -38.00    -2800.00
03730             -26.00    -2600.00
03731              22.00    -2600.00
03732              46.00    -2800.00
03733             -30.00    -2800.00
03734             -46.00    -2800.00
03735              16.00    -3000.00
03736              34.00    -2800.00
03737              -8.00    -3000.00
03738             -24.00    -3000.00
03739             -14.00    -3000.00
03740              16.00    -3000.00
03741              14.00    -3200.00
03742             -18.00    -3200.00
03743             -16.00    -3200.00
03744              20.00    -3200.00
03745               8.00    -3200.00
03746             -26.00    -3200.00
03747              -2.00    -3200.00
03748              16.00    -3400.00
03749               2.00    -3600.00
03750              -2.00    -3600.00
03751              -8.00    -3600.00
03752             -10.00    -3600.00
03753               4.00    -3600.00
03754               8.00    -3600.00
03755               2.00    -3600.00
03756               6.00    -3600.00
03757              -8.00    -3800.00
03758               2.00    -3800.00
03759              -2.00    -3600.00
03760              -8.00    -3800.00
03761             -10.00    -3800.00
03762              -6.00    -3800.00
03763              14.00    -3800.00
03764               6.00    -3800.00
03765              18.00    -4000.00
03766              -2.00    -3800.00
03767               0.00    -4000.00
03768              -2.00    -3800.00
03769              -8.00    -4000.00
03770             -16.00    -4000.00
03771              -2.00    -4000.00
03772               8.00    -4000.00
03773               8.00    -4000.00
03774               2.00    -3800.00
03775              -2.00    -3800.00
03776              16.00    -4000.00
03777               0.00    -4000.00
03778             -16.00    -4000.00
03779              -6.00    -4000.00
03780               0.00    -4000.00
03781              -2.00    -4000.00
03782               0.00    -3800.00
03783               2.00    -4000.00
03784              10.00    -4000.00
03785               0.00    -4000.00
03786              -8.00    -4000.00
03787               8.00    -4000.00
03788               6.00    -4000.00
03789              -8.00    -4000.00
03790             -10.00    -4000.00
03791              -2.00    -4000.00
03792              -4.00    -3800.00
03793               0.00    -3800.00
03794               0.00    -3800.00
03795               6.00    -4000.00
03796              10.00    -3800.00
03797               0.00    -3800.00
03798             -10.00    -3800.00
03799              -8.00    -3800.00
03800              -6.00    -4000.00
03801              -2.00    -3800.00
03802               0.00    -3800.00
03803               0.00    -3600.00
03804               6.00    -3600.00
03805               0.00    -3800.00
03806              -6.00    -3600.00
03807               2.00    -3600.00
03808               0.00    -3600.00
03809              -2.00    -3800.00
03810              -4.00    -3600.00
03811              -2.00    -3400.00
03812               0.00    -3600.00
03813               2.00    -3600.00
03814               2.00    -3600.00
03815               2.00    -3200.00
03816               0.00    -3400.00
03817              -6.00    -3200.00
03818              -6.00    -3200.00
03819              -6.00    -3200.00
03820               0.00    -3200.00
03821               0.00    -3200.00
03822               8.00    -3000.00
03823               0.00    -3200.00
03824              -2.00    -3000.00
03825              -2.00    -2800.00
03826               0.00    -2800.00
03827               2.00    -2800.00
03828              -2.00    -2800.00
03829              -2.00    -2800.00
03830               0.00    -2800.00
03831              -2.00    -2600.00
03832               0.00    -2600.00
03833               2.00    -2600.00
03834              -2.00    -2400.00
03835              -2.00    -2600.00
03836               2.00    -2400.00
03837               2.00    -2200.00
03838               0.00    -2400.00
03839              -6.00    -2200.00
03840              -2.00    -2200.00
03841               0.00    -2200.00
03842               0.00    -2000.00
03843               2.00    -2000.00
03844              -2.00    -2000.00
03845              -2.00    -2000.00
03846              -2.00    -2000.00
03847              -4.00    -2000.00
03848               0.00    -1600.00
03849               4.00    -1600.00
03850              -2.00    -1600.00
03851              -6.00    -1600.00
03852              -8.00    -1600.00
03853              -4.00    -1400.00
03854               2.00    -1400.00
03855               2.00    -1000.00
03856              -2.00    -1200.00
03857              -6.00    -1000.00
03858              -8.00    -1000.00
03859              -2.00     -800.00
03860               2.00     -800.00
03861               0.00    -1000.00
03862              -8.00     -800.00
03863             -10.00     -800.00
03864              -6.00     -800.00
03865               6.00     -600.00
03866               2.00     -600.00
03867              -8.00     -600.00
03868             -10.00     -400.00
03869              -2.00     -400.00
03870               0.00     -200.00
03871               2.00        0.00
03872              -4.00     -200.00
03873              -8.00        0.00
03874              -6.00        0.00
03875              -2.00        0.00
03876              -2.00      200.00
03877               6.00      200.00
03878               0.00      200.00
03879              -2.00      200.00
03880               2.00      400.00
03881              10.00      400.00
03882               4.00      400.00
03883              -8.00      800.00
03884             -10.00      600.00
03885               2.00      800.00
03886              74.00      800.00
03887             198.00     1000.00
03888             -54.00      800.00
03889            -254.00      800.00
03890            -154.00     1000.00
03891             246.00     1200.00
03892             246.00     1200.00
03893            -254.00      800.00
03894            -254.00     1200.00
03895             246.00     1600.00
03896             246.00     1200.00
03897            -254.00     1200.00
03898            -230.00     1800.00
03899             246.00     1600.00
03900              16.00     1400.00
03901            -178.00     1800.00
03902              62.00     2000.00
03903            -134.00     1800.00
03904               2.00     1800.00
03905             246.00     2000.00
03906            -102.00     2000.00
03907            -194.00     2000.00
03908             118.00     2200.00
03909              18.00     2200.00
03910             -26.00     2400.00
03911              82.00     2600.00
03912            -160.00     2400.00
03913             -24.00     2600.00
03914             232.00     2800.00
03915            -130.00     2600.00
03916            -152.00     2600.00
03917             168.00     3000.00
03918             -14.00     2600.00
03919             -68.00     2800.00
03920              72.00     2800.00
03921             -64.00     2800.00
03922             -22.00     3000.00
03923              72.00     3200.00
03924             -66.00     3000.00
03925              10.00     3200.00
03926              26.00     3200.00
03927             -64.00     3200.00
03928              38.00     3200.00
03929              16.00     3200.00
03930             -70.00     3200.00
03931              30.00     3400.00
03932              10.00     3400.00
03933             -38.00     3400.00
03934              22.00     3600.00
03935               2.00     3600.00
03936             -24.00     3400.00
03937             -10.00     3600.00
03938              -8.00     3600.00
03939              16.00     3600.00
03940               6.00     3800.00
03941             -30.00     3800.00
03942               0.00     3600.00
03943               4.00     3800.00
03944             -22.00     3800.00
03945              -2.00     3800.00
03946              10.00     4000.00
03947             -16.00     4000.00
03948              -6.00     4000.00
03949               8.00     4000.00
03950              -8.00     4000.00
03951             -18.00     4000.00
03952              -2.00     4200.00
03953               6.00     4200.00
03954               8.00     4200.00
03955             -10.00     4200.00
03956             -18.00     4000.00
03957              -2.00     4200.00
03958              -6.00     4200.00
03959              -2.00     4200.00
03960              14.00     4200.00
03961              -2.00     4200.00
03962             -16.00     4200.00
03963              -6.00     4200.00
03964               0.00     4200.00
03965               0.00     4400.00
03966               2.00     4200.00
03967              -2.00     4200.00
03968             -10.00     4000.00
03969             -14.00     4400.00
03970              -6.00     4200.00
03971               6.00     4400.00
03972               2.00     4200.00
03973              -8.00     4400.00
03974             -10.00     4200.00
03975              -8.00     4200.00
03976              -6.00     4200.00
03977               0.00     4200.00
03978              -6.00     4200.00
03979             -10.00     4200.00
03980              -8.00     4400.00
03981               6.00     4200.00
03982               4.00     4200.00
03983             -14.00     4400.00
03984             -16.00     4200.00
03985              -8.00     4200.00
03986               0.00     4200.00
03987              -6.00     4200.00
03988              -6.00     4200.00
03989              -6.00     4200.00
03990              -4.00     4200.00
03991              -4.00     4000.00
03992              -2.00     4200.00
03993              -6.00     4000.00
03994             -10.00     4000.00
03995             -10.00     4000.00
03996              -6.00     4200.00
03997              -2.00     3800.00
03998               0.00     4000.00
03999              -6.00     4000.00
04000             -10.00     4000.00
04001             -12.00     3800.00
04002             -10.00     3800.00
04003              -2.00     3800.00
04004              -4.00     3800.00
04005              -8.00     3600.00
04006               0.00     3600.00
04007              -2.00     3600.00
04008              -8.00     3600.00
04009              -6.00     3600.00
04010              -2.00     3600.00
04011              -6.00     3400.00
04012              -6.00     3400.00
04013              -4.00     3600.00
04014              -6.00     3400.00
04015              -8.00     3200.00
04016              -8.00     3400.00
04017              -6.00     3400.00
04018              -2.00     3200.00
04019              -2.00     3200.00
04020              -2.00     3200.00
04021              -6.00     3200.00
04022              -8.00     3000.00
04023              -2.00     2800.00
04024              -2.00     3000.00
04025              -2.00     2800.00
04026              -6.00     2800.00
04027              -2.00     2800.00
04028              -6.00     2800.00
04029              -6.00     2800.00
04030              -8.00     2600.00
04031              -2.00     2600.00
04032              -2.00     2600.00
04033              -2.00     2400.00
04034              -2.00     2600.00
04035              -4.00     2400.00
04036              -8.00     2400.00
04037              -8.00     2200.00
04038              -4.00     2000.00
04039              -2.00     2000.00
04040              -6.00     2000.00
04041              -6.00     2000.00
04042              -6.00     1800.00
04043              -8.00     1800.00
04044              -8.00     1800.00
04045              -2.00     1600.00
04046               0.00     1600.00
04047              -6.00     1600.00
04048              -8.00     1600.00
04049              -8.00     1200.00
04050             -10.00     1400.00
04051              -6.00     1200.00
04052              -2.00     1200.00
04053              -2.00     1200.00
04054              -2.00     1200.00
04055              -6.00     1000.00
04056              -8.00      800.00
04057              -2.00     1000.00
04058              -4.00      800.00
04059              -2.00      800.00
04060              -2.00      800.00
04061              -2.00      600.00
04062             -10.00      800.00
04063              -8.00      600.00
04064               0.00      400.00
04065               0.00      400.00
04066              -6.00      200.00
04067              -8.00      200.00
04068              -2.00      200.00
04069               6.00      200.00
04070               6.00        0.00
04071               0.00        0.00
04072               0.00        0.00
04073              -6.00     -400.00
04074              -8.00        0.00
04075              -2.00     -400.00
04076               2.00     -200.00
04077              14.00     -400.00
04078              70.00     -400.00
04079             158.00     -600.00
04080             -56.00     -800.00
04081            -254.00     -600.00
04082            -186.00     -400.00
04083             246.00     -600.00
04084             246.00    -1000.00
04085            -254.00    -1000.00
04086            -254.00     -800.00
04087             246.00    -1200.00
04088             246.00    -1000.00
04089            -254.00    -1400.00
04090            -254.00    -1000.00
04091             246.00    -1400.00
04092             186.00    -1200.00
04093              -6.00    -1400.00
04094            -114.00    -1600.00
04095            -224.00    -1400.00
04096              72.00    -1600.00
04097             246.00    -1600.00
04098             -82.00    -1600.00
04099            -254.00    -1800.00
04100              30.00    -2000.00
04101             180.00    -2000.00
04102              30.00    -2000.00
04103             -70.00    -2000.00
04104            -122.00    -2200.00
04105              32.00    -2000.00
04106             174.00    -2400.00
04107             -68.00    -2400.00
04108            -140.00    -2200.00
04109              54.00    -2400.00
04110              90.00    -2400.00
04111             -32.00    -2400.00
04112             -34.00    -2600.00
04113             -30.00    -2800.00
04114              16.00    -2600.00
04115              48.00    -2800.00
04116             -24.00    -2800.00
04117             -46.00    -3000.00
04118              12.00    -2800.00
04119              38.00    -3000.00
04120              -2.00    -2800.00
04121             -22.00    -3000.00
04122             -18.00    -3000.00
04123              16.00    -3200.00
04124              16.00    -3000.00
04125             -16.00    -3200.00
04126             -22.00    -3200.00
04127              18.00    -3200.00
04128              10.00    -3200.00
04129             -24.00    -3200.00
04130              -8.00    -3400.00
04131              14.00    -3400.00
04132               2.00    -3200.00
04133              -6.00    -3400.00
04134              -2.00    -3600.00
04135              -8.00    -3600.00
04136              -2.00    -3600.00
04137               8.00    -3600.00
04138               8.00    -3600.00
04139               2.00    -3600.00
04140              -8.00    -3800.00
04141              -6.00    -3600.00
04142               2.00    -3600.00
04143              -6.00    -3800.00
04144               2.00    -3800.00
04145              14.00    -3800.00
04146               2.00    -3800.00
04147             -14.00    -3800.00
04148              -8.00    -3800.00
04149               0.00    -3800.00
04150               2.00    -4000.00
04151               6.00    -4000.00
04152               6.00    -4000.00
04153               2.00    -4000.00
04154              -4.00    -3800.00
04155              -8.00    -4000.00
04156              -2.00    -4000.00
04157               6.00    -4000.00
04158               4.00    -4000.00
04159               8.00    -3800.00
04160               0.00    -4000.00
04161              -8.00    -3800.00
04162              -4.00    -4000.00
04163               2.00    -4000.00
04164               4.00    -4000.00
04165               2.00    -3800.00
04166               0.00    -3800.00
04167               0.00    -3800.00
04168              -2.00    -3800.00
04169              -2.00    -4000.00
04170               0.00    -3800.00
04171               2.00    -4000.00
04172               0.00    -4000.00
04173              -2.00    -3800.00
04174              -6.00    -3800.00
04175              -8.00    -4000.00
04176               0.00    -3800.00
04177               6.00    -3800.00
04178               2.00    -3800.00
04179               0.00    -3800.00
04180              -2.00    -3800.00
04181              -6.00    -3800.00
04182              -2.00    -3800.00
04183               0.00    -3800.00
04184               6.00    -3800.00
04185               2.00    -3800.00
04186              -2.00    -3800.00
04187              -8.00    -3600.00
04188              -2.00    -3600.00
04189              -4.00    -3600.00
04190               2.00    -3600.00
04191               0.00    -3600.00
04192               2.00    -3600.00
04193              -2.00    -3600.00
04194              -2.00    -3600.00
04195              -6.00    -3400.00
04196              -2.00    -3400.00
04197               0.00    -3200.00
04198               2.00    -3200.00
04199               2.00    -3200.00
04200              -2.00    -3200.00
04201              -4.00    -3400.00
04202              -4.00    -3200.00
04203              -2.00    -3200.00
04204               0.00    -3000.00
04205               0.00    -3000.00
04206               0.00    -3000.00
04207              -6.00    -3000.00
04208              -2.00    -3000.00
04209              -2.00    -3000.00
04210               0.00    -3000.00
04211               0.00    -2800.00
04212               2.00    -2800.00
04213               2.00    -2800.00
04214              -2.00    -2800.00
04215              -6.00    -2800.00
04216              -2.00    -2600.00
04217               0.00    -2400.00
04218               2.00    -2400.00
04219               2.00    -2400.00
04220               0.00    -2400.00
04221              -2.00    -2400.00
04222              -8.00    -2200.00
04223              -4.00    -2200.00
04224               2.00    -2000.00
04225               2.00    -2000.00
04226               0.00    -2000.00
04227               0.00    -2000.00
04228              -2.00    -2000.00
04229              -6.00    -1600.00
04230               0.00    -1800.00
04231               2.00    -1800.00
04232               0.00    -1600.00
04233               0.00    -1600.00
04234              -6.00    -1400.00
04235              -2.00    -1600.00
04236               0.00    -1400.00
04237               0.00    -1400.00
04238               0.00    -1200.00
04239               0.00    -1200.00
04240              -2.00    -1200.00
04241              -2.00    -1000.00
04242              -6.00    -1200.00
04243              -2.00    -1000.00
04244              -2.00     -800.00
04245              -2.00     -800.00
04246              -2.00     -800.00
04247              -2.00     -800.00
04248              -6.00     -600.00
04249              -2.00     -600.00
04250              -2.00     -600.00
04251              -2.00     -400.00
04252               0.00     -400.00
04253              -2.00     -400.00
04254              -8.00     -200.00
04255              -6.00        0.00
04256              -2.00        0.00
04257              -2.00        0.00
04258              -6.00      200.00
04259              -2.00      200.00
04260               0.00      200.00
04261              -4.00      200.00
04262               2.00      200.00
04263              16.00      400.00
04264               2.00      400.00
04265             -10.00      600.00
04266             -10.00      600.00
04267              -8.00      600.00
04268               0.00      600.00
04269              72.00      800.00
04270             198.00     1000.00
04271             -22.00     1000.00
04272            -254.00      800.00
04273            -226.00     1000.00
04274             246.00     1200.00
04275             246.00     1400.00
04276            -254.00      800.00
04277            -254.00     1200.00
04278             246.00     1600.00
04279             246.00     1400.00
04280            -254.00     1200.00
04281            -254.00     1800.00
04282             246.00     1800.00
04283              40.00     1400.00
04284            -202.00     1800.00
04285              58.00     2000.00
04286            -106.00     1600.00
04287             -14.00     2000.00
04288             246.00     2000.00
04289             -80.00     1800.00
04290            -208.00     2000.00
04291             118.00     2200.00
04292              34.00     2200.00
04293             -40.00     2200.00
04294              90.00     2400.00
04295            -142.00     2400.00
04296             -50.00     2600.00
04297             230.00     2600.00
04298            -102.00     2600.00
04299            -160.00     2800.00
04300             174.00     2800.00
04301               2.00     2600.00
04302             -94.00     2800.00
04303              62.00     2800.00
04304             -54.00     3000.00
04305             -16.00     2800.00
04306              88.00     3200.00
04307             -66.00     3000.00
04308             -14.00     3200.00
04309              28.00     3200.00
04310             -62.00     3200.00
04311              32.00     3400.00
04312              26.00     3200.00
04313             -62.00     3400.00
04314              34.00     3600.00
04315               6.00     3400.00
04316             -60.00     3400.00
04317              16.00     3600.00
04318              22.00     3600.00
04319              -6.00     3400.00
04320              -8.00     3600.00
04321             -26.00     3600.00
04322               0.00     3600.00
04323               8.00     3800.00
04324             -20.00     3800.00
04325               4.00     3800.00
04326               6.00     4000.00
04327             -22.00     3800.00
04328              -2.00     4000.00
04329               8.00     4000.00
04330             -18.00     4000.00
04331             -12.00     4000.00
04332              14.00     4000.00
04333              -2.00     4000.00
04334             -14.00     4000.00
04335              -8.00     4200.00
04336              -2.00     4000.00
04337               2.00     4000.00
04338             -12.00     4200.00
04339             -10.00     4200.00
04340               8.00     4200.00
04341             -10.00     4200.00
04342             -16.00     4200.00
04343              14.00     4400.00
04344               0.00     4200.00
04345             -18.00     4200.00
04346              -6.00     4400.00
04347              -2.00     4400.00
04348               0.00     4200.00
04349               2.00     4400.00
04350              -8.00     4400.00
04351             -10.00     4400.00
04352             -14.00     4400.00
04353              -4.00     4400.00
04354               8.00     4400.00
04355               2.00     4200.00
04356             -14.00     4400.00
04357             -14.00     4400.00
04358              -8.00     4400.00
04359               0.00     4400.00
04360               8.00     4400.00
04361              -2.00     4400.00
04362             -16.00     4200.00
04363             -10.00     4400.00
04364              -2.00     4400.00
04365               4.00     4400.00
04366              -4.00     4400.00
04367             -14.00     4400.00
04368             -10.00     4200.00
04369             -10.00     4200.00
04370              -2.00     4200.00
04371              10.00     4200.00
04372               8.00     4200.00
04373             -18.00     4200.00
04374             -32.00     4200.00
04375             -12.00     4000.00
04376               8.00     4000.00
04377               8.00     4000.00
04378              -4.00     4200.00
04379             -16.00     4000.00
04380             -14.00     4000.00
04381              -4.00     4000.00
04382              -2.00     4000.00
04383              -8.00     3800.00
04384              -8.00     3800.00
04385              -6.00     4000.00
04386              -6.00     3800.00
04387             -10.00     3600.00
04388              -8.00     3600.00
04389              -2.00     3800.00
04390              -2.00     3600.00
04391              -6.00     3600.00
04392              -8.00     3600.00
04393              -6.00     3400.00
04394              -8.00     3400.00
04395              -6.00     3600.00
04396              -4.00     3600.00
04397              -6.00     3200.00
04398              -6.00     3200.00
04399              -8.00     3200.00
04400               0.00     3200.00
04401              -6.00     3200.00
04402              -8.00     3200.00
04403              -6.00     3200.00
04404              -6.00     3200.00
04405              -2.00     3200.00
04406               2.00     3200.00
04407               0.00     2800.00
04408              -6.00     3000.00
04409             -10.00     2800.00
04410              -8.00     2800.00
04411              -2.00     2800.00
04412              -6.00     2800.00
04413              -6.00     2600.00
04414               0.00     2600.00
04415               0.00     2600.00
04416              -2.00     2400.00
04417              -8.00     2400.00
04418              -8.00     2400.00
04419              -8.00     2400.00
04420               0.00     2200.00
04421               0.00     2200.00
04422              -2.00     2000.00
04423              -8.00     2000.00
04424              -2.00     2000.00
04425              -2.00     1800.00
04426               0.00     1800.00
04427              -6.00     1800.00
04428              -6.00     1600.00
04429              -2.00     1800.00
04430              -2.00     1600.00
04431              -8.00     1600.00
04432              -6.00     1400.00
04433              -6.00     1400.00
04434              -6.00     1200.00
04435              -2.00     1400.00
04436               0.00     1200.00
04437              -2.00     1200.00
04438              -6.00     1000.00
04439              -8.00     1000.00
04440              -6.00      800.00
04441              -4.00     1000.00
04442              -2.00      800.00
04443              -2.00      800.00
04444              -2.00      600.00
04445              -6.00      400.00
04446              -8.00      400.00
04447              -6.00      400.00
04448              -4.00      400.00
04449              -6.00      400.00
04450              -4.00      200.00
04451              -2.00      200.00
04452               2.00      200.00
04453               0.00        0.00
04454               0.00        0.00
04455               6.00        0.00
04456               2.00        0.00
04457              -8.00     -200.00
04458              -8.00     -400.00
04459               0.00     -400.00
04460              12.00     -400.00
04461              64.00     -400.00
04462             160.00     -600.00
04463             -28.00     -800.00
04464            -254.00     -800.00
04465            -242.00     -600.00
04466             246.00     -800.00
04467             246.00     -800.00
04468            -254.00    -1200.00
04469            -254.00     -600.00
04470             246.00    -1000.00
04471             246.00    -1200.00
04472            -254.00    -1200.00
04473            -254.00    -1200.00
04474             246.00    -1200.00
04475             208.00    -1400.00
04476               2.00    -1400.00
04477            -106.00    -1600.00
04478            -226.00    -1400.00
04479              46.00    -1600.00
04480             246.00    -1600.00
04481             -48.00    -1800.00
04482            -254.00    -1600.00
04483               6.00    -2000.00
04484             192.00    -2000.00
04485              40.00    -2000.00
04486             -66.00    -2200.00
04487            -126.00    -2000.00
04488              18.00    -2000.00
04489             176.00    -2200.00
04490             -48.00    -2400.00
04491            -150.00    -2200.00
04492              42.00    -2600.00
04493              98.00    -2400.00
04494             -24.00    -2400.00
04495             -34.00    -2600.00
04496             -26.00    -2600.00
04497              16.00    -2800.00
04498              50.00    -2600.00
04499             -16.00    -2800.00
04500             -48.00    -2800.00
04501               8.00    -2800.00
04502              36.00    -2800.00
04503               0.00    -3000.00
04504             -22.00    -3000.00
04505             -16.00    -3000.00
04506              14.00    -3000.00
04507              18.00    -3200.00
04508             -10.00    -3000.00
04509             -22.00    -3200.00
04510              16.00    -3200.00
04511              14.00    -3200.00
04512             -24.00    -3200.00
04513              -8.00    -3400.00
04514              14.00    -3600.00
04515              10.00    -3400.00
04516              -2.00    -3400.00
04517              -8.00    -3600.00
04518             -14.00    -3600.00
04519               0.00    -3600.00
04520               8.00    -3600.00
04521               2.00    -3600.00
04522              -4.00    -3600.00
04523              -8.00    -3600.00
04524               0.00    -3800.00
04525               4.00    -3800.00
04526              -6.00    -3800.00
04527              -2.00    -3800.00
04528              12.00    -3800.00
04529               2.00    -3800.00
04530              -8.00    -3600.00
04531              -2.00    -3800.00
04532               0.00    -3800.00
04533               0.00    -3800.00
04534               2.00    -4000.00
04535               2.00    -4000.00
04536               0.00    -3800.00
04537              -2.00    -3800.00
04538              -6.00    -4000.00
04539               0.00    -4000.00
04540               2.00    -3800.00
04541               2.00    -4000.00
04542               6.00    -3800.00
04543               0.00    -4000.00
04544              -8.00    -4000.00
04545              -4.00    -3800.00
04546               2.00    -4000.00
04547               2.00    -4000.00
04548               0.00    -4200.00
04549               0.00    -4000.00
04550              -2.00    -4000.00
04551              -2.00    -3800.00
04552              -2.00    -4000.00
04553               2.00    -3800.00
04554               4.00    -4000.00
04555               0.00    -4000.00
04556               0.00    -4000.00
04557               0.00    -3800.00
04558              -4.00    -4000.00
04559               0.00    -3800.00
04560               2.00    -3800.00
04561               2.00    -3800.00
04562               0.00    -3800.00
04563              -2.00    -3800.00
04564              -2.00    -3800.00
04565              -4.00    -3800.00
04566              -2.00    -3800.00
04567               2.00    -3800.00
04568               0.00    -3800.00
04569               0.00    -3800.00
04570              -2.00    -3800.00
04571              -2.00    -3800.00
04572              -4.00    -3600.00
04573               0.00    -3600.00
04574               0.00    -3600.00
04575               2.00    -3600.00
04576              -2.00    -3600.00
04577               0.00    -3400.00
04578              -2.00    -3600.00
04579              -2.00    -3400.00
04580              -2.00    -3400.00
04581               0.00    -3600.00
04582               0.00    -3400.00
04583              -2.00    -3400.00
04584              -4.00    -3200.00
04585              -4.00    -3200.00
04586              -2.00    -3200.00
04587               0.00    -3000.00
04588               0.00    -3200.00
04589               0.00    -3000.00
04590              -2.00    -3000.00
04591              -2.00    -3000.00
04592               0.00    -2800.00
04593              -2.00    -2800.00
04594               0.00    -2800.00
04595               2.00    -2800.00
04596               0.00    -2800.00
04597              -4.00    -2800.00
04598              -6.00    -2800.00
04599              -2.00    -2600.00
04600              -2.00    -2600.00
04601               2.00    -2400.00
04602               0.00    -2400.00
04603              -2.00    -2400.00
04604              -2.00    -2200.00
04605              -2.00    -2200.00
04606               0.00    -2200.00
04607               0.00    -2000.00
04608               0.00    -2000.00
04609              -2.00    -2000.00
04610               0.00    -2000.00
04611              -2.00    -2000.00
04612              -2.00    -1800.00
04613               0.00    -1800.00
04614               0.00    -1800.00
04615              -2.00    -1600.00
04616               0.00    -1600.00
04617               0.00    -1600.00
04618               0.00    -1400.00
04619              -2.00    -1400.00
04620              -2.00    -1400.00
04621               0.00    -1400.00
04622               0.00    -1000.00
04623               0.00    -1000.00
04624               0.00    -1000.00
04625              -2.00    -1000.00
04626              -4.00    -1000.00
04627              -2.00     -800.00
04628               0.00     -800.00
04629               0.00     -800.00
04630               0.00     -600.00
04631              -2.00     -600.00
04632              -8.00     -600.00
04633              -8.00     -600.00
04634              -6.00     -400.00
04635               2.00     -400.00
04636               2.00     -400.00
04637               0.00     -200.00
04638              -6.00        0.00
04639             -10.00        0.00
04640              -6.00        0.00
04641               0.00      200.00
04642              -2.00        0.00
04643               2.00      200.00
04644               0.00      200.00
04645              -2.00      200.00
04646               2.00      400.00
04647               8.00      400.00
04648               0.00      400.00
04649              -6.00      400.00
04650              -8.00      600.00
04651              -2.00      400.00
04652              56.00      800.00
04653             188.00     1000.00
04654               2.00     1000.00
04655            -254.00      800.00
04656            -254.00      800.00
04657             246.00     1200.00
04658             246.00     1200.00
04659            -254.00     1000.00
04660            -254.00     1200.00
04661             246.00     1600.00
04662             246.00     1400.00
04663            -254.00     1200.00
04664            -254.00     1600.00
04665             246.00     1800.00
04666              94.00     1200.00
04667            -200.00     1600.00
04668              48.00     2000.00
04669             -98.00     1800.00
04670             -38.00     1800.00
04671             246.00     2000.00
04672             -44.00     2000.00
04673            -224.00     1800.00
04674             106.00     2400.00
04675              52.00     2400.00
04676             -54.00     2200.00
04677              90.00     2600.00
04678            -122.00     2400.00
04679             -72.00     2600.00
04680             234.00     2800.00
04681             -78.00     2600.00
04682            -192.00     2600.00
04683             158.00     2800.00
04684              26.00     2600.00
04685             -96.00     2800.00
04686              64.00     3000.00
04687             -48.00     2800.00
04688             -30.00     3000.00
04689              94.00     3200.00
04690             -58.00     2800.00
04691             -24.00     3200.00
04692              38.00     3200.00
04693             -50.00     3000.00
04694              30.00     3400.00
04695              24.00     3400.00
04696             -82.00     3200.00
04697              22.00     3400.00
04698              30.00     3400.00
04699             -42.00     3400.00
04700               8.00     3400.00
04701               6.00     3600.00
04702             -22.00     3400.00
04703               0.00     3800.00
04704              -8.00     3600.00
04705               2.00     3600.00
04706               2.00     3800.00
04707             -30.00     3600.00
04708              -2.00     3800.00
04709              12.00     4000.00
04710             -18.00     3800.00
04711              -2.00     4000.00
04712              14.00     4000.00
04713             -18.00     4000.00
04714             -18.00     4000.00
04715               6.00     4200.00
04716              -6.00     4000.00
04717             -12.00     4000.00
04718              -2.00     4000.00
04719              -6.00     4200.00
04720               0.00     4200.00
04721             -10.00     4200.00
04722             -10.00     4200.00
04723               6.00     4200.00
04724             -10.00     4200.00
04725             -16.00     4200.00
04726               8.00     4200.00
04727               0.00     4200.00
04728             -10.00     4200.00
04729              -2.00     4400.00
04730              -8.00     4400.00
04731              -8.00     4200.00
04732              -2.00     4400.00
04733              -2.00     4400.00
04734              -2.00     4200.00
04735              -8.00     4400.00
04736             -10.00     4200.00
04737               0.00     4200.00
04738               0.00     4400.00
04739              -8.00     4400.00
04740              -6.00     4400.00
04741              -4.00     4200.00
04742              -8.00     4200.00
04743              -2.00     4200.00
04744               0.00     4400.00
04745              -8.00     4400.00
04746              -6.00     4400.00
04747              -2.00     4400.00
04748              -2.00     4200.00
04749             -10.00     4200.00
04750             -10.00     4200.00
04751               0.00     4200.00
04752               0.00     4200.00
04753             -10.00     4200.00
04754              -2.00     4200.00
04755               0.00     4000.00
04756              -8.00     4200.00
04757              -8.00     4000.00
04758              -2.00     4200.00
04759               0.00     4200.00
04760              -6.00     4000.00
04761              -8.00     4200.00
04762              -6.00     4000.00
04763              -8.00     4000.00
04764              -8.00     4000.00
04765              -6.00     4000.00
04766              -2.00     3800.00
04767              -6.00     4000.00
04768              -8.00     3800.00
04769             -10.00     3800.00
04770             -10.00     3800.00
04771              -8.00     3600.00
04772              -2.00     3600.00
04773              -6.00     3600.00
04774              -4.00     3600.00
04775              -6.00     3600.00
04776              -2.00     3600.00
04777               0.00     3400.00
04778               0.00     3400.00
04779              -2.00     3600.00
04780             -10.00     3600.00
04781             -18.00     3200.00
04782             -18.00     3400.00
04783             -12.00     3200.00
04784              -8.00     3200.00
04785               2.00     3200.00
04786               8.00     3200.00
04787               4.00     3200.00
04788              -2.00     3000.00
04789             -10.00     3000.00
04790             -12.00     3000.00
04791             -12.00     2800.00
04792             -14.00     2800.00
04793              -2.00     2800.00
04794               0.00     2800.00
04795               0.00     2600.00
04796               0.00     2800.00
04797              -2.00     2600.00
04798              -2.00     2400.00
04799              -2.00     2600.00
04800              -8.00     2400.00
04801              -8.00     2400.00
04802             -10.00     2400.00
04803             -14.00     2200.00
04804              -6.00     2200.00
04805               2.00     2200.00
04806               0.00     2000.00
04807               4.00     2000.00
04808               2.00     1800.00
04809              -6.00     1800.00
04810              -8.00     1800.00
04811             -10.00     1800.00
04812              -8.00     1600.00
04813              -6.00     1600.00
04814              -6.00     1600.00
04815               0.00     1600.00
04816               2.00     1200.00
04817               0.00     1400.00
04818               0.00     1200.00
04819              -2.00     1200.00
04820              -6.00     1200.00
04821             -10.00     1200.00
04822             -10.00     1000.00
04823              -6.00      800.00
04824               0.00     1000.00
04825               0.00      800.00
04826               0.00      800.00
04827               0.00      800.00
04828              -6.00      800.00
04829              -8.00      400.00
04830              -8.00      400.00
04831              -8.00      400.00
04832              -6.00      400.00
04833              -6.00      200.00
04834               0.00      200.00
04835               6.00      200.00
04836               2.00        0.00
04837               0.00        0.00
04838               2.00        0.00
04839               0.00        0.00
04840             -10.00     -200.00
04841             -10.00     -200.00
04842               0.00     -400.00
04843              14.00     -400.00
04844              62.00     -400.00
04845             160.00     -600.00
04846              -8.00     -800.00
04847            -254.00     -800.00
04848            -254.00     -600.00
04849             246.00     -600.00
04850             246.00     -800.00
04851            -254.00    -1200.00
04852            -254.00     -800.00
04853             246.00    -1200.00
04854             246.00     -800.00
04855            -254.00    -1200.00
04856            -254.00    -1200.00
04857             216.00    -1200.00
04858             224.00    -1200.00
04859              10.00    -1400.00
04860             -96.00    -1600.00
04861            -226.00    -1600.00
04862              14.00    -1600.00
04863             246.00    -1600.00
04864             -10.00    -1600.00
04865            -254.00    -1800.00
04866             -18.00    -2000.00
04867             194.00    -2000.00
04868              48.00    -2000.00
04869             -56.00    -2200.00
04870            -128.00    -2200.00
04871               2.00    -2000.00
04872             178.00    -2400.00
04873             -26.00    -2400.00
04874            -152.00    -2200.00
04875              32.00    -2400.00
04876             106.00    -2800.00
04877             -26.00    -2400.00
04878             -34.00    -2600.00
04879             -32.00    -2800.00
04880              14.00    -2800.00
04881              48.00    -2800.00
04882              -8.00    -2800.00
04883             -50.00    -2800.00
04884               8.00    -2800.00
04885              38.00    -2800.00
04886               2.00    -2800.00
04887             -22.00    -3000.00
04888             -16.00    -3000.00
04889              14.00    -3200.00
04890              18.00    -3200.00
04891             -10.00    -3200.00
04892             -24.00    -3200.00
04893              16.00    -3200.00
04894              14.00    -3200.00
04895             -24.00    -3200.00
04896             -14.00    -3200.00
04897              16.00    -3200.00
04898               6.00    -3400.00
04899              -4.00    -3600.00
04900              -8.00    -3600.00
04901             -10.00    -3600.00
04902              -2.00    -3600.00
04903              10.00    -3600.00
04904               2.00    -3600.00
04905              -4.00    -3800.00
04906              -6.00    -3800.00
04907              -2.00    -3800.00
04908               0.00    -3600.00
04909              -8.00    -3800.00
04910              -4.00    -3800.00
04911              10.00    -3800.00
04912               2.00    -3800.00
04913             -10.00    -3800.00
04914              -6.00    -3800.00
04915               0.00    -4000.00
04916               0.00    -3800.00
04917              -2.00    -4000.00
04918               0.00    -4000.00
04919               2.00    -3800.00
04920               0.00    -4000.00
04921              -6.00    -4000.00
04922               0.00    -4000.00
04923               0.00    -4000.00
04924               0.00    -4000.00
04925               2.00    -4000.00
04926               0.00    -4000.00
04927              -6.00    -4000.00
04928              -6.00    -4000.00
04929               2.00    -4000.00
04930               2.00    -4000.00
04931               2.00    -4000.00
04932               2.00    -4000.00
04933               0.00    -4200.00
04934              -2.00    -4000.00
04935              -6.00    -4000.00
04936               0.00    -4000.00
04937               2.00    -4000.00
04938               0.00    -3800.00
04939               0.00    -3800.00
04940               0.00    -4000.00
04941              -6.00    -3800.00
04942              -2.00    -4000.00
04943               2.00    -4000.00
04944               0.00    -3800.00
04945               2.00    -4000.00
04946              -2.00    -3800.00
04947              -6.00    -4000.00
04948              -2.00    -3600.00
04949              -2.00    -3800.00
04950               2.00    -3600.00
04951               2.00    -3800.00
04952               0.00    -3600.00
04953              -4.00    -3800.00
04954              -2.00    -3800.00
04955              -8.00    -3800.00
04956               0.00    -3600.00
04957               0.00    -3600.00
04958               4.00    -3600.00
04959              -2.00    -3600.00
04960              -2.00    -3600.00
04961              -2.00    -3400.00
04962              -2.00    -3600.00
04963              -2.00    -3400.00
04964               0.00    -3400.00
04965               0.00    -3400.00
04966              -2.00    -3200.00
04967              -2.00    -3200.00
04968              -2.00    -3200.00
04969              -2.00    -3200.00
04970               0.00    -3200.00
04971               2.00    -3000.00
04972               0.00    -3000.00
04973              -2.00    -3000.00
04974              -2.00    -3000.00
04975              -2.00    -2800.00
04976              -2.00    -3000.00
04977               0.00    -2800.00
04978               0.00    -2800.00
04979              -2.00    -2800.00
04980              -6.00    -2800.00
04981              -2.00    -2600.00
04982              -2.00    -2600.00
04983               0.00    -2400.00
04984               0.00    -2600.00
04985               0.00    -2400.00
04986               0.00    -2400.00
04987              -6.00    -2400.00
04988              -2.00    -2200.00
04989              -2.00    -2200.00
04990               0.00    -2200.00
04991               0.00    -2000.00
04992               0.00    -2000.00
04993              -2.00    -2000.00
04994               0.00    -2000.00
04995              -2.00    -2000.00
04996               0.00    -1800.00
04997              -2.00    -2000.00
04998               0.00    -1600.00
04999               6.00    -1600.00
05000               0.00    -1600.00
